PE UV       SUBTECH     SPECTRUM    ASCII       PEDS        4.00        
   -1
001-3S-JB02-x-F001-9238.Sample.asc
23/12/20
10:32:23.00
23/12/20
10:32:23.00
Administrator

250.000000
1
Lambda 750
750N8071901
PerkinElmer UV WinLab 6.0.4.0738 / 1.61.00 Lambda 900

0
0
3350/servo 860.8/2
0
0
UV/VIS
1
1
1
CommonBeamDepol,150mm sphere / downward view
0
0
0
0
Program
Program
3350/servo 860.8/2
3350/0.2 860.8/0.2
3350/0.2 860.8/0.2
0
1
 
 
 
0
 
860.8
319.2
860.8
Front
100
on
 
 
0
0
0
 
0
 
 
 
0
 
 
0
0
0
0
0
 
 
 
 
0
0


0
0
#HDR
-1
-1
#GR
nm
%R
1.0
0.0
2300.000000
-10.000000
206
8
58.627557
8.774576
#DATA
2300.000000	10.816451
2290.000000	10.509812
2280.000000	10.983687
2270.000000	12.407511
2260.000000	13.218739
2250.000000	13.955384
2240.000000	13.312087
2230.000000	13.400125
2220.000000	13.488007
2210.000000	12.784030
2200.000000	11.896960
2190.000000	12.346452
2180.000000	12.726294
2170.000000	13.439387
2160.000000	14.665020
2150.000000	16.052236
2140.000000	14.498433
2130.000000	15.488051
2120.000000	15.713501
2110.000000	15.852156
2100.000000	15.274130
2090.000000	14.857103
2080.000000	13.887319
2070.000000	12.764269
2060.000000	12.033477
2050.000000	12.647809
2040.000000	12.806670
2030.000000	12.918659
2020.000000	12.220029
2010.000000	11.741191
2000.000000	10.973194
1990.000000	10.219104
1980.000000	9.490458
1970.000000	9.367022
1960.000000	9.178749
1950.000000	9.324412
1940.000000	10.653628
1930.000000	12.592034
1920.000000	16.289211
1910.000000	21.322628
1900.000000	26.459964
1890.000000	30.556934
1880.000000	33.353085
1870.000000	34.305937
1860.000000	34.199791
1850.000000	34.080058
1840.000000	33.570668
1830.000000	33.059376
1820.000000	32.497806
1810.000000	31.929539
1800.000000	31.631067
1790.000000	31.246522
1780.000000	30.588444
1770.000000	29.977896
1760.000000	29.332341
1750.000000	28.931794
1740.000000	29.357817
1730.000000	30.611997
1720.000000	31.387569
1710.000000	31.680634
1700.000000	32.870332
1690.000000	35.178847
1680.000000	37.214529
1670.000000	37.934415
1660.000000	38.054993
1650.000000	37.459898
1640.000000	36.775634
1630.000000	35.805951
1620.000000	34.781258
1610.000000	33.703296
1600.000000	32.798194
1590.000000	32.065835
1580.000000	31.320992
1570.000000	30.966961
1560.000000	30.323234
1550.000000	29.122747
1540.000000	28.028670
1530.000000	27.439440
1520.000000	27.021094
1510.000000	26.761311
1500.000000	26.702744
1490.000000	26.952258
1480.000000	27.249801
1470.000000	27.822737
1460.000000	28.764541
1450.000000	30.138543
1440.000000	32.158802
1430.000000	34.968619
1420.000000	38.563925
1410.000000	42.368818
1400.000000	45.426820
1390.000000	47.356700
1380.000000	48.412674
1370.000000	49.601295
1360.000000	50.778194
1350.000000	51.942108
1340.000000	52.914833
1330.000000	53.798753
1320.000000	54.302902
1310.000000	54.369547
1300.000000	54.268238
1290.000000	54.089021
1280.000000	54.101474
1270.000000	54.232472
1260.000000	54.138716
1250.000000	53.827807
1240.000000	53.466133
1230.000000	53.059357
1220.000000	52.364348
1210.000000	51.714830
1200.000000	51.544602
1190.000000	52.106723
1180.000000	53.237746
1170.000000	54.659042
1160.000000	55.812661
1150.000000	56.778365
1140.000000	57.392798
1130.000000	57.625448
1120.000000	57.650329
1110.000000	57.840822
1100.000000	57.778241
1090.000000	57.716118
1080.000000	57.598287
1070.000000	57.421796
1060.000000	57.270350
1050.000000	57.205236
1040.000000	57.077876
1030.000000	56.925239
1020.000000	56.919682
1010.000000	57.125966
1000.000000	57.227087
990.000000	57.302567
980.000000	57.511363
970.000000	57.740617
960.000000	57.998761
950.000000	58.038477
940.000000	58.027638
930.000000	57.950662
920.000000	58.013373
910.000000	58.038978
900.000000	58.133308
890.000000	58.426700
880.000000	58.480654
870.000000	58.494002
860.000000	58.627557
850.000000	57.894174
840.000000	57.903965
830.000000	57.744873
820.000000	57.668192
810.000000	57.796388
800.000000	57.655653
790.000000	57.652045
780.000000	57.463865
770.000000	57.193643
760.000000	57.117375
750.000000	56.797207
740.000000	56.699120
730.000000	56.525387
720.000000	56.257162
710.000000	55.916507
700.000000	55.534849
690.000000	55.188996
680.000000	54.798709
670.000000	54.089421
660.000000	53.621534
650.000000	52.878610
640.000000	52.154555
630.000000	51.466030
620.000000	50.656078
610.000000	49.912399
600.000000	49.231652
590.000000	48.606163
580.000000	47.715092
570.000000	46.911361
560.000000	46.187164
550.000000	45.305438
540.000000	44.339984
530.000000	43.391418
520.000000	42.485299
510.000000	41.349619
500.000000	40.032100
490.000000	38.404648
480.000000	36.784451
470.000000	34.824797
460.000000	32.669600
450.000000	30.214807
440.000000	27.473518
430.000000	24.681880
420.000000	21.916843
410.000000	19.813320
400.000000	18.929764
390.000000	18.185849
380.000000	17.176458
370.000000	15.902508
360.000000	14.776000
350.000000	13.553598
340.000000	13.081709
330.000000	12.305637
320.000000	11.429931
310.000000	11.315771
300.000000	9.907015
290.000000	8.774576
280.000000	8.880830
270.000000	9.222732
260.000000	9.848754
250.000000	9.994580
