PE UV       SUBTECH     SPECTRUM    ASCII       PEDS        4.00        
   -1
001-3SJB01-x-F001-9667.Sample.asc
23/12/20
10:15:41.00
23/12/20
10:15:41.00
Administrator

250.000000
1
Lambda 750
750N8071901
PerkinElmer UV WinLab 6.0.4.0738 / 1.61.00 Lambda 900

0
0
3350/servo 860.8/2
0
0
UV/VIS
1
1
1
CommonBeamDepol,150mm sphere / downward view
0
0
0
0
Program
Program
3350/servo 860.8/2
3350/0.2 860.8/0.2
3350/0.2 860.8/0.2
0
1
 
 
 
0
 
860.8
319.2
860.8
Front
100
on
 
 
0
0
0
 
0
 
 
 
0
 
 
0
0
0
0
0
 
 
 
 
0
0


0
0
#HDR
-1
-1
#GR
nm
%R
1.0
0.0
2300.000000
-10.000000
206
8
96.148844
9.139600
#DATA
2300.000000	10.482512
2290.000000	11.278500
2280.000000	11.609175
2270.000000	13.588792
2260.000000	14.392412
2250.000000	14.801224
2240.000000	14.748710
2230.000000	14.654823
2220.000000	14.609919
2210.000000	13.462918
2200.000000	13.120043
2190.000000	13.498462
2180.000000	13.944237
2170.000000	14.750621
2160.000000	15.816132
2150.000000	17.208578
2140.000000	17.330037
2130.000000	16.748740
2120.000000	17.558092
2110.000000	17.398513
2100.000000	16.846671
2090.000000	16.802560
2080.000000	15.323269
2070.000000	14.061382
2060.000000	13.110913
2050.000000	13.662336
2040.000000	13.911148
2030.000000	14.042171
2020.000000	13.374330
2010.000000	12.324320
2000.000000	11.534337
1990.000000	10.637600
1980.000000	10.285253
1970.000000	9.946112
1960.000000	9.430072
1950.000000	10.304425
1940.000000	11.258540
1930.000000	13.775720
1920.000000	18.442172
1910.000000	25.474465
1900.000000	32.664141
1890.000000	39.546889
1880.000000	44.181601
1870.000000	45.894422
1860.000000	46.276515
1850.000000	45.785793
1840.000000	44.843859
1830.000000	43.989490
1820.000000	42.790050
1810.000000	41.964437
1800.000000	41.475237
1790.000000	40.699930
1780.000000	39.572557
1770.000000	38.721034
1760.000000	37.674955
1750.000000	36.927517
1740.000000	37.622130
1730.000000	39.721641
1720.000000	41.102768
1710.000000	41.440529
1700.000000	43.530975
1690.000000	47.689147
1680.000000	51.351228
1670.000000	52.762431
1660.000000	52.752459
1650.000000	51.792674
1640.000000	50.316266
1630.000000	48.645494
1620.000000	46.696251
1610.000000	44.833351
1600.000000	43.268092
1590.000000	41.880387
1580.000000	40.648967
1570.000000	40.001317
1560.000000	38.852255
1550.000000	36.951475
1540.000000	35.224151
1530.000000	34.246160
1520.000000	33.569712
1510.000000	33.135680
1500.000000	33.083125
1490.000000	33.321798
1480.000000	33.796421
1470.000000	34.665340
1460.000000	36.187512
1450.000000	38.424177
1440.000000	41.867185
1430.000000	46.985652
1420.000000	53.875395
1410.000000	61.211040
1400.000000	67.641963
1390.000000	71.720641
1380.000000	74.165995
1370.000000	76.898702
1360.000000	79.761926
1350.000000	82.375847
1340.000000	84.554511
1330.000000	86.147987
1320.000000	87.179812
1310.000000	87.370389
1300.000000	87.226218
1290.000000	87.027140
1280.000000	87.134728
1270.000000	87.429699
1260.000000	87.122712
1250.000000	86.236849
1240.000000	85.358350
1230.000000	84.283202
1220.000000	82.636029
1210.000000	81.051240
1200.000000	80.486662
1190.000000	81.763531
1180.000000	84.780747
1170.000000	88.219512
1160.000000	91.126633
1150.000000	93.433830
1140.000000	95.027918
1130.000000	95.709565
1120.000000	96.037063
1110.000000	96.148844
1100.000000	96.084395
1090.000000	95.820412
1080.000000	95.462705
1070.000000	95.110270
1060.000000	94.663239
1050.000000	94.363529
1040.000000	94.168857
1030.000000	94.137175
1020.000000	94.096612
1010.000000	94.284091
1000.000000	94.433511
990.000000	94.651388
980.000000	95.032008
970.000000	95.491967
960.000000	95.866007
950.000000	96.007929
940.000000	95.983802
930.000000	95.736782
920.000000	95.630515
910.000000	95.680219
900.000000	95.983359
890.000000	95.743562
880.000000	95.780663
870.000000	96.116147
860.000000	95.748465
850.000000	96.126588
840.000000	95.820885
830.000000	95.393142
820.000000	95.151082
810.000000	95.039670
800.000000	95.015929
790.000000	94.351605
780.000000	94.049344
770.000000	93.791091
760.000000	93.126697
750.000000	92.766784
740.000000	91.944771
730.000000	91.475710
720.000000	90.692165
710.000000	89.914090
700.000000	88.743436
690.000000	87.890842
680.000000	86.637644
670.000000	85.244951
660.000000	83.813379
650.000000	82.133199
640.000000	80.333975
630.000000	78.623888
620.000000	76.818933
610.000000	75.143003
600.000000	73.411035
590.000000	71.835428
580.000000	70.139331
570.000000	68.426358
560.000000	66.860251
550.000000	64.925149
540.000000	63.006385
530.000000	61.079634
520.000000	58.997750
510.000000	56.887065
500.000000	54.395478
490.000000	51.481186
480.000000	48.299438
470.000000	45.076073
460.000000	41.498418
450.000000	37.413093
440.000000	33.484742
430.000000	29.469665
420.000000	25.671691
410.000000	22.845645
400.000000	21.560305
390.000000	20.655320
380.000000	19.291252
370.000000	17.763454
360.000000	16.499399
350.000000	15.277286
340.000000	14.120100
330.000000	13.112825
320.000000	12.612009
310.000000	11.963827
300.000000	10.546109
290.000000	9.144946
280.000000	9.139600
270.000000	9.667431
260.000000	10.219240
250.000000	10.534233
