PE UV       SUBTECH     SPECTRUM    ASCII       PEDS        4.00        
   -1
SGRA10_1.Sample.asc
23/09/07
11:59:33.00
23/09/07
11:59:33.00
Administrator

250.000000
1
Lambda 750
750N8071901
PerkinElmer UV WinLab 6.0.4.0738 / 1.61.00 Lambda 900

0
0
3350/servo 860.8/2
0
0
UV/VIS
1
1
1
CommonBeamDepol,150mm sphere / downward view
0
0
0
0
Program
Program
3350/servo 860.8/2
3350/0.2 860.8/0.2
3350/0.2 860.8/0.2
0
1
 
 
 
0
 
860.8
319.2
860.8
Front
100
on
 
 
0
0
0
 
0
 
 
 
0
 
 
0
0
0
0
0
 
 
 
 
0
0


0
0
#HDR
-1
-1
#GR
nm
%R
1.0
0.0
2500.000000
-10.000000
226
8
81.423390
15.559669
#DATA
2500.000000	32.822747
2490.000000	33.886656
2480.000000	34.950386
2470.000000	37.012688
2460.000000	35.994959
2450.000000	37.405590
2440.000000	38.625848
2430.000000	39.476971
2420.000000	39.055130
2410.000000	39.480730
2400.000000	40.365273
2390.000000	40.802742
2380.000000	40.452440
2370.000000	40.446877
2360.000000	40.566191
2350.000000	41.786417
2340.000000	40.693174
2330.000000	39.843700
2320.000000	39.753604
2310.000000	38.249693
2300.000000	39.104929
2290.000000	38.947134
2280.000000	40.449936
2270.000000	41.697597
2260.000000	43.860665
2250.000000	45.590943
2240.000000	45.766865
2230.000000	44.958754
2220.000000	44.581949
2210.000000	43.632392
2200.000000	43.411853
2190.000000	43.500339
2180.000000	44.248684
2170.000000	45.164465
2160.000000	46.551834
2150.000000	47.273263
2140.000000	48.424301
2130.000000	48.514991
2120.000000	48.920643
2110.000000	48.451243
2100.000000	48.030528
2090.000000	46.964666
2080.000000	45.379442
2070.000000	43.621397
2060.000000	42.621775
2050.000000	43.408080
2040.000000	44.093143
2030.000000	43.737742
2020.000000	42.562859
2010.000000	41.333130
2000.000000	39.770207
1990.000000	38.527218
1980.000000	37.298049
1970.000000	36.276607
1960.000000	36.094150
1950.000000	36.689663
1940.000000	38.956990
1930.000000	42.047266
1920.000000	46.648353
1910.000000	52.906431
1900.000000	58.060765
1890.000000	62.365269
1880.000000	64.930924
1870.000000	65.660136
1860.000000	65.826068
1850.000000	65.779795
1840.000000	65.470519
1830.000000	65.092511
1820.000000	64.622397
1810.000000	64.292644
1800.000000	63.941370
1790.000000	63.611209
1780.000000	63.366373
1770.000000	62.930514
1760.000000	62.560197
1750.000000	62.253600
1740.000000	62.501683
1730.000000	63.585836
1720.000000	64.174828
1710.000000	64.612929
1700.000000	65.410427
1690.000000	66.885332
1680.000000	68.203212
1670.000000	68.679825
1660.000000	68.769549
1650.000000	68.403206
1640.000000	68.036930
1630.000000	67.437528
1620.000000	66.673733
1610.000000	66.069477
1600.000000	65.381149
1590.000000	64.829966
1580.000000	64.335669
1570.000000	64.008000
1560.000000	63.458060
1550.000000	62.543422
1540.000000	61.751983
1530.000000	61.214576
1520.000000	60.809394
1510.000000	60.485528
1500.000000	60.458407
1490.000000	60.595563
1480.000000	60.727908
1470.000000	61.190390
1460.000000	61.919792
1450.000000	63.035047
1440.000000	64.544854
1430.000000	66.487565
1420.000000	69.084395
1410.000000	71.692710
1400.000000	73.693786
1390.000000	74.871780
1380.000000	75.504009
1370.000000	76.047425
1360.000000	76.713970
1350.000000	77.235368
1340.000000	77.494744
1330.000000	77.905816
1320.000000	78.328976
1310.000000	78.436236
1300.000000	78.381623
1290.000000	78.489771
1280.000000	78.463368
1270.000000	78.448270
1260.000000	78.392258
1250.000000	78.264877
1240.000000	78.239223
1230.000000	78.036113
1220.000000	77.781783
1210.000000	77.490107
1200.000000	77.510716
1190.000000	77.830942
1180.000000	78.240090
1170.000000	78.917151
1160.000000	79.431279
1150.000000	79.864560
1140.000000	80.157472
1130.000000	80.245990
1120.000000	80.306017
1110.000000	80.443371
1100.000000	80.385102
1090.000000	80.451362
1080.000000	80.430779
1070.000000	80.371298
1060.000000	80.276312
1050.000000	80.195720
1040.000000	80.174823
1030.000000	80.209345
1020.000000	80.284368
1010.000000	80.392148
1000.000000	80.472356
990.000000	80.538923
980.000000	80.639801
970.000000	80.754235
960.000000	80.925769
950.000000	80.914149
940.000000	80.949950
930.000000	81.032270
920.000000	81.047969
910.000000	81.078743
900.000000	81.286860
890.000000	81.214974
880.000000	81.383223
870.000000	81.423390
860.000000	81.297755
850.000000	80.504201
840.000000	80.945055
830.000000	80.762270
820.000000	81.067651
810.000000	80.511143
800.000000	80.957891
790.000000	80.687159
780.000000	80.650154
770.000000	80.652165
760.000000	80.534842
750.000000	80.317110
740.000000	80.202901
730.000000	80.218122
720.000000	79.968163
710.000000	79.766564
700.000000	79.591873
690.000000	79.393909
680.000000	79.266220
670.000000	78.992785
660.000000	78.661824
650.000000	78.412984
640.000000	78.151257
630.000000	77.619994
620.000000	77.340045
610.000000	76.882739
600.000000	76.513728
590.000000	75.876632
580.000000	75.593266
570.000000	74.972733
560.000000	74.374376
550.000000	73.811862
540.000000	73.288095
530.000000	72.662488
520.000000	71.994125
510.000000	71.310501
500.000000	70.684346
490.000000	69.767333
480.000000	69.035090
470.000000	68.227935
460.000000	67.311257
450.000000	66.166621
440.000000	65.102392
430.000000	63.611747
420.000000	62.023814
410.000000	60.338223
400.000000	58.754414
390.000000	56.947639
380.000000	55.398951
370.000000	53.288562
360.000000	50.816069
350.000000	49.221300
340.000000	46.033382
330.000000	44.178692
320.000000	41.380412
310.000000	40.312614
300.000000	34.194315
290.000000	25.238522
280.000000	18.832067
270.000000	16.191220
260.000000	15.559669
250.000000	16.565143
