PE UV       SUBTECH     SPECTRUM    ASCII       PEDS        4.00        
   -1
RDgChevreUK 42.Sample.asc
18/03/12
09:43:44.00
18/03/12
09:43:44.00
Administrator

200.000000
1
Lambda 750
750N8071901
PerkinElmer UV WinLab 6.0.4.0738 / 1.61.00 Lambda 900

0
0
3350/servo 860.8/2
0
0
UV/VIS
1
1
1
CommonBeamDepol,150mm sphere / downward view
0
0
0
0
Program
Program
3350/servo 860.8/2
3350/0.2 860.8/0.2
3350/0.2 860.8/0.2
0
1
 
 
 
0
 
860.8
319.2
860.8
Front
100
on
 
 
0
0
0
 
0
 
 
 
0
 
 
0
0
0
0
0
 
 
 
 
0
0


0
0
#HDR
-1
-1
#GR
nm
%R
1.0
0.0
2350.000000
-1.000000
2151
8
58.714158
10.098538
#DATA
2350.000000	27.109849
2349.000000	26.818510
2348.000000	26.851974
2347.000000	27.563031
2346.000000	27.225324
2345.000000	26.801783
2344.000000	26.632976
2343.000000	26.975476
2342.000000	26.931393
2341.000000	27.331300
2340.000000	27.316862
2339.000000	27.162078
2338.000000	27.772591
2337.000000	27.333982
2336.000000	27.716872
2335.000000	27.828950
2334.000000	27.774483
2333.000000	27.868621
2332.000000	27.756708
2331.000000	27.803969
2330.000000	27.871965
2329.000000	27.673215
2328.000000	27.708249
2327.000000	27.734844
2326.000000	27.615654
2325.000000	27.656275
2324.000000	27.486955
2323.000000	27.495053
2322.000000	27.400617
2321.000000	27.597704
2320.000000	27.415973
2319.000000	27.376073
2318.000000	27.532734
2317.000000	27.536738
2316.000000	27.374095
2315.000000	27.435374
2314.000000	27.266606
2313.000000	27.059051
2312.000000	26.866495
2311.000000	26.978317
2310.000000	27.022687
2309.000000	27.356052
2308.000000	27.142427
2307.000000	26.826534
2306.000000	26.877668
2305.000000	26.876683
2304.000000	27.103121
2303.000000	27.094110
2302.000000	26.960504
2301.000000	26.788099
2300.000000	26.542392
2299.000000	26.634570
2298.000000	26.402470
2297.000000	26.372693
2296.000000	26.412922
2295.000000	26.406335
2294.000000	26.257563
2293.000000	26.267936
2292.000000	26.027223
2291.000000	26.222459
2290.000000	26.223116
2289.000000	26.144241
2288.000000	26.130312
2287.000000	26.148422
2286.000000	25.945881
2285.000000	25.786215
2284.000000	25.898559
2283.000000	25.852714
2282.000000	25.805725
2281.000000	25.849026
2280.000000	25.767457
2279.000000	25.793844
2278.000000	25.854242
2277.000000	25.956096
2276.000000	25.934575
2275.000000	25.952889
2274.000000	25.944214
2273.000000	26.058121
2272.000000	26.059142
2271.000000	25.990433
2270.000000	26.176191
2269.000000	26.226566
2268.000000	26.304158
2267.000000	26.343426
2266.000000	26.187444
2265.000000	26.218304
2264.000000	26.383312
2263.000000	26.426340
2262.000000	26.646789
2261.000000	26.817929
2260.000000	26.932931
2259.000000	27.034356
2258.000000	27.064862
2257.000000	27.178143
2256.000000	27.380655
2255.000000	27.539741
2254.000000	27.535797
2253.000000	27.572504
2252.000000	27.718457
2251.000000	27.903695
2250.000000	28.042517
2249.000000	28.175615
2248.000000	28.398173
2247.000000	28.384052
2246.000000	28.514172
2245.000000	28.787310
2244.000000	28.872972
2243.000000	29.019427
2242.000000	28.995106
2241.000000	29.092825
2240.000000	29.337732
2239.000000	29.404772
2238.000000	29.468958
2237.000000	29.518833
2236.000000	29.499471
2235.000000	29.554484
2234.000000	29.656998
2233.000000	29.721072
2232.000000	29.841007
2231.000000	29.966395
2230.000000	29.906295
2229.000000	29.877504
2228.000000	29.942054
2227.000000	29.840563
2226.000000	29.840647
2225.000000	29.931366
2224.000000	29.988097
2223.000000	29.981297
2222.000000	29.971370
2221.000000	29.914656
2220.000000	29.761331
2219.000000	29.762722
2218.000000	29.695774
2217.000000	29.575795
2216.000000	29.616391
2215.000000	29.670429
2214.000000	29.762036
2213.000000	29.799504
2212.000000	29.616306
2211.000000	29.540038
2210.000000	29.525122
2209.000000	29.470844
2208.000000	29.368704
2207.000000	29.404092
2206.000000	29.376872
2205.000000	29.317072
2204.000000	29.303240
2203.000000	29.289169
2202.000000	29.112175
2201.000000	29.027479
2200.000000	29.049067
2199.000000	29.146289
2198.000000	29.239282
2197.000000	29.025573
2196.000000	28.914683
2195.000000	28.892072
2194.000000	28.677918
2193.000000	28.754858
2192.000000	28.835773
2191.000000	28.731200
2190.000000	28.718329
2189.000000	28.662143
2188.000000	28.533847
2187.000000	28.509533
2186.000000	28.466337
2185.000000	28.543946
2184.000000	28.356183
2183.000000	28.573562
2182.000000	28.420229
2181.000000	28.434478
2180.000000	28.462182
2179.000000	28.403899
2178.000000	28.430112
2177.000000	28.378229
2176.000000	28.266101
2175.000000	28.455237
2174.000000	28.597468
2173.000000	28.495991
2172.000000	28.697372
2171.000000	28.755444
2170.000000	28.753475
2169.000000	28.832901
2168.000000	28.884055
2167.000000	28.961755
2166.000000	28.941028
2165.000000	28.997765
2164.000000	28.845939
2163.000000	29.027864
2162.000000	29.010058
2161.000000	28.987278
2160.000000	29.305900
2159.000000	29.411611
2158.000000	29.579526
2157.000000	29.618417
2156.000000	29.792223
2155.000000	29.879548
2154.000000	29.919388
2153.000000	29.997889
2152.000000	30.142535
2151.000000	30.228335
2150.000000	30.395792
2149.000000	30.699767
2148.000000	30.698546
2147.000000	30.770298
2146.000000	30.834433
2145.000000	30.966940
2144.000000	30.737135
2143.000000	31.033384
2142.000000	31.307290
2141.000000	31.175363
2140.000000	31.338914
2139.000000	31.566160
2138.000000	31.580343
2137.000000	31.555195
2136.000000	31.570032
2135.000000	31.789985
2134.000000	31.626953
2133.000000	31.729316
2132.000000	32.029572
2131.000000	31.929289
2130.000000	32.101300
2129.000000	32.094118
2128.000000	32.011952
2127.000000	31.921586
2126.000000	32.037707
2125.000000	32.075944
2124.000000	32.111930
2123.000000	32.088631
2122.000000	32.304119
2121.000000	32.367959
2120.000000	32.372530
2119.000000	32.224807
2118.000000	32.377049
2117.000000	32.502577
2116.000000	32.472816
2115.000000	32.434379
2114.000000	32.401250
2113.000000	32.371231
2112.000000	32.460508
2111.000000	32.418587
2110.000000	32.456647
2109.000000	32.576901
2108.000000	32.422204
2107.000000	32.570862
2106.000000	32.580730
2105.000000	32.452279
2104.000000	32.474235
2103.000000	32.615257
2102.000000	32.458989
2101.000000	32.484197
2100.000000	32.603306
2099.000000	32.535964
2098.000000	32.620125
2097.000000	32.459354
2096.000000	32.556373
2095.000000	32.490048
2094.000000	32.570066
2093.000000	32.505328
2092.000000	32.485938
2091.000000	32.480221
2090.000000	32.485564
2089.000000	32.377336
2088.000000	32.418346
2087.000000	32.483375
2086.000000	32.445199
2085.000000	32.387317
2084.000000	32.338965
2083.000000	32.238107
2082.000000	32.143862
2081.000000	32.171860
2080.000000	32.123116
2079.000000	32.024032
2078.000000	31.878234
2077.000000	31.841419
2076.000000	31.866223
2075.000000	31.830931
2074.000000	31.730359
2073.000000	31.585713
2072.000000	31.522504
2071.000000	31.429222
2070.000000	31.316717
2069.000000	31.216372
2068.000000	31.211915
2067.000000	31.093849
2066.000000	30.873275
2065.000000	30.842013
2064.000000	30.788600
2063.000000	30.652092
2062.000000	30.529630
2061.000000	30.379815
2060.000000	30.380186
2059.000000	30.315555
2058.000000	30.099629
2057.000000	30.031192
2056.000000	29.971290
2055.000000	29.848874
2054.000000	29.741842
2053.000000	29.674768
2052.000000	29.536463
2051.000000	29.426718
2050.000000	29.392777
2049.000000	29.366733
2048.000000	29.340351
2047.000000	29.304759
2046.000000	29.195947
2045.000000	29.122703
2044.000000	29.123124
2043.000000	29.121615
2042.000000	29.083231
2041.000000	29.102939
2040.000000	29.188211
2039.000000	29.207321
2038.000000	29.192797
2037.000000	29.214433
2036.000000	29.207949
2035.000000	29.256425
2034.000000	29.342164
2033.000000	29.397757
2032.000000	29.414993
2031.000000	29.486998
2030.000000	29.618149
2029.000000	29.716786
2028.000000	29.771043
2027.000000	29.804503
2026.000000	29.879690
2025.000000	29.918349
2024.000000	29.898157
2023.000000	29.958222
2022.000000	30.011342
2021.000000	30.000748
2020.000000	30.022744
2019.000000	30.003134
2018.000000	29.990059
2017.000000	30.026469
2016.000000	30.018647
2015.000000	29.980196
2014.000000	29.942768
2013.000000	29.879295
2012.000000	29.831063
2011.000000	29.858039
2010.000000	29.835232
2009.000000	29.786634
2008.000000	29.738200
2007.000000	29.641484
2006.000000	29.592931
2005.000000	29.552750
2004.000000	29.500528
2003.000000	29.391026
2002.000000	29.320133
2001.000000	29.264480
2000.000000	29.145808
1999.000000	29.056440
1998.000000	28.995021
1997.000000	28.905846
1996.000000	28.846088
1995.000000	28.788721
1994.000000	28.688154
1993.000000	28.611452
1992.000000	28.492224
1991.000000	28.427095
1990.000000	28.369308
1989.000000	28.293179
1988.000000	28.216357
1987.000000	28.119870
1986.000000	28.066325
1985.000000	27.981415
1984.000000	27.937988
1983.000000	27.877422
1982.000000	27.770955
1981.000000	27.670271
1980.000000	27.616901
1979.000000	27.547385
1978.000000	27.495944
1977.000000	27.400902
1976.000000	27.345249
1975.000000	27.276034
1974.000000	27.228703
1973.000000	27.127396
1972.000000	27.031933
1971.000000	27.018070
1970.000000	26.929251
1969.000000	26.881067
1968.000000	26.854838
1967.000000	26.729803
1966.000000	26.707661
1965.000000	26.622855
1964.000000	26.576295
1963.000000	26.491736
1962.000000	26.453967
1961.000000	26.401736
1960.000000	26.283428
1959.000000	26.274402
1958.000000	26.252310
1957.000000	26.157991
1956.000000	26.128380
1955.000000	26.144128
1954.000000	26.039317
1953.000000	26.080562
1952.000000	26.034533
1951.000000	26.000028
1950.000000	25.970541
1949.000000	26.006904
1948.000000	25.974683
1947.000000	25.936033
1946.000000	25.944703
1945.000000	25.962332
1944.000000	26.013399
1943.000000	26.012445
1942.000000	25.940450
1941.000000	26.076248
1940.000000	26.156079
1939.000000	26.166237
1938.000000	26.220119
1937.000000	26.327311
1936.000000	26.407653
1935.000000	26.443067
1934.000000	26.460108
1933.000000	26.558996
1932.000000	26.613455
1931.000000	26.789272
1930.000000	26.930855
1929.000000	27.108918
1928.000000	27.180627
1927.000000	27.296790
1926.000000	27.418969
1925.000000	27.658303
1924.000000	27.789577
1923.000000	27.950128
1922.000000	28.149565
1921.000000	28.367119
1920.000000	28.574039
1919.000000	28.772525
1918.000000	28.970802
1917.000000	29.157826
1916.000000	29.371962
1915.000000	29.757646
1914.000000	30.046154
1913.000000	30.316795
1912.000000	30.539891
1911.000000	30.864211
1910.000000	31.015035
1909.000000	31.368921
1908.000000	31.779165
1907.000000	32.032458
1906.000000	32.467120
1905.000000	32.863509
1904.000000	33.239914
1903.000000	33.631412
1902.000000	33.957131
1901.000000	34.304578
1900.000000	34.780183
1899.000000	35.185753
1898.000000	35.597015
1897.000000	35.945231
1896.000000	36.327704
1895.000000	36.744183
1894.000000	37.168796
1893.000000	37.580285
1892.000000	37.949418
1891.000000	38.379811
1890.000000	38.807216
1889.000000	39.145488
1888.000000	39.515118
1887.000000	39.870212
1886.000000	40.209297
1885.000000	40.532688
1884.000000	40.895018
1883.000000	41.239726
1882.000000	41.560691
1881.000000	41.893433
1880.000000	42.149757
1879.000000	42.426198
1878.000000	42.729518
1877.000000	42.955075
1876.000000	43.197595
1875.000000	43.498985
1874.000000	43.689172
1873.000000	43.899857
1872.000000	44.089517
1871.000000	44.302260
1870.000000	44.457313
1869.000000	44.645388
1868.000000	44.805893
1867.000000	44.851715
1866.000000	44.977506
1865.000000	45.041714
1864.000000	45.138881
1863.000000	45.276406
1862.000000	45.349147
1861.000000	45.402025
1860.000000	45.404778
1859.000000	45.488457
1858.000000	45.574749
1857.000000	45.606206
1856.000000	45.642655
1855.000000	45.681271
1854.000000	45.732903
1853.000000	45.834999
1852.000000	45.808114
1851.000000	45.852008
1850.000000	45.877546
1849.000000	45.842238
1848.000000	45.819553
1847.000000	45.839290
1846.000000	45.841999
1845.000000	45.815279
1844.000000	45.764087
1843.000000	45.763815
1842.000000	45.730738
1841.000000	45.717357
1840.000000	45.704182
1839.000000	45.701050
1838.000000	45.674697
1837.000000	45.636139
1836.000000	45.602135
1835.000000	45.551517
1834.000000	45.491197
1833.000000	45.472286
1832.000000	45.396121
1831.000000	45.344601
1830.000000	45.326500
1829.000000	45.283587
1828.000000	45.241046
1827.000000	45.226411
1826.000000	45.198955
1825.000000	45.141166
1824.000000	45.138030
1823.000000	45.129485
1822.000000	45.080869
1821.000000	45.037970
1820.000000	45.015160
1819.000000	44.974185
1818.000000	44.932487
1817.000000	44.910650
1816.000000	44.900034
1815.000000	44.866767
1814.000000	44.815900
1813.000000	44.779525
1812.000000	44.742349
1811.000000	44.721788
1810.000000	44.705372
1809.000000	44.683629
1808.000000	44.637610
1807.000000	44.595264
1806.000000	44.567768
1805.000000	44.544341
1804.000000	44.509576
1803.000000	44.472002
1802.000000	44.456243
1801.000000	44.428560
1800.000000	44.400292
1799.000000	44.393560
1798.000000	44.376550
1797.000000	44.358820
1796.000000	44.348214
1795.000000	44.338100
1794.000000	44.318599
1793.000000	44.307526
1792.000000	44.273482
1791.000000	44.266436
1790.000000	44.248361
1789.000000	44.232487
1788.000000	44.234563
1787.000000	44.216038
1786.000000	44.214961
1785.000000	44.200654
1784.000000	44.183783
1783.000000	44.166863
1782.000000	44.130430
1781.000000	44.101251
1780.000000	44.076325
1779.000000	44.045641
1778.000000	44.013011
1777.000000	43.971303
1776.000000	43.945180
1775.000000	43.901408
1774.000000	43.842452
1773.000000	43.819593
1772.000000	43.778307
1771.000000	43.757811
1770.000000	43.702810
1769.000000	43.673320
1768.000000	43.621735
1767.000000	43.551950
1766.000000	43.505616
1765.000000	43.489278
1764.000000	43.466953
1763.000000	43.421421
1762.000000	43.378079
1761.000000	43.337601
1760.000000	43.305502
1759.000000	43.255703
1758.000000	43.245873
1757.000000	43.160850
1756.000000	43.124645
1755.000000	43.082806
1754.000000	43.046605
1753.000000	43.016977
1752.000000	42.979682
1751.000000	42.933033
1750.000000	42.904460
1749.000000	42.855869
1748.000000	42.785664
1747.000000	42.748617
1746.000000	42.694973
1745.000000	42.652150
1744.000000	42.621682
1743.000000	42.582655
1742.000000	42.532958
1741.000000	42.515483
1740.000000	42.447760
1739.000000	42.424740
1738.000000	42.385984
1737.000000	42.339079
1736.000000	42.319463
1735.000000	42.329756
1734.000000	42.335646
1733.000000	42.278538
1732.000000	42.276975
1731.000000	42.295951
1730.000000	42.308966
1729.000000	42.359349
1728.000000	42.411504
1727.000000	42.422009
1726.000000	42.489022
1725.000000	42.531697
1724.000000	42.614565
1723.000000	42.687732
1722.000000	42.769799
1721.000000	42.804162
1720.000000	42.894122
1719.000000	43.031156
1718.000000	43.111998
1717.000000	43.199756
1716.000000	43.314296
1715.000000	43.307032
1714.000000	43.429762
1713.000000	43.524881
1712.000000	43.575188
1711.000000	43.650162
1710.000000	43.685573
1709.000000	43.725520
1708.000000	43.782765
1707.000000	43.841175
1706.000000	43.853721
1705.000000	43.890577
1704.000000	43.935444
1703.000000	43.960789
1702.000000	43.918944
1701.000000	43.971219
1700.000000	44.033236
1699.000000	43.982977
1698.000000	44.042853
1697.000000	44.072434
1696.000000	44.099456
1695.000000	44.112001
1694.000000	44.136764
1693.000000	44.168718
1692.000000	44.218648
1691.000000	44.272371
1690.000000	44.348408
1689.000000	44.435485
1688.000000	44.541480
1687.000000	44.607796
1686.000000	44.723546
1685.000000	44.855254
1684.000000	44.978702
1683.000000	45.071293
1682.000000	45.211092
1681.000000	45.389107
1680.000000	45.516170
1679.000000	45.644526
1678.000000	45.795860
1677.000000	45.936693
1676.000000	46.139329
1675.000000	46.272119
1674.000000	46.417871
1673.000000	46.586812
1672.000000	46.716443
1671.000000	46.824354
1670.000000	46.968447
1669.000000	47.119785
1668.000000	47.239227
1667.000000	47.396180
1666.000000	47.465143
1665.000000	47.565669
1664.000000	47.629569
1663.000000	47.685236
1662.000000	47.754812
1661.000000	47.850023
1660.000000	47.889296
1659.000000	47.946359
1658.000000	47.986211
1657.000000	48.034834
1656.000000	48.071915
1655.000000	48.109930
1654.000000	48.101475
1653.000000	48.144421
1652.000000	48.145254
1651.000000	48.156545
1650.000000	48.143637
1649.000000	48.142456
1648.000000	48.126493
1647.000000	48.109387
1646.000000	48.109510
1645.000000	48.069629
1644.000000	48.063943
1643.000000	48.041420
1642.000000	48.015860
1641.000000	47.986629
1640.000000	47.960255
1639.000000	47.952638
1638.000000	47.923345
1637.000000	47.877048
1636.000000	47.840718
1635.000000	47.816182
1634.000000	47.775356
1633.000000	47.730275
1632.000000	47.693617
1631.000000	47.638635
1630.000000	47.618358
1629.000000	47.567000
1628.000000	47.539928
1627.000000	47.499324
1626.000000	47.433992
1625.000000	47.387971
1624.000000	47.349261
1623.000000	47.298420
1622.000000	47.260139
1621.000000	47.202326
1620.000000	47.145637
1619.000000	47.089332
1618.000000	47.040521
1617.000000	46.990624
1616.000000	46.949748
1615.000000	46.897746
1614.000000	46.829220
1613.000000	46.762738
1612.000000	46.707472
1611.000000	46.664608
1610.000000	46.600796
1609.000000	46.548862
1608.000000	46.499986
1607.000000	46.434326
1606.000000	46.374094
1605.000000	46.318965
1604.000000	46.249753
1603.000000	46.183083
1602.000000	46.134738
1601.000000	46.085038
1600.000000	46.032850
1599.000000	45.966826
1598.000000	45.892427
1597.000000	45.851132
1596.000000	45.806853
1595.000000	45.752159
1594.000000	45.708381
1593.000000	45.650753
1592.000000	45.601629
1591.000000	45.545316
1590.000000	45.493079
1589.000000	45.452806
1588.000000	45.402204
1587.000000	45.365168
1586.000000	45.336013
1585.000000	45.287901
1584.000000	45.232462
1583.000000	45.187307
1582.000000	45.147245
1581.000000	45.111379
1580.000000	45.067868
1579.000000	45.019974
1578.000000	44.984790
1577.000000	44.928245
1576.000000	44.874720
1575.000000	44.838455
1574.000000	44.780469
1573.000000	44.732599
1572.000000	44.704610
1571.000000	44.666862
1570.000000	44.612400
1569.000000	44.578940
1568.000000	44.542759
1567.000000	44.497808
1566.000000	44.463063
1565.000000	44.446243
1564.000000	44.419933
1563.000000	44.383111
1562.000000	44.355921
1561.000000	44.327672
1560.000000	44.296043
1559.000000	44.265642
1558.000000	44.234427
1557.000000	44.211970
1556.000000	44.209487
1555.000000	44.189807
1554.000000	44.143015
1553.000000	44.118278
1552.000000	44.090927
1551.000000	44.035004
1550.000000	43.984978
1549.000000	43.965038
1548.000000	43.944936
1547.000000	43.892847
1546.000000	43.811301
1545.000000	43.748963
1544.000000	43.706591
1543.000000	43.628092
1542.000000	43.570503
1541.000000	43.502996
1540.000000	43.431681
1539.000000	43.359149
1538.000000	43.278480
1537.000000	43.204862
1536.000000	43.117270
1535.000000	43.041345
1534.000000	42.962830
1533.000000	42.911234
1532.000000	42.838296
1531.000000	42.746833
1530.000000	42.686146
1529.000000	42.623420
1528.000000	42.569111
1527.000000	42.491070
1526.000000	42.447859
1525.000000	42.384129
1524.000000	42.333430
1523.000000	42.284479
1522.000000	42.246944
1521.000000	42.194441
1520.000000	42.171293
1519.000000	42.139687
1518.000000	42.109369
1517.000000	42.078808
1516.000000	42.052804
1515.000000	42.014282
1514.000000	41.955883
1513.000000	41.951440
1512.000000	41.938757
1511.000000	41.920321
1510.000000	41.886560
1509.000000	41.865494
1508.000000	41.866302
1507.000000	41.824410
1506.000000	41.819337
1505.000000	41.820415
1504.000000	41.798785
1503.000000	41.782064
1502.000000	41.787495
1501.000000	41.789832
1500.000000	41.773773
1499.000000	41.761777
1498.000000	41.762385
1497.000000	41.759964
1496.000000	41.756378
1495.000000	41.784389
1494.000000	41.786609
1493.000000	41.786544
1492.000000	41.810770
1491.000000	41.824819
1490.000000	41.831851
1489.000000	41.858416
1488.000000	41.889710
1487.000000	41.902320
1486.000000	41.949467
1485.000000	41.947936
1484.000000	41.965563
1483.000000	41.986098
1482.000000	42.028773
1481.000000	42.054506
1480.000000	42.093338
1479.000000	42.102538
1478.000000	42.141137
1477.000000	42.175000
1476.000000	42.191788
1475.000000	42.212834
1474.000000	42.248890
1473.000000	42.267099
1472.000000	42.318808
1471.000000	42.338704
1470.000000	42.377704
1469.000000	42.413670
1468.000000	42.455008
1467.000000	42.460699
1466.000000	42.509629
1465.000000	42.525219
1464.000000	42.552843
1463.000000	42.584575
1462.000000	42.648555
1461.000000	42.674663
1460.000000	42.722034
1459.000000	42.763193
1458.000000	42.838373
1457.000000	42.869217
1456.000000	42.897972
1455.000000	42.958332
1454.000000	43.003687
1453.000000	43.053307
1452.000000	43.132575
1451.000000	43.200072
1450.000000	43.261155
1449.000000	43.317368
1448.000000	43.392621
1447.000000	43.462562
1446.000000	43.541182
1445.000000	43.626436
1444.000000	43.705358
1443.000000	43.786843
1442.000000	43.867608
1441.000000	43.955898
1440.000000	44.049795
1439.000000	44.150059
1438.000000	44.245021
1437.000000	44.345746
1436.000000	44.449014
1435.000000	44.570896
1434.000000	44.681606
1433.000000	44.779342
1432.000000	44.897139
1431.000000	45.033153
1430.000000	45.168057
1429.000000	45.297263
1428.000000	45.427481
1427.000000	45.579820
1426.000000	45.713980
1425.000000	45.871782
1424.000000	46.011587
1423.000000	46.173691
1422.000000	46.351456
1421.000000	46.513060
1420.000000	46.680691
1419.000000	46.847418
1418.000000	47.025156
1417.000000	47.200027
1416.000000	47.401165
1415.000000	47.577467
1414.000000	47.768062
1413.000000	47.960901
1412.000000	48.149358
1411.000000	48.352705
1410.000000	48.546081
1409.000000	48.730439
1408.000000	48.918818
1407.000000	49.127014
1406.000000	49.319504
1405.000000	49.516229
1404.000000	49.702044
1403.000000	49.886538
1402.000000	50.082997
1401.000000	50.264865
1400.000000	50.433905
1399.000000	50.599488
1398.000000	50.758618
1397.000000	50.938149
1396.000000	51.098159
1395.000000	51.255190
1394.000000	51.426392
1393.000000	51.587641
1392.000000	51.733576
1391.000000	51.870061
1390.000000	52.000386
1389.000000	52.129121
1388.000000	52.273903
1387.000000	52.412874
1386.000000	52.513370
1385.000000	52.620857
1384.000000	52.749505
1383.000000	52.870466
1382.000000	52.938969
1381.000000	53.023869
1380.000000	53.134513
1379.000000	53.220683
1378.000000	53.290003
1377.000000	53.372312
1376.000000	53.438622
1375.000000	53.485564
1374.000000	53.566269
1373.000000	53.636768
1372.000000	53.695453
1371.000000	53.767606
1370.000000	53.827710
1369.000000	53.876097
1368.000000	53.917505
1367.000000	53.964030
1366.000000	54.024206
1365.000000	54.078692
1364.000000	54.135826
1363.000000	54.187712
1362.000000	54.245817
1361.000000	54.305253
1360.000000	54.366449
1359.000000	54.430692
1358.000000	54.503579
1357.000000	54.538094
1356.000000	54.577623
1355.000000	54.667221
1354.000000	54.743749
1353.000000	54.795067
1352.000000	54.828461
1351.000000	54.883845
1350.000000	54.952099
1349.000000	55.029764
1348.000000	55.088582
1347.000000	55.139811
1346.000000	55.219352
1345.000000	55.269385
1344.000000	55.308249
1343.000000	55.379808
1342.000000	55.433188
1341.000000	55.474155
1340.000000	55.533192
1339.000000	55.598219
1338.000000	55.662643
1337.000000	55.710264
1336.000000	55.737849
1335.000000	55.778158
1334.000000	55.829706
1333.000000	55.881157
1332.000000	55.942488
1331.000000	56.008201
1330.000000	56.064185
1329.000000	56.104736
1328.000000	56.140292
1327.000000	56.163969
1326.000000	56.185627
1325.000000	56.190051
1324.000000	56.249136
1323.000000	56.254281
1322.000000	56.260459
1321.000000	56.298406
1320.000000	56.321128
1319.000000	56.349918
1318.000000	56.378762
1317.000000	56.397887
1316.000000	56.414427
1315.000000	56.438082
1314.000000	56.462587
1313.000000	56.463821
1312.000000	56.476797
1311.000000	56.486834
1310.000000	56.484019
1309.000000	56.529867
1308.000000	56.542949
1307.000000	56.540999
1306.000000	56.573447
1305.000000	56.592079
1304.000000	56.603983
1303.000000	56.600236
1302.000000	56.610175
1301.000000	56.614289
1300.000000	56.626855
1299.000000	56.634094
1298.000000	56.653960
1297.000000	56.647712
1296.000000	56.653484
1295.000000	56.650357
1294.000000	56.657010
1293.000000	56.650685
1292.000000	56.659101
1291.000000	56.658920
1290.000000	56.646520
1289.000000	56.650738
1288.000000	56.656049
1287.000000	56.627793
1286.000000	56.617406
1285.000000	56.638870
1284.000000	56.634714
1283.000000	56.637460
1282.000000	56.649479
1281.000000	56.649702
1280.000000	56.646444
1279.000000	56.636933
1278.000000	56.634628
1277.000000	56.647624
1276.000000	56.648651
1275.000000	56.631012
1274.000000	56.657308
1273.000000	56.646482
1272.000000	56.645817
1271.000000	56.622940
1270.000000	56.639007
1269.000000	56.655527
1268.000000	56.658541
1267.000000	56.662316
1266.000000	56.664685
1265.000000	56.687283
1264.000000	56.683049
1263.000000	56.697955
1262.000000	56.727050
1261.000000	56.745152
1260.000000	56.747327
1259.000000	56.720991
1258.000000	56.728637
1257.000000	56.718625
1256.000000	56.735370
1255.000000	56.764270
1254.000000	56.778841
1253.000000	56.743516
1252.000000	56.754472
1251.000000	56.752345
1250.000000	56.733470
1249.000000	56.737973
1248.000000	56.738260
1247.000000	56.725441
1246.000000	56.727390
1245.000000	56.736368
1244.000000	56.709057
1243.000000	56.678875
1242.000000	56.692382
1241.000000	56.672811
1240.000000	56.656394
1239.000000	56.654678
1238.000000	56.607688
1237.000000	56.605999
1236.000000	56.591571
1235.000000	56.571801
1234.000000	56.526890
1233.000000	56.509880
1232.000000	56.495499
1231.000000	56.504130
1230.000000	56.478843
1229.000000	56.452715
1228.000000	56.439615
1227.000000	56.411925
1226.000000	56.405253
1225.000000	56.373282
1224.000000	56.363399
1223.000000	56.354658
1222.000000	56.302890
1221.000000	56.288430
1220.000000	56.267930
1219.000000	56.229366
1218.000000	56.198809
1217.000000	56.183295
1216.000000	56.150685
1215.000000	56.112095
1214.000000	56.101963
1213.000000	56.069457
1212.000000	56.050117
1211.000000	56.042291
1210.000000	56.011706
1209.000000	55.968575
1208.000000	55.947804
1207.000000	55.929928
1206.000000	55.873355
1205.000000	55.854598
1204.000000	55.847170
1203.000000	55.811418
1202.000000	55.773858
1201.000000	55.742633
1200.000000	55.722258
1199.000000	55.671172
1198.000000	55.648317
1197.000000	55.629677
1196.000000	55.609943
1195.000000	55.620384
1194.000000	55.613057
1193.000000	55.568917
1192.000000	55.550209
1191.000000	55.549818
1190.000000	55.534447
1189.000000	55.512324
1188.000000	55.511144
1187.000000	55.508808
1186.000000	55.496225
1185.000000	55.505296
1184.000000	55.524870
1183.000000	55.537302
1182.000000	55.568163
1181.000000	55.597593
1180.000000	55.619632
1179.000000	55.660036
1178.000000	55.692310
1177.000000	55.726108
1176.000000	55.762839
1175.000000	55.821694
1174.000000	55.871736
1173.000000	55.923949
1172.000000	55.980074
1171.000000	56.034236
1170.000000	56.095234
1169.000000	56.151559
1168.000000	56.212367
1167.000000	56.284369
1166.000000	56.343917
1165.000000	56.401473
1164.000000	56.486788
1163.000000	56.554445
1162.000000	56.600757
1161.000000	56.666503
1160.000000	56.743874
1159.000000	56.811622
1158.000000	56.875368
1157.000000	56.939135
1156.000000	57.002529
1155.000000	57.060370
1154.000000	57.115282
1153.000000	57.178592
1152.000000	57.236101
1151.000000	57.288262
1150.000000	57.357521
1149.000000	57.410894
1148.000000	57.455152
1147.000000	57.501271
1146.000000	57.531528
1145.000000	57.577646
1144.000000	57.628719
1143.000000	57.679226
1142.000000	57.713881
1141.000000	57.743960
1140.000000	57.791881
1139.000000	57.826236
1138.000000	57.864622
1137.000000	57.905789
1136.000000	57.947765
1135.000000	57.987643
1134.000000	58.021939
1133.000000	58.036839
1132.000000	58.065383
1131.000000	58.098654
1130.000000	58.130487
1129.000000	58.148576
1128.000000	58.172030
1127.000000	58.207621
1126.000000	58.233116
1125.000000	58.243976
1124.000000	58.272313
1123.000000	58.288102
1122.000000	58.308509
1121.000000	58.319539
1120.000000	58.341086
1119.000000	58.354681
1118.000000	58.346511
1117.000000	58.367069
1116.000000	58.375399
1115.000000	58.375257
1114.000000	58.363820
1113.000000	58.379642
1112.000000	58.385595
1111.000000	58.395329
1110.000000	58.390006
1109.000000	58.392049
1108.000000	58.404758
1107.000000	58.412007
1106.000000	58.432804
1105.000000	58.431957
1104.000000	58.423094
1103.000000	58.454029
1102.000000	58.449839
1101.000000	58.435575
1100.000000	58.444526
1099.000000	58.440940
1098.000000	58.452567
1097.000000	58.460564
1096.000000	58.463019
1095.000000	58.467106
1094.000000	58.458050
1093.000000	58.420677
1092.000000	58.431074
1091.000000	58.450941
1090.000000	58.460729
1089.000000	58.459587
1088.000000	58.471847
1087.000000	58.464937
1086.000000	58.437843
1085.000000	58.432903
1084.000000	58.437327
1083.000000	58.420203
1082.000000	58.446228
1081.000000	58.448995
1080.000000	58.433249
1079.000000	58.404058
1078.000000	58.412986
1077.000000	58.435210
1076.000000	58.434422
1075.000000	58.425020
1074.000000	58.401631
1073.000000	58.402632
1072.000000	58.394590
1071.000000	58.376611
1070.000000	58.384618
1069.000000	58.381974
1068.000000	58.367691
1067.000000	58.372384
1066.000000	58.358538
1065.000000	58.346177
1064.000000	58.333020
1063.000000	58.330180
1062.000000	58.338306
1061.000000	58.335531
1060.000000	58.302899
1059.000000	58.317324
1058.000000	58.306696
1057.000000	58.321457
1056.000000	58.291310
1055.000000	58.282537
1054.000000	58.289971
1053.000000	58.291334
1052.000000	58.276087
1051.000000	58.277649
1050.000000	58.275591
1049.000000	58.277798
1048.000000	58.250031
1047.000000	58.266600
1046.000000	58.254007
1045.000000	58.236625
1044.000000	58.248503
1043.000000	58.240516
1042.000000	58.227225
1041.000000	58.209105
1040.000000	58.221717
1039.000000	58.214650
1038.000000	58.199860
1037.000000	58.186074
1036.000000	58.214944
1035.000000	58.201784
1034.000000	58.198516
1033.000000	58.187815
1032.000000	58.176008
1031.000000	58.176399
1030.000000	58.198449
1029.000000	58.170676
1028.000000	58.157359
1027.000000	58.179039
1026.000000	58.169904
1025.000000	58.159365
1024.000000	58.159489
1023.000000	58.162715
1022.000000	58.155147
1021.000000	58.165380
1020.000000	58.162886
1019.000000	58.163482
1018.000000	58.146558
1017.000000	58.164003
1016.000000	58.159008
1015.000000	58.168621
1014.000000	58.152796
1013.000000	58.157337
1012.000000	58.135628
1011.000000	58.137016
1010.000000	58.133027
1009.000000	58.140155
1008.000000	58.149522
1007.000000	58.165661
1006.000000	58.170540
1005.000000	58.155234
1004.000000	58.155627
1003.000000	58.167800
1002.000000	58.162577
1001.000000	58.160536
1000.000000	58.183651
999.000000	58.183941
998.000000	58.168637
997.000000	58.178326
996.000000	58.178540
995.000000	58.171859
994.000000	58.185707
993.000000	58.188157
992.000000	58.176435
991.000000	58.205438
990.000000	58.218001
989.000000	58.201587
988.000000	58.201474
987.000000	58.232483
986.000000	58.226415
985.000000	58.221660
984.000000	58.204781
983.000000	58.228373
982.000000	58.233090
981.000000	58.218972
980.000000	58.222637
979.000000	58.248544
978.000000	58.252155
977.000000	58.259094
976.000000	58.275968
975.000000	58.294315
974.000000	58.285011
973.000000	58.283661
972.000000	58.290825
971.000000	58.313057
970.000000	58.312990
969.000000	58.309568
968.000000	58.317866
967.000000	58.335534
966.000000	58.345557
965.000000	58.353015
964.000000	58.356200
963.000000	58.372492
962.000000	58.367430
961.000000	58.374471
960.000000	58.376488
959.000000	58.382036
958.000000	58.404923
957.000000	58.400174
956.000000	58.393974
955.000000	58.407823
954.000000	58.410889
953.000000	58.422190
952.000000	58.447834
951.000000	58.441131
950.000000	58.429934
949.000000	58.448289
948.000000	58.449617
947.000000	58.449414
946.000000	58.485967
945.000000	58.489585
944.000000	58.487017
943.000000	58.481623
942.000000	58.468625
941.000000	58.465290
940.000000	58.467057
939.000000	58.447659
938.000000	58.443026
937.000000	58.470803
936.000000	58.474724
935.000000	58.466677
934.000000	58.470379
933.000000	58.482690
932.000000	58.496870
931.000000	58.476340
930.000000	58.461956
929.000000	58.494000
928.000000	58.483947
927.000000	58.481731
926.000000	58.481490
925.000000	58.460672
924.000000	58.444685
923.000000	58.461357
922.000000	58.464905
921.000000	58.429103
920.000000	58.460610
919.000000	58.435874
918.000000	58.457218
917.000000	58.494931
916.000000	58.451103
915.000000	58.437590
914.000000	58.460001
913.000000	58.433134
912.000000	58.413492
911.000000	58.430559
910.000000	58.447267
909.000000	58.417795
908.000000	58.441914
907.000000	58.454112
906.000000	58.431901
905.000000	58.423770
904.000000	58.429945
903.000000	58.414353
902.000000	58.448056
901.000000	58.440452
900.000000	58.523637
899.000000	58.553899
898.000000	58.477733
897.000000	58.521880
896.000000	58.514145
895.000000	58.480659
894.000000	58.486445
893.000000	58.507780
892.000000	58.528449
891.000000	58.536828
890.000000	58.546975
889.000000	58.557855
888.000000	58.544558
887.000000	58.521384
886.000000	58.563368
885.000000	58.645186
884.000000	58.651136
883.000000	58.555742
882.000000	58.531674
881.000000	58.564786
880.000000	58.613865
879.000000	58.471604
878.000000	58.616532
877.000000	58.555011
876.000000	58.657244
875.000000	58.679317
874.000000	58.588778
873.000000	58.538750
872.000000	58.577406
871.000000	58.616595
870.000000	58.601777
869.000000	58.606512
868.000000	58.639607
867.000000	58.590397
866.000000	58.560219
865.000000	58.558836
864.000000	58.421309
863.000000	58.484255
862.000000	58.523644
861.000000	58.614370
860.000000	58.578087
859.000000	58.001173
858.000000	57.952525
857.000000	58.167274
856.000000	58.176641
855.000000	58.714158
854.000000	57.897450
853.000000	58.160421
852.000000	58.038151
851.000000	58.377560
850.000000	58.241267
849.000000	58.243965
848.000000	58.118110
847.000000	57.959500
846.000000	57.993913
845.000000	58.080550
844.000000	57.955348
843.000000	58.171118
842.000000	57.914042
841.000000	58.022982
840.000000	58.049495
839.000000	58.054745
838.000000	58.036511
837.000000	58.140373
836.000000	57.892970
835.000000	57.992933
834.000000	58.048205
833.000000	57.755245
832.000000	58.101910
831.000000	57.919816
830.000000	57.923996
829.000000	57.990784
828.000000	57.898961
827.000000	57.861377
826.000000	57.871966
825.000000	58.087847
824.000000	57.924515
823.000000	57.880149
822.000000	57.905481
821.000000	57.909966
820.000000	58.050568
819.000000	58.026572
818.000000	58.034454
817.000000	58.107572
816.000000	58.074980
815.000000	57.935395
814.000000	57.992692
813.000000	57.911352
812.000000	57.899896
811.000000	57.935704
810.000000	57.935766
809.000000	57.878512
808.000000	57.969971
807.000000	57.821986
806.000000	57.926554
805.000000	57.984449
804.000000	57.980842
803.000000	58.006507
802.000000	57.994228
801.000000	57.851607
800.000000	57.975751
799.000000	57.969355
798.000000	57.905637
797.000000	58.032402
796.000000	57.973586
795.000000	57.957175
794.000000	58.022899
793.000000	57.924024
792.000000	57.972038
791.000000	57.943413
790.000000	57.819564
789.000000	57.951716
788.000000	57.926640
787.000000	57.904451
786.000000	57.886237
785.000000	57.954396
784.000000	58.051490
783.000000	57.946830
782.000000	57.843491
781.000000	57.997117
780.000000	57.853853
779.000000	57.884923
778.000000	57.837423
777.000000	57.882061
776.000000	57.892385
775.000000	57.859155
774.000000	57.879191
773.000000	57.867267
772.000000	57.927413
771.000000	57.918995
770.000000	57.874763
769.000000	57.898177
768.000000	57.813954
767.000000	57.776274
766.000000	57.740877
765.000000	57.811790
764.000000	57.819632
763.000000	57.754547
762.000000	57.766604
761.000000	57.826428
760.000000	57.832105
759.000000	57.796785
758.000000	57.758598
757.000000	57.817480
756.000000	57.811104
755.000000	57.745056
754.000000	57.721910
753.000000	57.882790
752.000000	57.857752
751.000000	57.836278
750.000000	57.684715
749.000000	57.775897
748.000000	57.603390
747.000000	57.731110
746.000000	57.703800
745.000000	57.719547
744.000000	57.680638
743.000000	57.638772
742.000000	57.646688
741.000000	57.656344
740.000000	57.619623
739.000000	57.616213
738.000000	57.633013
737.000000	57.600716
736.000000	57.628575
735.000000	57.618558
734.000000	57.596713
733.000000	57.628125
732.000000	57.577025
731.000000	57.554439
730.000000	57.583804
729.000000	57.601775
728.000000	57.617465
727.000000	57.648240
726.000000	57.569525
725.000000	57.505670
724.000000	57.519627
723.000000	57.475958
722.000000	57.466061
721.000000	57.503039
720.000000	57.460491
719.000000	57.431097
718.000000	57.508510
717.000000	57.571798
716.000000	57.519645
715.000000	57.525136
714.000000	57.554359
713.000000	57.502190
712.000000	57.439104
711.000000	57.442881
710.000000	57.501514
709.000000	57.447969
708.000000	57.400259
707.000000	57.416158
706.000000	57.365727
705.000000	57.389326
704.000000	57.425929
703.000000	57.414591
702.000000	57.407715
701.000000	57.378232
700.000000	57.374695
699.000000	57.336491
698.000000	57.305958
697.000000	57.318786
696.000000	57.339762
695.000000	57.350796
694.000000	57.384518
693.000000	57.344418
692.000000	57.327385
691.000000	57.364091
690.000000	57.301697
689.000000	57.272254
688.000000	57.253624
687.000000	57.256581
686.000000	57.282411
685.000000	57.314384
684.000000	57.313568
683.000000	57.275535
682.000000	57.269148
681.000000	57.213493
680.000000	57.244234
679.000000	57.297461
678.000000	57.244510
677.000000	57.308173
676.000000	57.300876
675.000000	57.287429
674.000000	57.273103
673.000000	57.259629
672.000000	57.287050
671.000000	57.273765
670.000000	57.223804
669.000000	57.208026
668.000000	57.202454
667.000000	57.273371
666.000000	57.226293
665.000000	57.194527
664.000000	57.157453
663.000000	57.140998
662.000000	57.128583
661.000000	57.180783
660.000000	57.199059
659.000000	57.147734
658.000000	57.128398
657.000000	57.181821
656.000000	57.131352
655.000000	57.101952
654.000000	57.132532
653.000000	57.107497
652.000000	57.074714
651.000000	57.088677
650.000000	57.054913
649.000000	57.054736
648.000000	56.967821
647.000000	56.986105
646.000000	57.022535
645.000000	56.967684
644.000000	56.931361
643.000000	56.949113
642.000000	56.961471
641.000000	56.960875
640.000000	56.942286
639.000000	56.987237
638.000000	56.918638
637.000000	56.979880
636.000000	56.958235
635.000000	56.897206
634.000000	56.921169
633.000000	56.921279
632.000000	56.900345
631.000000	56.943392
630.000000	56.887805
629.000000	56.849129
628.000000	56.852148
627.000000	56.817182
626.000000	56.830458
625.000000	56.837727
624.000000	56.810048
623.000000	56.789639
622.000000	56.809613
621.000000	56.798221
620.000000	56.726594
619.000000	56.707197
618.000000	56.659116
617.000000	56.762061
616.000000	56.714435
615.000000	56.694967
614.000000	56.679434
613.000000	56.709436
612.000000	56.650768
611.000000	56.660187
610.000000	56.597781
609.000000	56.581960
608.000000	56.599878
607.000000	56.570153
606.000000	56.602046
605.000000	56.524928
604.000000	56.527468
603.000000	56.543558
602.000000	56.483872
601.000000	56.459080
600.000000	56.453359
599.000000	56.467871
598.000000	56.504764
597.000000	56.463750
596.000000	56.391629
595.000000	56.397349
594.000000	56.390099
593.000000	56.389635
592.000000	56.384955
591.000000	56.337431
590.000000	56.331632
589.000000	56.310561
588.000000	56.355244
587.000000	56.321404
586.000000	56.244935
585.000000	56.294144
584.000000	56.306777
583.000000	56.240037
582.000000	56.260253
581.000000	56.173418
580.000000	56.147701
579.000000	56.158445
578.000000	56.127705
577.000000	56.111164
576.000000	56.094529
575.000000	56.075728
574.000000	56.071040
573.000000	56.091403
572.000000	56.092870
571.000000	56.041812
570.000000	56.032443
569.000000	56.053658
568.000000	55.969089
567.000000	55.960642
566.000000	55.879985
565.000000	55.909335
564.000000	55.914405
563.000000	55.921717
562.000000	55.815719
561.000000	55.692815
560.000000	55.748560
559.000000	55.706004
558.000000	55.644482
557.000000	55.646360
556.000000	55.703341
555.000000	55.670869
554.000000	55.613091
553.000000	55.633006
552.000000	55.567898
551.000000	55.532683
550.000000	55.561511
549.000000	55.512399
548.000000	55.486657
547.000000	55.457095
546.000000	55.425289
545.000000	55.415860
544.000000	55.423031
543.000000	55.379435
542.000000	55.324487
541.000000	55.332415
540.000000	55.256003
539.000000	55.262592
538.000000	55.261329
537.000000	55.184231
536.000000	55.186899
535.000000	55.194046
534.000000	55.134015
533.000000	55.102920
532.000000	55.049568
531.000000	54.994386
530.000000	55.008007
529.000000	55.044829
528.000000	54.958255
527.000000	54.912678
526.000000	54.867233
525.000000	54.857451
524.000000	54.818061
523.000000	54.796181
522.000000	54.764479
521.000000	54.755497
520.000000	54.702187
519.000000	54.678758
518.000000	54.660924
517.000000	54.651486
516.000000	54.608137
515.000000	54.586874
514.000000	54.510525
513.000000	54.509800
512.000000	54.464505
511.000000	54.427572
510.000000	54.407724
509.000000	54.377552
508.000000	54.313134
507.000000	54.300041
506.000000	54.252527
505.000000	54.243482
504.000000	54.187172
503.000000	54.131048
502.000000	54.110278
501.000000	54.073848
500.000000	53.991512
499.000000	53.969638
498.000000	53.922514
497.000000	53.866209
496.000000	53.835223
495.000000	53.788089
494.000000	53.738065
493.000000	53.709816
492.000000	53.660751
491.000000	53.660367
490.000000	53.572462
489.000000	53.461479
488.000000	53.443003
487.000000	53.438371
486.000000	53.397959
485.000000	53.393523
484.000000	53.389838
483.000000	53.259113
482.000000	53.178353
481.000000	53.139341
480.000000	53.069733
479.000000	53.029573
478.000000	53.002772
477.000000	52.965056
476.000000	52.902508
475.000000	52.813628
474.000000	52.764431
473.000000	52.715835
472.000000	52.661264
471.000000	52.604991
470.000000	52.523046
469.000000	52.472400
468.000000	52.397695
467.000000	52.365557
466.000000	52.318585
465.000000	52.256024
464.000000	52.190313
463.000000	52.083597
462.000000	52.012474
461.000000	51.961473
460.000000	51.868317
459.000000	51.762494
458.000000	51.719628
457.000000	51.651895
456.000000	51.560861
455.000000	51.560567
454.000000	51.483478
453.000000	51.357675
452.000000	51.286818
451.000000	51.194971
450.000000	51.136711
449.000000	51.058346
448.000000	50.963412
447.000000	50.914873
446.000000	50.834610
445.000000	50.742861
444.000000	50.668685
443.000000	50.579084
442.000000	50.510513
441.000000	50.375166
440.000000	50.281077
439.000000	50.225145
438.000000	50.114008
437.000000	50.040541
436.000000	49.948586
435.000000	49.850758
434.000000	49.759685
433.000000	49.699417
432.000000	49.644262
431.000000	49.569721
430.000000	49.450973
429.000000	49.322577
428.000000	49.188497
427.000000	49.115062
426.000000	49.021178
425.000000	48.913222
424.000000	48.803244
423.000000	48.725275
422.000000	48.640085
421.000000	48.538669
420.000000	48.544922
419.000000	48.409739
418.000000	48.274957
417.000000	48.197229
416.000000	48.099671
415.000000	47.969909
414.000000	47.893196
413.000000	47.811956
412.000000	47.718877
411.000000	47.603898
410.000000	47.559382
409.000000	47.445511
408.000000	47.426690
407.000000	47.376969
406.000000	47.270537
405.000000	47.214920
404.000000	47.162178
403.000000	46.994823
402.000000	46.921424
401.000000	46.866024
400.000000	46.833160
399.000000	46.704638
398.000000	46.653838
397.000000	46.539581
396.000000	46.502169
395.000000	46.390286
394.000000	46.273735
393.000000	46.205964
392.000000	46.147006
391.000000	46.040494
390.000000	45.928694
389.000000	45.870230
388.000000	45.728724
387.000000	45.656079
386.000000	45.563148
385.000000	45.416676
384.000000	45.325705
383.000000	45.199713
382.000000	45.076565
381.000000	44.975816
380.000000	44.880788
379.000000	44.771889
378.000000	44.484355
377.000000	44.498038
376.000000	44.379631
375.000000	44.439142
374.000000	44.215266
373.000000	43.997070
372.000000	43.949839
371.000000	43.818936
370.000000	43.877020
369.000000	43.494353
368.000000	43.471725
367.000000	43.301045
366.000000	43.179861
365.000000	43.162267
364.000000	42.985835
363.000000	42.967300
362.000000	42.760714
361.000000	42.797490
360.000000	42.477156
359.000000	42.487514
358.000000	42.267373
357.000000	42.285973
356.000000	42.005970
355.000000	42.150004
354.000000	41.899130
353.000000	41.981868
352.000000	41.737775
351.000000	41.574691
350.000000	41.516252
349.000000	41.392654
348.000000	41.385834
347.000000	41.355333
346.000000	40.940497
345.000000	40.947126
344.000000	40.772943
343.000000	40.584176
342.000000	40.434896
341.000000	40.491745
340.000000	40.290138
339.000000	40.083794
338.000000	40.107162
337.000000	39.951434
336.000000	39.898956
335.000000	39.663916
334.000000	39.617724
333.000000	39.463856
332.000000	39.465586
331.000000	39.273646
330.000000	39.079531
329.000000	39.009791
328.000000	38.764278
327.000000	38.812089
326.000000	38.728184
325.000000	38.624480
324.000000	38.522091
323.000000	38.563667
322.000000	38.218825
321.000000	38.282925
320.000000	38.016053
319.000000	38.090507
318.000000	37.878830
317.000000	37.951322
316.000000	37.978393
315.000000	37.917103
314.000000	37.876936
313.000000	37.649442
312.000000	37.452247
311.000000	37.391650
310.000000	37.308183
309.000000	37.170899
308.000000	37.285066
307.000000	37.068215
306.000000	36.957649
305.000000	36.808455
304.000000	36.733465
303.000000	36.592813
302.000000	36.409039
301.000000	36.387046
300.000000	36.021189
299.000000	35.912554
298.000000	35.585827
297.000000	35.124560
296.000000	34.955091
295.000000	34.364731
294.000000	33.848718
293.000000	33.227372
292.000000	32.304615
291.000000	31.210829
290.000000	30.291208
289.000000	29.394180
288.000000	28.538968
287.000000	27.799438
286.000000	27.450482
285.000000	27.253629
284.000000	26.987916
283.000000	26.938547
282.000000	26.856276
281.000000	26.785792
280.000000	26.772566
279.000000	26.910876
278.000000	26.946501
277.000000	27.094497
276.000000	27.265199
275.000000	27.618400
274.000000	27.935656
273.000000	28.122415
272.000000	28.391427
271.000000	28.533590
270.000000	28.533642
269.000000	28.645156
268.000000	29.041375
267.000000	29.272607
266.000000	29.435112
265.000000	29.602247
264.000000	29.939587
263.000000	30.277294
262.000000	30.539110
261.000000	30.711746
260.000000	30.846208
259.000000	31.041405
258.000000	31.465575
257.000000	31.824660
256.000000	32.128676
255.000000	32.090658
254.000000	32.096151
253.000000	32.073041
252.000000	31.938479
251.000000	31.794013
250.000000	31.435587
249.000000	30.841003
248.000000	30.157643
247.000000	29.218482
246.000000	28.176019
245.000000	26.913928
244.000000	25.496462
243.000000	24.167508
242.000000	22.660285
241.000000	21.169122
240.000000	19.909362
239.000000	18.672063
238.000000	17.558227
237.000000	16.604807
236.000000	15.828232
235.000000	15.104104
234.000000	14.520528
233.000000	13.977657
232.000000	13.387780
231.000000	12.900979
230.000000	12.462516
229.000000	11.970861
228.000000	11.558515
227.000000	11.229040
226.000000	10.909909
225.000000	10.689852
224.000000	10.511741
223.000000	10.346330
222.000000	10.198765
221.000000	10.122939
220.000000	10.098538
219.000000	10.128697
218.000000	10.146258
217.000000	10.160385
216.000000	10.220157
215.000000	10.369724
214.000000	10.430282
213.000000	10.471270
212.000000	10.623501
211.000000	10.802072
210.000000	11.066917
209.000000	11.380389
208.000000	11.556538
207.000000	11.751606
206.000000	12.048892
205.000000	12.326452
204.000000	12.715031
203.000000	13.176490
202.000000	13.760453
201.000000	13.982516
200.000000	14.271893
