PE UV       SUBTECH     SPECTRUM    ASCII       PEDS        4.00        
   -1
RDVeauUK 122.Sample.asc
18/03/12
11:27:53.00
18/03/12
11:27:53.00
Administrator

200.000000
1
Lambda 750
750N8071901
PerkinElmer UV WinLab 6.0.4.0738 / 1.61.00 Lambda 900

0
0
3350/servo 860.8/2
0
0
UV/VIS
1
1
1
CommonBeamDepol,150mm sphere / downward view
0
0
0
0
Program
Program
3350/servo 860.8/2
3350/0.2 860.8/0.2
3350/0.2 860.8/0.2
0
1
 
 
 
0
 
860.8
319.2
860.8
Front
100
on
 
 
0
0
0
 
0
 
 
 
0
 
 
0
0
0
0
0
 
 
 
 
0
0


0
0
#HDR
-1
-1
#GR
nm
%R
1.0
0.0
2350.000000
-1.000000
2151
8
56.475991
11.635889
#DATA
2350.000000	22.537600
2349.000000	23.192369
2348.000000	22.820908
2347.000000	23.648516
2346.000000	23.069981
2345.000000	22.914302
2344.000000	23.018061
2343.000000	22.206051
2342.000000	22.735940
2341.000000	23.132559
2340.000000	22.960940
2339.000000	23.417305
2338.000000	23.503208
2337.000000	23.474867
2336.000000	23.159282
2335.000000	23.346457
2334.000000	23.923894
2333.000000	23.878519
2332.000000	23.590356
2331.000000	23.685858
2330.000000	23.647729
2329.000000	23.587754
2328.000000	23.409742
2327.000000	23.762442
2326.000000	23.471776
2325.000000	23.373285
2324.000000	23.553844
2323.000000	23.514646
2322.000000	23.296991
2321.000000	23.266972
2320.000000	23.481213
2319.000000	23.252228
2318.000000	23.431021
2317.000000	23.398350
2316.000000	23.345827
2315.000000	23.098042
2314.000000	23.013273
2313.000000	23.167991
2312.000000	22.869734
2311.000000	22.839728
2310.000000	22.926369
2309.000000	23.175062
2308.000000	23.057552
2307.000000	22.697387
2306.000000	23.079665
2305.000000	22.777364
2304.000000	22.451770
2303.000000	22.726100
2302.000000	22.778149
2301.000000	22.835140
2300.000000	22.526758
2299.000000	22.409820
2298.000000	22.485057
2297.000000	22.349028
2296.000000	22.339178
2295.000000	22.445203
2294.000000	22.269560
2293.000000	22.161141
2292.000000	22.183320
2291.000000	21.927817
2290.000000	21.983620
2289.000000	21.902081
2288.000000	21.934995
2287.000000	21.986710
2286.000000	21.830424
2285.000000	21.776496
2284.000000	21.910116
2283.000000	21.968090
2282.000000	21.909750
2281.000000	21.938930
2280.000000	21.959595
2279.000000	21.877704
2278.000000	21.848523
2277.000000	21.873294
2276.000000	21.779071
2275.000000	21.881353
2274.000000	22.049634
2273.000000	22.039611
2272.000000	22.007589
2271.000000	22.070516
2270.000000	22.070885
2269.000000	22.009149
2268.000000	21.962514
2267.000000	22.174351
2266.000000	22.238463
2265.000000	22.260691
2264.000000	22.253181
2263.000000	22.461768
2262.000000	22.696232
2261.000000	22.705397
2260.000000	22.679842
2259.000000	22.729626
2258.000000	22.974375
2257.000000	23.074941
2256.000000	23.052623
2255.000000	23.218026
2254.000000	23.374279
2253.000000	23.465074
2252.000000	23.483613
2251.000000	23.586936
2250.000000	23.856667
2249.000000	24.175166
2248.000000	24.255233
2247.000000	24.235693
2246.000000	24.342855
2245.000000	24.466655
2244.000000	24.730521
2243.000000	24.880398
2242.000000	24.802886
2241.000000	24.862956
2240.000000	25.003286
2239.000000	25.047966
2238.000000	25.207726
2237.000000	25.313513
2236.000000	25.268525
2235.000000	25.382164
2234.000000	25.468619
2233.000000	25.494901
2232.000000	25.587594
2231.000000	25.640230
2230.000000	25.669305
2229.000000	25.645417
2228.000000	25.603908
2227.000000	25.568606
2226.000000	25.521868
2225.000000	25.555763
2224.000000	25.578991
2223.000000	25.513475
2222.000000	25.542946
2221.000000	25.553403
2220.000000	25.650688
2219.000000	25.560696
2218.000000	25.507464
2217.000000	25.622294
2216.000000	25.590516
2215.000000	25.568071
2214.000000	25.504128
2213.000000	25.519931
2212.000000	25.401141
2211.000000	25.356963
2210.000000	25.392231
2209.000000	25.335464
2208.000000	25.219730
2207.000000	25.186764
2206.000000	24.979483
2205.000000	24.953322
2204.000000	25.000959
2203.000000	24.965038
2202.000000	24.689490
2201.000000	24.901790
2200.000000	24.911211
2199.000000	24.963852
2198.000000	24.972400
2197.000000	24.762721
2196.000000	24.699123
2195.000000	24.665005
2194.000000	24.504568
2193.000000	24.369117
2192.000000	24.412710
2191.000000	24.380911
2190.000000	24.369199
2189.000000	24.324935
2188.000000	24.230896
2187.000000	24.342085
2186.000000	24.405573
2185.000000	24.272869
2184.000000	24.161634
2183.000000	24.308935
2182.000000	24.284654
2181.000000	24.076640
2180.000000	24.213612
2179.000000	24.074881
2178.000000	24.175554
2177.000000	24.225681
2176.000000	24.128254
2175.000000	24.218794
2174.000000	24.253990
2173.000000	24.258987
2172.000000	24.273143
2171.000000	24.351368
2170.000000	24.520556
2169.000000	24.469567
2168.000000	24.473308
2167.000000	24.533296
2166.000000	24.469046
2165.000000	24.692092
2164.000000	24.627434
2163.000000	24.808748
2162.000000	24.874727
2161.000000	24.972378
2160.000000	25.083352
2159.000000	25.060955
2158.000000	25.210267
2157.000000	25.343909
2156.000000	25.386938
2155.000000	25.345914
2154.000000	25.645347
2153.000000	25.784221
2152.000000	25.671005
2151.000000	25.801572
2150.000000	25.828016
2149.000000	25.874395
2148.000000	25.989867
2147.000000	26.292335
2146.000000	26.087517
2145.000000	26.327009
2144.000000	26.414339
2143.000000	26.635488
2142.000000	26.599008
2141.000000	26.642883
2140.000000	26.690302
2139.000000	26.848454
2138.000000	26.991955
2137.000000	27.045631
2136.000000	27.074682
2135.000000	27.133132
2134.000000	27.320038
2133.000000	27.182697
2132.000000	27.233433
2131.000000	27.493571
2130.000000	27.470487
2129.000000	27.435171
2128.000000	27.329366
2127.000000	27.535603
2126.000000	27.436236
2125.000000	27.572132
2124.000000	27.609422
2123.000000	27.705534
2122.000000	27.624915
2121.000000	27.580609
2120.000000	27.563685
2119.000000	27.673201
2118.000000	27.754328
2117.000000	27.823405
2116.000000	27.755440
2115.000000	27.850503
2114.000000	27.859345
2113.000000	27.709803
2112.000000	27.775221
2111.000000	27.920245
2110.000000	27.880002
2109.000000	28.068332
2108.000000	27.921174
2107.000000	28.032820
2106.000000	27.968685
2105.000000	27.889117
2104.000000	27.911102
2103.000000	28.026100
2102.000000	27.959497
2101.000000	27.872178
2100.000000	28.064141
2099.000000	27.976107
2098.000000	27.948253
2097.000000	27.880808
2096.000000	28.009449
2095.000000	28.036332
2094.000000	28.002167
2093.000000	27.899381
2092.000000	27.938627
2091.000000	27.893726
2090.000000	27.812904
2089.000000	27.883337
2088.000000	27.784907
2087.000000	27.871308
2086.000000	27.850597
2085.000000	27.877567
2084.000000	27.617790
2083.000000	27.682769
2082.000000	27.695420
2081.000000	27.589969
2080.000000	27.457655
2079.000000	27.479600
2078.000000	27.415227
2077.000000	27.411656
2076.000000	27.333220
2075.000000	27.347039
2074.000000	27.234061
2073.000000	27.077889
2072.000000	26.960880
2071.000000	26.910351
2070.000000	26.911897
2069.000000	26.812654
2068.000000	26.760912
2067.000000	26.642428
2066.000000	26.491569
2065.000000	26.394978
2064.000000	26.300481
2063.000000	26.205605
2062.000000	26.153727
2061.000000	26.086715
2060.000000	25.971719
2059.000000	25.897138
2058.000000	25.734658
2057.000000	25.616268
2056.000000	25.602773
2055.000000	25.510400
2054.000000	25.372104
2053.000000	25.236253
2052.000000	25.185782
2051.000000	25.067866
2050.000000	25.023576
2049.000000	24.993383
2048.000000	24.922223
2047.000000	24.853719
2046.000000	24.831285
2045.000000	24.809552
2044.000000	24.775837
2043.000000	24.776599
2042.000000	24.699976
2041.000000	24.761695
2040.000000	24.808929
2039.000000	24.806581
2038.000000	24.834831
2037.000000	24.828889
2036.000000	24.816356
2035.000000	24.783353
2034.000000	24.806042
2033.000000	24.932838
2032.000000	25.019908
2031.000000	25.084971
2030.000000	25.147515
2029.000000	25.191360
2028.000000	25.240807
2027.000000	25.328329
2026.000000	25.381264
2025.000000	25.421428
2024.000000	25.481430
2023.000000	25.517930
2022.000000	25.544224
2021.000000	25.576162
2020.000000	25.572796
2019.000000	25.551466
2018.000000	25.545877
2017.000000	25.516870
2016.000000	25.540650
2015.000000	25.552097
2014.000000	25.552657
2013.000000	25.538783
2012.000000	25.508263
2011.000000	25.431343
2010.000000	25.320113
2009.000000	25.270350
2008.000000	25.262609
2007.000000	25.191209
2006.000000	25.096779
2005.000000	25.069824
2004.000000	25.030199
2003.000000	24.951110
2002.000000	24.903527
2001.000000	24.800070
2000.000000	24.746609
1999.000000	24.737439
1998.000000	24.668790
1997.000000	24.558161
1996.000000	24.492192
1995.000000	24.429316
1994.000000	24.368357
1993.000000	24.300803
1992.000000	24.181241
1991.000000	24.131055
1990.000000	24.058527
1989.000000	23.985810
1988.000000	23.898518
1987.000000	23.832571
1986.000000	23.764983
1985.000000	23.677509
1984.000000	23.634107
1983.000000	23.602303
1982.000000	23.564945
1981.000000	23.499278
1980.000000	23.402546
1979.000000	23.308928
1978.000000	23.257098
1977.000000	23.195360
1976.000000	23.096103
1975.000000	23.076939
1974.000000	22.978767
1973.000000	22.947927
1972.000000	22.900757
1971.000000	22.798959
1970.000000	22.744375
1969.000000	22.733833
1968.000000	22.666852
1967.000000	22.593100
1966.000000	22.552393
1965.000000	22.521694
1964.000000	22.454577
1963.000000	22.396908
1962.000000	22.354218
1961.000000	22.270810
1960.000000	22.263375
1959.000000	22.172274
1958.000000	22.134999
1957.000000	22.089022
1956.000000	22.037818
1955.000000	22.066477
1954.000000	22.115583
1953.000000	22.026550
1952.000000	21.978627
1951.000000	21.991209
1950.000000	21.949339
1949.000000	21.951960
1948.000000	21.965362
1947.000000	21.850727
1946.000000	21.833469
1945.000000	21.876416
1944.000000	21.844262
1943.000000	21.909228
1942.000000	21.977169
1941.000000	22.104853
1940.000000	22.125088
1939.000000	22.052622
1938.000000	22.132519
1937.000000	22.263436
1936.000000	22.315072
1935.000000	22.384635
1934.000000	22.306336
1933.000000	22.405245
1932.000000	22.464073
1931.000000	22.624407
1930.000000	22.719605
1929.000000	22.874000
1928.000000	22.963337
1927.000000	23.019774
1926.000000	23.133184
1925.000000	23.351641
1924.000000	23.557025
1923.000000	23.599612
1922.000000	23.793566
1921.000000	24.082971
1920.000000	24.297672
1919.000000	24.333369
1918.000000	24.533737
1917.000000	24.701978
1916.000000	24.905676
1915.000000	25.243939
1914.000000	25.545146
1913.000000	25.880336
1912.000000	25.952771
1911.000000	26.294811
1910.000000	26.515243
1909.000000	26.755286
1908.000000	27.095648
1907.000000	27.458442
1906.000000	27.719386
1905.000000	28.130842
1904.000000	28.439435
1903.000000	28.777774
1902.000000	29.234435
1901.000000	29.602033
1900.000000	29.971186
1899.000000	30.334592
1898.000000	30.679337
1897.000000	31.069150
1896.000000	31.512207
1895.000000	31.851850
1894.000000	32.252478
1893.000000	32.674067
1892.000000	33.071260
1891.000000	33.425665
1890.000000	33.825598
1889.000000	34.245310
1888.000000	34.629606
1887.000000	34.929205
1886.000000	35.319578
1885.000000	35.713514
1884.000000	36.044177
1883.000000	36.404650
1882.000000	36.741561
1881.000000	37.069673
1880.000000	37.343644
1879.000000	37.684443
1878.000000	37.981468
1877.000000	38.258223
1876.000000	38.486359
1875.000000	38.761609
1874.000000	39.030069
1873.000000	39.250222
1872.000000	39.486757
1871.000000	39.636432
1870.000000	39.833237
1869.000000	40.009145
1868.000000	40.188168
1867.000000	40.268790
1866.000000	40.400903
1865.000000	40.536907
1864.000000	40.619806
1863.000000	40.764957
1862.000000	40.860775
1861.000000	40.863317
1860.000000	40.949344
1859.000000	41.041998
1858.000000	41.118343
1857.000000	41.169948
1856.000000	41.190787
1855.000000	41.225384
1854.000000	41.289199
1853.000000	41.373444
1852.000000	41.357109
1851.000000	41.382385
1850.000000	41.416432
1849.000000	41.446280
1848.000000	41.455565
1847.000000	41.459080
1846.000000	41.430893
1845.000000	41.393218
1844.000000	41.371046
1843.000000	41.372413
1842.000000	41.360088
1841.000000	41.347861
1840.000000	41.325961
1839.000000	41.306789
1838.000000	41.238455
1837.000000	41.199606
1836.000000	41.169922
1835.000000	41.122734
1834.000000	41.079195
1833.000000	41.057154
1832.000000	41.005387
1831.000000	40.986799
1830.000000	40.939279
1829.000000	40.898758
1828.000000	40.880298
1827.000000	40.832651
1826.000000	40.767710
1825.000000	40.742437
1824.000000	40.719914
1823.000000	40.681010
1822.000000	40.627810
1821.000000	40.627255
1820.000000	40.611760
1819.000000	40.554678
1818.000000	40.518638
1817.000000	40.489892
1816.000000	40.461798
1815.000000	40.439248
1814.000000	40.403871
1813.000000	40.376918
1812.000000	40.331785
1811.000000	40.275234
1810.000000	40.259469
1809.000000	40.248433
1808.000000	40.204782
1807.000000	40.143232
1806.000000	40.121851
1805.000000	40.097819
1804.000000	40.072343
1803.000000	40.049401
1802.000000	39.999108
1801.000000	39.992442
1800.000000	39.983992
1799.000000	39.949645
1798.000000	39.919938
1797.000000	39.898142
1796.000000	39.898353
1795.000000	39.881142
1794.000000	39.857783
1793.000000	39.839259
1792.000000	39.802513
1791.000000	39.818232
1790.000000	39.805813
1789.000000	39.774277
1788.000000	39.759806
1787.000000	39.729724
1786.000000	39.721728
1785.000000	39.707181
1784.000000	39.691715
1783.000000	39.677619
1782.000000	39.677827
1781.000000	39.649282
1780.000000	39.626626
1779.000000	39.602843
1778.000000	39.553445
1777.000000	39.511753
1776.000000	39.469539
1775.000000	39.408109
1774.000000	39.356626
1773.000000	39.346002
1772.000000	39.303772
1771.000000	39.258756
1770.000000	39.222664
1769.000000	39.182803
1768.000000	39.153254
1767.000000	39.087893
1766.000000	39.063194
1765.000000	39.030882
1764.000000	38.982084
1763.000000	38.938532
1762.000000	38.888619
1761.000000	38.844064
1760.000000	38.798607
1759.000000	38.775183
1758.000000	38.714468
1757.000000	38.667403
1756.000000	38.664747
1755.000000	38.601520
1754.000000	38.551871
1753.000000	38.513651
1752.000000	38.457041
1751.000000	38.444783
1750.000000	38.400080
1749.000000	38.366633
1748.000000	38.340787
1747.000000	38.258958
1746.000000	38.217677
1745.000000	38.182717
1744.000000	38.094094
1743.000000	38.099321
1742.000000	38.052135
1741.000000	38.004250
1740.000000	37.982482
1739.000000	37.960407
1738.000000	37.899115
1737.000000	37.849563
1736.000000	37.850120
1735.000000	37.811308
1734.000000	37.845859
1733.000000	37.841848
1732.000000	37.832587
1731.000000	37.820704
1730.000000	37.874062
1729.000000	37.885246
1728.000000	37.956925
1727.000000	37.983257
1726.000000	38.028071
1725.000000	38.065958
1724.000000	38.132309
1723.000000	38.241311
1722.000000	38.300502
1721.000000	38.363049
1720.000000	38.464484
1719.000000	38.586840
1718.000000	38.639970
1717.000000	38.728950
1716.000000	38.822341
1715.000000	38.881561
1714.000000	38.999351
1713.000000	39.047754
1712.000000	39.126976
1711.000000	39.219994
1710.000000	39.230555
1709.000000	39.318502
1708.000000	39.371889
1707.000000	39.417656
1706.000000	39.432636
1705.000000	39.476234
1704.000000	39.499846
1703.000000	39.495916
1702.000000	39.489645
1701.000000	39.546211
1700.000000	39.525582
1699.000000	39.522861
1698.000000	39.559798
1697.000000	39.602600
1696.000000	39.620744
1695.000000	39.633682
1694.000000	39.694459
1693.000000	39.698747
1692.000000	39.760480
1691.000000	39.818679
1690.000000	39.880893
1689.000000	39.944039
1688.000000	40.024014
1687.000000	40.118590
1686.000000	40.222099
1685.000000	40.338185
1684.000000	40.480862
1683.000000	40.621737
1682.000000	40.742714
1681.000000	40.912554
1680.000000	41.059695
1679.000000	41.205456
1678.000000	41.396511
1677.000000	41.526729
1676.000000	41.692954
1675.000000	41.864310
1674.000000	42.029620
1673.000000	42.172678
1672.000000	42.339210
1671.000000	42.473903
1670.000000	42.624103
1669.000000	42.821736
1668.000000	42.924174
1667.000000	43.073949
1666.000000	43.140503
1665.000000	43.235608
1664.000000	43.343361
1663.000000	43.388089
1662.000000	43.483006
1661.000000	43.544399
1660.000000	43.633158
1659.000000	43.690560
1658.000000	43.751183
1657.000000	43.783579
1656.000000	43.844972
1655.000000	43.858234
1654.000000	43.875894
1653.000000	43.900684
1652.000000	43.918140
1651.000000	43.912093
1650.000000	43.904165
1649.000000	43.900458
1648.000000	43.892384
1647.000000	43.860164
1646.000000	43.887124
1645.000000	43.826277
1644.000000	43.823775
1643.000000	43.798977
1642.000000	43.767010
1641.000000	43.737479
1640.000000	43.719598
1639.000000	43.689534
1638.000000	43.650766
1637.000000	43.634687
1636.000000	43.579654
1635.000000	43.548072
1634.000000	43.514277
1633.000000	43.456363
1632.000000	43.412570
1631.000000	43.360236
1630.000000	43.302458
1629.000000	43.253421
1628.000000	43.210035
1627.000000	43.172460
1626.000000	43.128760
1625.000000	43.067558
1624.000000	43.026017
1623.000000	42.970892
1622.000000	42.913211
1621.000000	42.854843
1620.000000	42.793687
1619.000000	42.739829
1618.000000	42.684933
1617.000000	42.629519
1616.000000	42.586186
1615.000000	42.535052
1614.000000	42.466773
1613.000000	42.403672
1612.000000	42.336396
1611.000000	42.274140
1610.000000	42.211507
1609.000000	42.156136
1608.000000	42.109909
1607.000000	42.054486
1606.000000	41.978006
1605.000000	41.906642
1604.000000	41.841443
1603.000000	41.769270
1602.000000	41.703732
1601.000000	41.649838
1600.000000	41.595829
1599.000000	41.533351
1598.000000	41.472960
1597.000000	41.418527
1596.000000	41.351714
1595.000000	41.288183
1594.000000	41.233716
1593.000000	41.185722
1592.000000	41.134183
1591.000000	41.067153
1590.000000	41.010145
1589.000000	40.979255
1588.000000	40.930987
1587.000000	40.871488
1586.000000	40.824328
1585.000000	40.789259
1584.000000	40.752675
1583.000000	40.686877
1582.000000	40.652014
1581.000000	40.614430
1580.000000	40.556324
1579.000000	40.507198
1578.000000	40.448765
1577.000000	40.402207
1576.000000	40.358028
1575.000000	40.320357
1574.000000	40.274962
1573.000000	40.225637
1572.000000	40.160586
1571.000000	40.100675
1570.000000	40.067369
1569.000000	40.027625
1568.000000	39.992612
1567.000000	39.955090
1566.000000	39.911785
1565.000000	39.884180
1564.000000	39.864662
1563.000000	39.835623
1562.000000	39.798444
1561.000000	39.751726
1560.000000	39.747226
1559.000000	39.727979
1558.000000	39.688991
1557.000000	39.658995
1556.000000	39.631353
1555.000000	39.592672
1554.000000	39.567443
1553.000000	39.527071
1552.000000	39.501197
1551.000000	39.465223
1550.000000	39.430437
1549.000000	39.403303
1548.000000	39.360418
1547.000000	39.327203
1546.000000	39.259748
1545.000000	39.183080
1544.000000	39.109699
1543.000000	39.055772
1542.000000	38.969326
1541.000000	38.907966
1540.000000	38.827555
1539.000000	38.750512
1538.000000	38.688280
1537.000000	38.612961
1536.000000	38.512699
1535.000000	38.439368
1534.000000	38.359970
1533.000000	38.291271
1532.000000	38.221657
1531.000000	38.143079
1530.000000	38.062636
1529.000000	37.999033
1528.000000	37.931813
1527.000000	37.874440
1526.000000	37.824469
1525.000000	37.748092
1524.000000	37.702609
1523.000000	37.661167
1522.000000	37.617812
1521.000000	37.579704
1520.000000	37.532963
1519.000000	37.497142
1518.000000	37.464613
1517.000000	37.427836
1516.000000	37.421485
1515.000000	37.380812
1514.000000	37.343157
1513.000000	37.327846
1512.000000	37.293105
1511.000000	37.300599
1510.000000	37.267291
1509.000000	37.243095
1508.000000	37.220686
1507.000000	37.204503
1506.000000	37.201395
1505.000000	37.175737
1504.000000	37.173253
1503.000000	37.183075
1502.000000	37.155516
1501.000000	37.146619
1500.000000	37.136627
1499.000000	37.122423
1498.000000	37.147280
1497.000000	37.131680
1496.000000	37.125054
1495.000000	37.133539
1494.000000	37.144563
1493.000000	37.154217
1492.000000	37.173965
1491.000000	37.180259
1490.000000	37.188993
1489.000000	37.210808
1488.000000	37.222081
1487.000000	37.240741
1486.000000	37.269880
1485.000000	37.290223
1484.000000	37.306364
1483.000000	37.343866
1482.000000	37.354830
1481.000000	37.380817
1480.000000	37.432399
1479.000000	37.436624
1478.000000	37.454486
1477.000000	37.511123
1476.000000	37.509429
1475.000000	37.550899
1474.000000	37.567141
1473.000000	37.598258
1472.000000	37.636639
1471.000000	37.672620
1470.000000	37.698696
1469.000000	37.709265
1468.000000	37.757732
1467.000000	37.773504
1466.000000	37.809661
1465.000000	37.835212
1464.000000	37.873804
1463.000000	37.912867
1462.000000	37.951633
1461.000000	37.987718
1460.000000	38.004347
1459.000000	38.071688
1458.000000	38.130139
1457.000000	38.170160
1456.000000	38.220171
1455.000000	38.269277
1454.000000	38.320238
1453.000000	38.375008
1452.000000	38.442478
1451.000000	38.519666
1450.000000	38.582317
1449.000000	38.644832
1448.000000	38.727001
1447.000000	38.803404
1446.000000	38.870787
1445.000000	38.952687
1444.000000	39.020522
1443.000000	39.094295
1442.000000	39.203747
1441.000000	39.302578
1440.000000	39.397217
1439.000000	39.485066
1438.000000	39.611180
1437.000000	39.703723
1436.000000	39.813635
1435.000000	39.947088
1434.000000	40.048993
1433.000000	40.165310
1432.000000	40.295071
1431.000000	40.437861
1430.000000	40.577222
1429.000000	40.721490
1428.000000	40.852385
1427.000000	41.017090
1426.000000	41.169090
1425.000000	41.328944
1424.000000	41.479237
1423.000000	41.655787
1422.000000	41.853436
1421.000000	42.030371
1420.000000	42.216049
1419.000000	42.404402
1418.000000	42.600503
1417.000000	42.793496
1416.000000	42.990666
1415.000000	43.199105
1414.000000	43.412199
1413.000000	43.621847
1412.000000	43.831361
1411.000000	44.059233
1410.000000	44.265521
1409.000000	44.482676
1408.000000	44.704738
1407.000000	44.922675
1406.000000	45.144551
1405.000000	45.372742
1404.000000	45.580823
1403.000000	45.789725
1402.000000	46.008912
1401.000000	46.218514
1400.000000	46.426892
1399.000000	46.624650
1398.000000	46.823408
1397.000000	47.031308
1396.000000	47.221635
1395.000000	47.409954
1394.000000	47.611374
1393.000000	47.803954
1392.000000	47.976605
1391.000000	48.150667
1390.000000	48.314347
1389.000000	48.464669
1388.000000	48.621651
1387.000000	48.766847
1386.000000	48.903224
1385.000000	49.042109
1384.000000	49.191535
1383.000000	49.318199
1382.000000	49.406995
1381.000000	49.531709
1380.000000	49.640181
1379.000000	49.720538
1378.000000	49.830115
1377.000000	49.947470
1376.000000	50.042366
1375.000000	50.104379
1374.000000	50.180904
1373.000000	50.261386
1372.000000	50.329805
1371.000000	50.408942
1370.000000	50.482765
1369.000000	50.538967
1368.000000	50.601691
1367.000000	50.663605
1366.000000	50.721004
1365.000000	50.784439
1364.000000	50.853477
1363.000000	50.911002
1362.000000	50.973444
1361.000000	51.053716
1360.000000	51.121134
1359.000000	51.177546
1358.000000	51.255726
1357.000000	51.328081
1356.000000	51.384963
1355.000000	51.471073
1354.000000	51.554740
1353.000000	51.612032
1352.000000	51.675475
1351.000000	51.750966
1350.000000	51.841633
1349.000000	51.920037
1348.000000	51.984878
1347.000000	52.054421
1346.000000	52.147614
1345.000000	52.219169
1344.000000	52.270698
1343.000000	52.356296
1342.000000	52.435212
1341.000000	52.505496
1340.000000	52.564669
1339.000000	52.626216
1338.000000	52.710735
1337.000000	52.774958
1336.000000	52.825618
1335.000000	52.868018
1334.000000	52.927136
1333.000000	52.978991
1332.000000	53.029664
1331.000000	53.093697
1330.000000	53.149349
1329.000000	53.225475
1328.000000	53.281982
1327.000000	53.336313
1326.000000	53.358529
1325.000000	53.372700
1324.000000	53.406606
1323.000000	53.400297
1322.000000	53.422577
1321.000000	53.490493
1320.000000	53.531894
1319.000000	53.555763
1318.000000	53.562971
1317.000000	53.580369
1316.000000	53.611675
1315.000000	53.640781
1314.000000	53.671949
1313.000000	53.701080
1312.000000	53.710281
1311.000000	53.725622
1310.000000	53.770849
1309.000000	53.782122
1308.000000	53.803761
1307.000000	53.826237
1306.000000	53.832354
1305.000000	53.870939
1304.000000	53.872352
1303.000000	53.881260
1302.000000	53.900185
1301.000000	53.937004
1300.000000	53.936335
1299.000000	53.956277
1298.000000	53.970253
1297.000000	53.964185
1296.000000	53.956367
1295.000000	53.946945
1294.000000	53.955963
1293.000000	53.957054
1292.000000	53.979214
1291.000000	53.976945
1290.000000	53.976550
1289.000000	53.973230
1288.000000	53.999582
1287.000000	53.977201
1286.000000	53.960740
1285.000000	53.938817
1284.000000	53.941671
1283.000000	53.950257
1282.000000	53.936964
1281.000000	53.931162
1280.000000	53.947635
1279.000000	53.934127
1278.000000	53.942504
1277.000000	53.947276
1276.000000	53.940798
1275.000000	53.928350
1274.000000	53.965250
1273.000000	53.940693
1272.000000	53.918310
1271.000000	53.921667
1270.000000	53.939219
1269.000000	53.944520
1268.000000	53.947943
1267.000000	53.961994
1266.000000	53.958230
1265.000000	53.980780
1264.000000	54.002513
1263.000000	54.017806
1262.000000	54.021558
1261.000000	54.042033
1260.000000	54.042712
1259.000000	54.044827
1258.000000	54.046734
1257.000000	54.064666
1256.000000	54.094669
1255.000000	54.089776
1254.000000	54.095399
1253.000000	54.085741
1252.000000	54.096323
1251.000000	54.107425
1250.000000	54.093614
1249.000000	54.095692
1248.000000	54.087098
1247.000000	54.074387
1246.000000	54.081823
1245.000000	54.084074
1244.000000	54.063188
1243.000000	54.044009
1242.000000	54.019580
1241.000000	54.003646
1240.000000	53.985115
1239.000000	53.983037
1238.000000	53.967030
1237.000000	53.920699
1236.000000	53.891978
1235.000000	53.870600
1234.000000	53.847772
1233.000000	53.805159
1232.000000	53.791469
1231.000000	53.786638
1230.000000	53.765330
1229.000000	53.720350
1228.000000	53.693002
1227.000000	53.694870
1226.000000	53.668026
1225.000000	53.652615
1224.000000	53.635043
1223.000000	53.605412
1222.000000	53.579593
1221.000000	53.549138
1220.000000	53.523317
1219.000000	53.476660
1218.000000	53.434549
1217.000000	53.418058
1216.000000	53.383073
1215.000000	53.346903
1214.000000	53.327859
1213.000000	53.299737
1212.000000	53.279914
1211.000000	53.243608
1210.000000	53.200940
1209.000000	53.155880
1208.000000	53.131113
1207.000000	53.103511
1206.000000	53.061684
1205.000000	53.030589
1204.000000	52.993507
1203.000000	52.939923
1202.000000	52.907349
1201.000000	52.884804
1200.000000	52.849423
1199.000000	52.794850
1198.000000	52.757911
1197.000000	52.744523
1196.000000	52.728153
1195.000000	52.713435
1194.000000	52.696092
1193.000000	52.662700
1192.000000	52.648307
1191.000000	52.630315
1190.000000	52.592842
1189.000000	52.557503
1188.000000	52.555292
1187.000000	52.549163
1186.000000	52.543942
1185.000000	52.557187
1184.000000	52.568009
1183.000000	52.578009
1182.000000	52.600176
1181.000000	52.632821
1180.000000	52.671416
1179.000000	52.717584
1178.000000	52.756904
1177.000000	52.797771
1176.000000	52.854525
1175.000000	52.910671
1174.000000	52.958592
1173.000000	53.021672
1172.000000	53.092073
1171.000000	53.164660
1170.000000	53.239510
1169.000000	53.310673
1168.000000	53.383631
1167.000000	53.461813
1166.000000	53.549730
1165.000000	53.629234
1164.000000	53.726845
1163.000000	53.814237
1162.000000	53.876729
1161.000000	53.962563
1160.000000	54.055403
1159.000000	54.124283
1158.000000	54.202482
1157.000000	54.284970
1156.000000	54.364205
1155.000000	54.445296
1154.000000	54.512998
1153.000000	54.587686
1152.000000	54.659214
1151.000000	54.729406
1150.000000	54.811174
1149.000000	54.876292
1148.000000	54.931596
1147.000000	54.996678
1146.000000	55.059334
1145.000000	55.110880
1144.000000	55.154959
1143.000000	55.215506
1142.000000	55.263568
1141.000000	55.312630
1140.000000	55.373975
1139.000000	55.426866
1138.000000	55.482587
1137.000000	55.528793
1136.000000	55.575468
1135.000000	55.616950
1134.000000	55.657830
1133.000000	55.700598
1132.000000	55.743314
1131.000000	55.774712
1130.000000	55.788654
1129.000000	55.812443
1128.000000	55.849108
1127.000000	55.894314
1126.000000	55.919279
1125.000000	55.942979
1124.000000	55.974708
1123.000000	55.990716
1122.000000	56.007950
1121.000000	56.027286
1120.000000	56.055562
1119.000000	56.087604
1118.000000	56.081285
1117.000000	56.071905
1116.000000	56.090909
1115.000000	56.099739
1114.000000	56.123569
1113.000000	56.148771
1112.000000	56.142873
1111.000000	56.143277
1110.000000	56.146282
1109.000000	56.126679
1108.000000	56.132044
1107.000000	56.149392
1106.000000	56.171190
1105.000000	56.174514
1104.000000	56.175960
1103.000000	56.190782
1102.000000	56.189191
1101.000000	56.190380
1100.000000	56.195776
1099.000000	56.198066
1098.000000	56.195559
1097.000000	56.205070
1096.000000	56.212300
1095.000000	56.227319
1094.000000	56.214186
1093.000000	56.220211
1092.000000	56.205706
1091.000000	56.208185
1090.000000	56.196066
1089.000000	56.206829
1088.000000	56.210457
1087.000000	56.213624
1086.000000	56.208715
1085.000000	56.204499
1084.000000	56.195145
1083.000000	56.188443
1082.000000	56.207113
1081.000000	56.179317
1080.000000	56.181434
1079.000000	56.171163
1078.000000	56.166055
1077.000000	56.177358
1076.000000	56.176412
1075.000000	56.180567
1074.000000	56.159037
1073.000000	56.155169
1072.000000	56.154112
1071.000000	56.133651
1070.000000	56.133929
1069.000000	56.133485
1068.000000	56.131842
1067.000000	56.113822
1066.000000	56.105997
1065.000000	56.089751
1064.000000	56.077159
1063.000000	56.083055
1062.000000	56.061573
1061.000000	56.077914
1060.000000	56.048628
1059.000000	56.060199
1058.000000	56.058078
1057.000000	56.057146
1056.000000	56.056930
1055.000000	56.037214
1054.000000	56.025946
1053.000000	56.018929
1052.000000	56.016710
1051.000000	55.992862
1050.000000	56.001608
1049.000000	56.001556
1048.000000	55.987754
1047.000000	55.980371
1046.000000	55.966722
1045.000000	55.943667
1044.000000	55.955224
1043.000000	55.940035
1042.000000	55.955608
1041.000000	55.946649
1040.000000	55.923794
1039.000000	55.925605
1038.000000	55.909268
1037.000000	55.915009
1036.000000	55.920765
1035.000000	55.919538
1034.000000	55.909618
1033.000000	55.897746
1032.000000	55.895504
1031.000000	55.873786
1030.000000	55.891038
1029.000000	55.876380
1028.000000	55.864074
1027.000000	55.868736
1026.000000	55.869852
1025.000000	55.858718
1024.000000	55.838798
1023.000000	55.854007
1022.000000	55.850548
1021.000000	55.846376
1020.000000	55.849811
1019.000000	55.850984
1018.000000	55.852434
1017.000000	55.860954
1016.000000	55.864527
1015.000000	55.856719
1014.000000	55.847886
1013.000000	55.850207
1012.000000	55.854276
1011.000000	55.858550
1010.000000	55.857487
1009.000000	55.855305
1008.000000	55.869631
1007.000000	55.865272
1006.000000	55.862564
1005.000000	55.876321
1004.000000	55.880230
1003.000000	55.878545
1002.000000	55.866210
1001.000000	55.882244
1000.000000	55.883714
999.000000	55.874976
998.000000	55.869738
997.000000	55.883254
996.000000	55.879774
995.000000	55.890822
994.000000	55.904702
993.000000	55.910000
992.000000	55.889774
991.000000	55.896222
990.000000	55.912291
989.000000	55.917999
988.000000	55.941945
987.000000	55.939027
986.000000	55.936652
985.000000	55.934182
984.000000	55.915907
983.000000	55.924584
982.000000	55.948234
981.000000	55.961490
980.000000	55.965301
979.000000	55.965889
978.000000	55.966354
977.000000	55.970051
976.000000	55.983490
975.000000	56.011898
974.000000	56.011880
973.000000	56.024284
972.000000	56.038771
971.000000	56.056118
970.000000	56.051699
969.000000	56.055850
968.000000	56.066635
967.000000	56.067747
966.000000	56.072608
965.000000	56.089982
964.000000	56.115262
963.000000	56.131348
962.000000	56.128963
961.000000	56.137323
960.000000	56.156238
959.000000	56.162397
958.000000	56.186401
957.000000	56.199893
956.000000	56.181714
955.000000	56.175878
954.000000	56.174921
953.000000	56.207669
952.000000	56.235525
951.000000	56.254002
950.000000	56.247654
949.000000	56.241615
948.000000	56.278353
947.000000	56.282742
946.000000	56.290972
945.000000	56.320356
944.000000	56.301656
943.000000	56.288024
942.000000	56.289773
941.000000	56.283013
940.000000	56.307071
939.000000	56.313865
938.000000	56.290947
937.000000	56.306140
936.000000	56.308336
935.000000	56.308892
934.000000	56.314247
933.000000	56.311807
932.000000	56.296266
931.000000	56.297637
930.000000	56.295742
929.000000	56.292022
928.000000	56.283059
927.000000	56.279784
926.000000	56.290430
925.000000	56.260420
924.000000	56.262000
923.000000	56.274999
922.000000	56.279063
921.000000	56.289852
920.000000	56.268274
919.000000	56.259697
918.000000	56.252939
917.000000	56.261835
916.000000	56.266619
915.000000	56.276403
914.000000	56.308410
913.000000	56.300502
912.000000	56.257093
911.000000	56.225271
910.000000	56.231551
909.000000	56.240313
908.000000	56.226127
907.000000	56.252618
906.000000	56.269402
905.000000	56.281079
904.000000	56.284410
903.000000	56.333349
902.000000	56.279100
901.000000	56.266271
900.000000	56.304371
899.000000	56.285487
898.000000	56.312883
897.000000	56.281001
896.000000	56.303265
895.000000	56.335543
894.000000	56.291162
893.000000	56.269251
892.000000	56.269802
891.000000	56.319871
890.000000	56.358740
889.000000	56.375975
888.000000	56.332690
887.000000	56.280562
886.000000	56.317605
885.000000	56.371484
884.000000	56.436133
883.000000	56.397301
882.000000	56.383403
881.000000	56.452102
880.000000	56.411395
879.000000	56.357249
878.000000	56.432848
877.000000	56.396400
876.000000	56.475991
875.000000	56.379170
874.000000	56.426778
873.000000	56.434869
872.000000	56.373104
871.000000	56.388328
870.000000	56.309011
869.000000	56.414165
868.000000	56.292290
867.000000	56.322882
866.000000	56.454834
865.000000	56.380564
864.000000	56.283964
863.000000	56.441054
862.000000	56.340859
861.000000	56.344129
860.000000	56.401432
859.000000	55.597323
858.000000	55.723779
857.000000	55.961255
856.000000	55.893806
855.000000	56.102964
854.000000	55.708905
853.000000	56.257798
852.000000	56.072944
851.000000	56.150612
850.000000	56.065210
849.000000	56.115726
848.000000	56.127420
847.000000	56.219294
846.000000	55.877454
845.000000	55.881157
844.000000	55.889921
843.000000	56.027100
842.000000	55.937497
841.000000	55.902109
840.000000	56.141252
839.000000	55.944401
838.000000	56.188754
837.000000	56.020042
836.000000	56.211700
835.000000	56.098179
834.000000	56.148535
833.000000	55.955841
832.000000	56.028420
831.000000	55.893661
830.000000	56.027221
829.000000	55.995186
828.000000	55.990945
827.000000	55.943239
826.000000	55.843380
825.000000	55.843198
824.000000	55.930989
823.000000	55.833420
822.000000	56.042023
821.000000	55.886437
820.000000	55.784293
819.000000	55.999619
818.000000	55.965703
817.000000	55.867371
816.000000	56.008265
815.000000	55.856554
814.000000	55.990265
813.000000	55.859580
812.000000	55.834731
811.000000	55.922875
810.000000	55.945241
809.000000	55.861651
808.000000	55.918979
807.000000	55.717251
806.000000	55.796361
805.000000	55.908725
804.000000	55.908584
803.000000	55.899949
802.000000	55.690484
801.000000	55.842585
800.000000	55.909496
799.000000	55.849173
798.000000	55.854500
797.000000	55.864696
796.000000	55.825009
795.000000	55.833648
794.000000	55.858336
793.000000	55.868710
792.000000	55.855555
791.000000	55.802423
790.000000	55.669152
789.000000	55.813790
788.000000	55.796299
787.000000	55.768859
786.000000	55.810705
785.000000	55.742828
784.000000	55.760209
783.000000	55.708269
782.000000	55.781084
781.000000	55.782998
780.000000	55.865237
779.000000	55.898968
778.000000	55.725065
777.000000	55.634087
776.000000	55.740029
775.000000	55.768470
774.000000	55.751633
773.000000	55.674977
772.000000	55.707145
771.000000	55.704892
770.000000	55.657678
769.000000	55.757829
768.000000	55.618982
767.000000	55.583921
766.000000	55.612938
765.000000	55.609136
764.000000	55.617896
763.000000	55.679808
762.000000	55.649455
761.000000	55.618558
760.000000	55.589122
759.000000	55.524544
758.000000	55.488918
757.000000	55.551311
756.000000	55.588944
755.000000	55.509458
754.000000	55.462607
753.000000	55.586532
752.000000	55.544204
751.000000	55.473914
750.000000	55.417605
749.000000	55.418463
748.000000	55.426452
747.000000	55.453112
746.000000	55.368954
745.000000	55.416888
744.000000	55.450162
743.000000	55.408284
742.000000	55.395056
741.000000	55.329383
740.000000	55.350021
739.000000	55.302153
738.000000	55.388427
737.000000	55.333456
736.000000	55.309968
735.000000	55.345915
734.000000	55.275719
733.000000	55.259151
732.000000	55.275065
731.000000	55.267354
730.000000	55.230706
729.000000	55.246468
728.000000	55.245224
727.000000	55.214409
726.000000	55.166708
725.000000	55.168748
724.000000	55.202253
723.000000	55.198400
722.000000	55.170105
721.000000	55.188824
720.000000	55.175027
719.000000	55.080956
718.000000	55.103022
717.000000	55.099988
716.000000	55.032531
715.000000	55.042225
714.000000	55.069753
713.000000	55.048339
712.000000	55.030293
711.000000	55.026614
710.000000	55.004535
709.000000	55.008965
708.000000	54.969344
707.000000	54.926319
706.000000	54.895205
705.000000	54.906036
704.000000	54.927477
703.000000	54.900403
702.000000	54.850024
701.000000	54.880734
700.000000	54.877297
699.000000	54.838701
698.000000	54.826587
697.000000	54.752121
696.000000	54.752434
695.000000	54.757469
694.000000	54.715182
693.000000	54.708729
692.000000	54.709261
691.000000	54.757063
690.000000	54.677969
689.000000	54.620684
688.000000	54.626611
687.000000	54.612907
686.000000	54.557523
685.000000	54.558372
684.000000	54.584050
683.000000	54.603760
682.000000	54.569159
681.000000	54.490379
680.000000	54.499595
679.000000	54.502936
678.000000	54.483460
677.000000	54.494842
676.000000	54.426227
675.000000	54.365139
674.000000	54.381434
673.000000	54.406731
672.000000	54.404245
671.000000	54.403529
670.000000	54.319595
669.000000	54.286848
668.000000	54.226860
667.000000	54.241116
666.000000	54.260957
665.000000	54.210492
664.000000	54.183264
663.000000	54.164448
662.000000	54.112291
661.000000	54.127680
660.000000	54.152156
659.000000	54.103533
658.000000	54.082114
657.000000	54.067387
656.000000	53.990269
655.000000	53.943245
654.000000	53.918691
653.000000	53.917107
652.000000	53.903902
651.000000	53.886918
650.000000	53.902520
649.000000	53.848962
648.000000	53.717680
647.000000	53.751011
646.000000	53.710614
645.000000	53.669498
644.000000	53.704164
643.000000	53.616834
642.000000	53.637552
641.000000	53.610728
640.000000	53.536628
639.000000	53.571899
638.000000	53.476230
637.000000	53.464614
636.000000	53.462102
635.000000	53.435713
634.000000	53.406406
633.000000	53.331693
632.000000	53.331908
631.000000	53.289111
630.000000	53.305741
629.000000	53.267513
628.000000	53.220969
627.000000	53.186886
626.000000	53.090660
625.000000	53.158758
624.000000	53.100056
623.000000	53.079606
622.000000	53.041656
621.000000	53.000388
620.000000	52.966706
619.000000	52.907347
618.000000	52.850863
617.000000	52.864781
616.000000	52.845752
615.000000	52.849442
614.000000	52.711701
613.000000	52.831064
612.000000	52.763836
611.000000	52.677304
610.000000	52.663538
609.000000	52.668065
608.000000	52.679362
607.000000	52.592721
606.000000	52.558139
605.000000	52.515293
604.000000	52.585686
603.000000	52.501932
602.000000	52.464018
601.000000	52.422513
600.000000	52.429698
599.000000	52.410665
598.000000	52.346773
597.000000	52.348109
596.000000	52.237126
595.000000	52.270319
594.000000	52.237647
593.000000	52.227770
592.000000	52.223863
591.000000	52.177268
590.000000	52.119394
589.000000	52.110365
588.000000	52.132483
587.000000	52.019623
586.000000	51.985772
585.000000	52.020536
584.000000	51.995316
583.000000	51.935003
582.000000	51.881224
581.000000	51.885164
580.000000	51.803657
579.000000	51.840681
578.000000	51.747574
577.000000	51.762412
576.000000	51.728578
575.000000	51.685671
574.000000	51.665790
573.000000	51.726015
572.000000	51.643147
571.000000	51.564753
570.000000	51.597917
569.000000	51.582506
568.000000	51.488046
567.000000	51.449120
566.000000	51.447655
565.000000	51.386163
564.000000	51.428391
563.000000	51.392536
562.000000	51.319334
561.000000	51.223539
560.000000	51.208684
559.000000	51.153193
558.000000	51.137888
557.000000	51.087975
556.000000	51.111893
555.000000	51.089898
554.000000	51.037901
553.000000	51.017154
552.000000	50.948178
551.000000	50.894948
550.000000	50.895450
549.000000	50.893127
548.000000	50.865988
547.000000	50.814696
546.000000	50.750215
545.000000	50.723250
544.000000	50.745326
543.000000	50.662891
542.000000	50.614373
541.000000	50.593881
540.000000	50.534083
539.000000	50.506920
538.000000	50.493658
537.000000	50.455957
536.000000	50.410293
535.000000	50.390093
534.000000	50.318039
533.000000	50.328920
532.000000	50.280194
531.000000	50.224083
530.000000	50.199794
529.000000	50.214595
528.000000	50.151172
527.000000	50.105387
526.000000	50.091954
525.000000	50.040042
524.000000	49.987114
523.000000	49.979368
522.000000	49.955856
521.000000	49.927013
520.000000	49.855487
519.000000	49.823231
518.000000	49.788599
517.000000	49.775727
516.000000	49.731617
515.000000	49.693986
514.000000	49.664074
513.000000	49.612807
512.000000	49.548426
511.000000	49.543418
510.000000	49.492221
509.000000	49.466616
508.000000	49.411999
507.000000	49.363067
506.000000	49.305666
505.000000	49.267188
504.000000	49.189167
503.000000	49.138654
502.000000	49.126802
501.000000	49.071357
500.000000	49.017842
499.000000	48.962522
498.000000	48.857325
497.000000	48.805096
496.000000	48.762036
495.000000	48.714576
494.000000	48.628609
493.000000	48.576780
492.000000	48.467254
491.000000	48.395940
490.000000	48.286246
489.000000	48.193056
488.000000	48.156796
487.000000	48.103714
486.000000	48.000156
485.000000	47.997085
484.000000	47.975220
483.000000	47.833123
482.000000	47.750895
481.000000	47.664739
480.000000	47.575617
479.000000	47.513381
478.000000	47.474594
477.000000	47.390135
476.000000	47.287078
475.000000	47.187395
474.000000	47.103412
473.000000	47.031704
472.000000	46.940216
471.000000	46.844430
470.000000	46.752269
469.000000	46.646516
468.000000	46.529469
467.000000	46.466206
466.000000	46.373369
465.000000	46.247065
464.000000	46.136693
463.000000	46.042227
462.000000	45.959368
461.000000	45.833469
460.000000	45.709631
459.000000	45.580084
458.000000	45.454571
457.000000	45.341683
456.000000	45.219801
455.000000	45.144691
454.000000	45.036039
453.000000	44.892753
452.000000	44.753991
451.000000	44.588778
450.000000	44.483650
449.000000	44.382803
448.000000	44.207325
447.000000	44.073540
446.000000	43.955957
445.000000	43.833901
444.000000	43.703087
443.000000	43.575941
442.000000	43.440773
441.000000	43.278876
440.000000	43.128328
439.000000	42.974919
438.000000	42.835937
437.000000	42.714616
436.000000	42.558049
435.000000	42.413446
434.000000	42.246849
433.000000	42.098047
432.000000	41.968138
431.000000	41.838315
430.000000	41.673532
429.000000	41.502870
428.000000	41.333529
427.000000	41.165174
426.000000	41.046379
425.000000	40.882269
424.000000	40.684764
423.000000	40.549652
422.000000	40.356053
421.000000	40.218672
420.000000	40.121079
419.000000	39.923054
418.000000	39.744216
417.000000	39.621808
416.000000	39.452247
415.000000	39.303611
414.000000	39.205179
413.000000	39.130146
412.000000	39.022392
411.000000	38.954479
410.000000	38.865481
409.000000	38.782138
408.000000	38.724617
407.000000	38.711041
406.000000	38.643111
405.000000	38.594352
404.000000	38.599241
403.000000	38.559706
402.000000	38.545527
401.000000	38.492712
400.000000	38.476059
399.000000	38.448882
398.000000	38.421605
397.000000	38.400508
396.000000	38.442892
395.000000	38.309888
394.000000	38.294619
393.000000	38.268890
392.000000	38.267665
391.000000	38.272766
390.000000	38.244807
389.000000	38.231189
388.000000	38.229347
387.000000	38.212619
386.000000	38.111637
385.000000	38.057848
384.000000	38.012846
383.000000	37.969666
382.000000	37.889241
381.000000	37.891644
380.000000	37.763124
379.000000	37.730181
378.000000	37.523131
377.000000	37.554376
376.000000	37.530851
375.000000	37.610460
374.000000	37.555222
373.000000	37.504100
372.000000	37.337991
371.000000	37.156876
370.000000	37.304994
369.000000	37.023705
368.000000	36.931070
367.000000	36.941746
366.000000	36.903049
365.000000	36.807931
364.000000	36.606446
363.000000	36.795603
362.000000	36.626819
361.000000	36.537492
360.000000	36.426712
359.000000	36.382838
358.000000	36.320186
357.000000	36.261156
356.000000	36.209327
355.000000	36.267060
354.000000	36.119792
353.000000	36.088071
352.000000	35.940228
351.000000	35.889521
350.000000	35.887691
349.000000	35.728675
348.000000	35.694376
347.000000	35.682644
346.000000	35.441473
345.000000	35.591917
344.000000	35.539726
343.000000	35.392807
342.000000	35.390292
341.000000	35.242464
340.000000	35.229901
339.000000	35.263569
338.000000	35.099482
337.000000	35.079824
336.000000	34.932583
335.000000	35.047161
334.000000	35.140974
333.000000	34.966829
332.000000	34.858562
331.000000	34.871910
330.000000	34.697159
329.000000	34.827976
328.000000	34.605500
327.000000	34.588724
326.000000	34.522561
325.000000	34.715629
324.000000	34.656863
323.000000	34.524923
322.000000	34.453963
321.000000	34.609899
320.000000	34.525027
319.000000	34.351706
318.000000	34.327629
317.000000	34.466122
316.000000	34.378367
315.000000	34.365937
314.000000	34.278385
313.000000	34.312541
312.000000	34.000853
311.000000	34.237270
310.000000	34.005717
309.000000	33.867548
308.000000	33.878681
307.000000	33.741632
306.000000	33.708368
305.000000	33.705287
304.000000	33.588062
303.000000	33.449937
302.000000	33.395888
301.000000	33.304691
300.000000	33.102625
299.000000	32.995967
298.000000	32.671314
297.000000	32.535518
296.000000	32.180856
295.000000	31.693941
294.000000	31.221280
293.000000	30.601913
292.000000	29.805998
291.000000	29.112378
290.000000	28.210498
289.000000	27.418670
288.000000	26.749242
287.000000	26.183396
286.000000	25.844939
285.000000	25.632385
284.000000	25.407437
283.000000	25.407806
282.000000	25.486921
281.000000	25.442389
280.000000	25.490567
279.000000	25.641939
278.000000	25.669011
277.000000	25.817329
276.000000	26.074405
275.000000	26.338243
274.000000	26.592629
273.000000	26.817257
272.000000	27.130757
271.000000	27.284865
270.000000	27.358342
269.000000	27.445063
268.000000	27.694329
267.000000	27.986332
266.000000	28.320506
265.000000	28.386932
264.000000	28.659507
263.000000	29.041302
262.000000	29.382142
261.000000	29.570521
260.000000	29.667125
259.000000	29.887819
258.000000	30.181258
257.000000	30.545267
256.000000	30.880508
255.000000	31.016281
254.000000	30.962532
253.000000	30.889625
252.000000	30.807524
251.000000	30.543087
250.000000	30.170045
249.000000	29.621997
248.000000	28.856621
247.000000	27.987638
246.000000	26.976488
245.000000	25.740037
244.000000	24.579440
243.000000	23.389211
242.000000	22.122964
241.000000	20.808890
240.000000	19.639580
239.000000	18.595653
238.000000	17.714599
237.000000	16.929520
236.000000	16.208857
235.000000	15.624651
234.000000	15.146634
233.000000	14.650493
232.000000	14.245532
231.000000	13.889728
230.000000	13.400204
229.000000	13.044199
228.000000	12.799939
227.000000	12.494522
226.000000	12.239007
225.000000	11.986451
224.000000	11.798949
223.000000	11.719594
222.000000	11.684980
221.000000	11.635889
220.000000	11.676210
219.000000	11.690967
218.000000	11.779212
217.000000	11.867701
216.000000	11.839005
215.000000	11.968449
214.000000	12.231269
213.000000	12.346590
212.000000	12.465930
211.000000	12.686561
210.000000	12.885885
209.000000	13.155507
208.000000	13.433480
207.000000	13.683855
206.000000	14.109063
205.000000	14.563620
204.000000	15.056456
203.000000	15.572850
202.000000	15.904604
201.000000	16.243998
200.000000	16.835374
