PE UV       SUBTECH     SPECTRUM    ASCII       PEDS        4.00        
   -1
3C-XXX-C007.Sample.Raw.asc
23/09/05
15:08:07.00
23/09/05
15:08:07.00
Administrator

250.000000
1
Lambda 750
750N8071901
PerkinElmer UV WinLab 6.0.4.0738 / 1.61.00 Lambda 900

0
0
3350/servo 860.8/2
0
0
UV/VIS
1
1
1
CommonBeamDepol,150mm sphere / downward view
0
0
0
0
Program
Program
3350/servo 860.8/2
3350/0.2 860.8/0.2
3350/0.2 860.8/0.2
0
1
 
 
 
0
 
860.8
319.2
860.8
Front
100
on
 
 
0
0
0
 
0
 
 
 
0
 
 
0
0
0
0
0
 
 
 
 
0
0


0
0
#HDR
-1
-1
#GR
nm
%R
1.0
0.0
2500.000000
-10.000000
226
8
66.624819
17.380050
#DATA
2500.000000	17.380050
2490.000000	17.571853
2480.000000	17.740323
2470.000000	18.902882
2460.000000	18.702729
2450.000000	20.343704
2440.000000	20.117122
2430.000000	20.721881
2420.000000	20.649240
2410.000000	21.525975
2400.000000	20.898908
2390.000000	21.116942
2380.000000	21.043663
2370.000000	21.435862
2360.000000	20.997119
2350.000000	21.964826
2340.000000	21.512648
2330.000000	21.754322
2320.000000	20.949590
2310.000000	20.524305
2300.000000	20.259896
2290.000000	20.663144
2280.000000	21.085245
2270.000000	22.164864
2260.000000	23.267075
2250.000000	24.034277
2240.000000	24.301803
2230.000000	23.907623
2220.000000	23.346764
2210.000000	23.221953
2200.000000	22.495665
2190.000000	22.508859
2180.000000	23.241889
2170.000000	23.801600
2160.000000	24.707909
2150.000000	25.465517
2140.000000	25.801638
2130.000000	25.797555
2120.000000	25.825051
2110.000000	25.782134
2100.000000	25.358586
2090.000000	24.688067
2080.000000	23.698673
2070.000000	22.702215
2060.000000	22.107561
2050.000000	22.280409
2040.000000	22.762619
2030.000000	22.544379
2020.000000	22.018740
2010.000000	21.284819
2000.000000	20.451389
1990.000000	19.677988
1980.000000	19.023410
1970.000000	18.499696
1960.000000	18.245106
1950.000000	18.650765
1940.000000	19.703622
1930.000000	21.712355
1920.000000	24.975983
1910.000000	29.243028
1900.000000	33.692681
1890.000000	37.884651
1880.000000	40.551483
1870.000000	41.751266
1860.000000	41.935009
1850.000000	41.710729
1840.000000	41.281539
1830.000000	40.833128
1820.000000	40.362243
1810.000000	39.978300
1800.000000	39.633031
1790.000000	39.323831
1780.000000	38.937178
1770.000000	38.555279
1760.000000	38.099658
1750.000000	37.786408
1740.000000	38.171803
1730.000000	39.260181
1720.000000	39.987244
1710.000000	40.202036
1700.000000	41.057221
1690.000000	42.876283
1680.000000	44.559648
1670.000000	45.234855
1660.000000	45.274521
1650.000000	44.817584
1640.000000	44.182744
1630.000000	43.353479
1620.000000	42.485622
1610.000000	41.565955
1600.000000	40.817079
1590.000000	40.136328
1580.000000	39.500451
1570.000000	39.106055
1560.000000	38.503863
1550.000000	37.488295
1540.000000	36.577969
1530.000000	36.029466
1520.000000	35.625949
1510.000000	35.298981
1500.000000	35.150621
1490.000000	35.179663
1480.000000	35.330659
1470.000000	35.753094
1460.000000	36.463754
1450.000000	37.642379
1440.000000	39.388462
1430.000000	41.933615
1420.000000	45.310501
1410.000000	48.922951
1400.000000	51.937537
1390.000000	53.845629
1380.000000	54.930045
1370.000000	56.024237
1360.000000	57.083414
1350.000000	58.141049
1340.000000	58.983568
1330.000000	59.665113
1320.000000	60.154242
1310.000000	60.413949
1300.000000	60.421657
1290.000000	60.354749
1280.000000	60.379039
1270.000000	60.439709
1260.000000	60.386887
1250.000000	60.111039
1240.000000	59.833975
1230.000000	59.441597
1220.000000	58.845936
1210.000000	58.306202
1200.000000	58.136480
1190.000000	58.605192
1180.000000	59.660722
1170.000000	60.987069
1160.000000	62.137793
1150.000000	63.031875
1140.000000	63.692706
1130.000000	63.953954
1120.000000	64.065032
1110.000000	64.146331
1100.000000	64.185213
1090.000000	64.117500
1080.000000	64.063288
1070.000000	63.918663
1060.000000	63.859861
1050.000000	63.777236
1040.000000	63.733408
1030.000000	63.683560
1020.000000	63.711604
1010.000000	63.843908
1000.000000	63.975007
990.000000	64.155362
980.000000	64.409721
970.000000	64.714631
960.000000	64.974959
950.000000	65.145929
940.000000	65.302501
930.000000	65.417574
920.000000	65.459475
910.000000	65.689364
900.000000	66.010220
890.000000	66.078725
880.000000	66.403687
870.000000	66.487440
860.000000	66.624819
850.000000	65.597666
840.000000	65.704526
830.000000	65.769407
820.000000	65.635601
810.000000	65.483691
800.000000	65.645778
790.000000	65.767140
780.000000	65.635144
770.000000	65.855160
760.000000	65.815303
750.000000	65.884191
740.000000	65.767416
730.000000	65.893551
720.000000	65.948229
710.000000	66.009855
700.000000	66.034475
690.000000	65.985791
680.000000	65.889132
670.000000	65.836665
660.000000	65.930069
650.000000	65.938721
640.000000	65.909810
630.000000	65.889439
620.000000	65.765028
610.000000	65.713824
600.000000	65.670304
590.000000	65.578326
580.000000	65.395659
570.000000	65.349304
560.000000	65.274766
550.000000	65.152422
540.000000	65.022408
530.000000	64.823552
520.000000	64.619096
510.000000	64.430092
500.000000	64.262347
490.000000	63.859960
480.000000	63.608932
470.000000	63.115191
460.000000	62.423553
450.000000	61.476672
440.000000	60.494734
430.000000	58.805728
420.000000	57.026716
410.000000	55.339823
400.000000	53.619540
390.000000	52.000055
380.000000	50.079616
370.000000	48.214074
360.000000	45.767732
350.000000	43.428897
340.000000	41.002965
330.000000	39.311984
320.000000	37.207233
310.000000	36.253670
300.000000	32.049523
290.000000	26.496776
280.000000	23.522571
270.000000	24.167431
260.000000	24.901755
250.000000	26.415980
