PE UV       SUBTECH     SPECTRUM    ASCII       PEDS        4.00        
   -1
3C-XXX-F020.Sample.Raw.asc
23/09/06
14:51:08.00
23/09/06
14:51:08.00
Administrator

250.000000
1
Lambda 750
750N8071901
PerkinElmer UV WinLab 6.0.4.0738 / 1.61.00 Lambda 900

0
0
3350/servo 860.8/2
0
0
UV/VIS
1
1
1
CommonBeamDepol,150mm sphere / downward view
0
0
0
0
Program
Program
3350/servo 860.8/2
3350/0.2 860.8/0.2
3350/0.2 860.8/0.2
0
1
 
 
 
0
 
860.8
319.2
860.8
Front
100
on
 
 
0
0
0
 
0
 
 
 
0
 
 
0
0
0
0
0
 
 
 
 
0
0


0
0
#HDR
-1
-1
#GR
nm
%R
1.0
0.0
2500.000000
-10.000000
226
8
63.700343
12.626416
#DATA
2500.000000	12.626416
2490.000000	13.319089
2480.000000	13.340390
2470.000000	14.156459
2460.000000	13.908562
2450.000000	14.252593
2440.000000	15.151913
2430.000000	15.056465
2420.000000	16.058386
2410.000000	15.466117
2400.000000	16.102533
2390.000000	16.089561
2380.000000	15.987024
2370.000000	15.932886
2360.000000	15.586983
2350.000000	15.849177
2340.000000	15.858699
2330.000000	15.854355
2320.000000	15.255526
2310.000000	15.280354
2300.000000	14.872447
2290.000000	15.360169
2280.000000	15.334542
2270.000000	15.950412
2260.000000	17.295153
2250.000000	18.337613
2240.000000	18.328105
2230.000000	18.032144
2220.000000	17.618992
2210.000000	17.482341
2200.000000	16.845947
2190.000000	17.214478
2180.000000	17.732247
2170.000000	18.269512
2160.000000	18.887613
2150.000000	19.517224
2140.000000	19.666826
2130.000000	19.717121
2120.000000	19.972656
2110.000000	19.960456
2100.000000	19.441981
2090.000000	19.019909
2080.000000	18.197759
2070.000000	17.353548
2060.000000	16.757735
2050.000000	16.882667
2040.000000	17.403496
2030.000000	17.183163
2020.000000	16.827354
2010.000000	16.190286
2000.000000	15.646291
1990.000000	14.896770
1980.000000	14.532178
1970.000000	13.967542
1960.000000	13.845051
1950.000000	14.099051
1940.000000	14.893185
1930.000000	16.577709
1920.000000	19.056738
1910.000000	23.249729
1900.000000	27.494577
1890.000000	31.782172
1880.000000	34.700929
1870.000000	36.002671
1860.000000	36.175427
1850.000000	35.998639
1840.000000	35.498807
1830.000000	35.021463
1820.000000	34.560429
1810.000000	34.115794
1800.000000	33.762139
1790.000000	33.347293
1780.000000	32.920730
1770.000000	32.491748
1760.000000	32.107600
1750.000000	31.726003
1740.000000	32.096206
1730.000000	33.261182
1720.000000	34.028754
1710.000000	34.288692
1700.000000	35.242669
1690.000000	37.254989
1680.000000	39.171136
1670.000000	39.902608
1660.000000	39.958077
1650.000000	39.510878
1640.000000	38.774173
1630.000000	37.886489
1620.000000	36.952679
1610.000000	35.979362
1600.000000	35.164876
1590.000000	34.427289
1580.000000	33.793588
1570.000000	33.342731
1560.000000	32.725493
1550.000000	31.687532
1540.000000	30.704339
1530.000000	30.111238
1520.000000	29.707150
1510.000000	29.410876
1500.000000	29.274750
1490.000000	29.309363
1480.000000	29.505112
1470.000000	29.857062
1460.000000	30.614212
1450.000000	31.766300
1440.000000	33.542830
1430.000000	36.277847
1420.000000	39.908322
1410.000000	43.888785
1400.000000	47.322961
1390.000000	49.519279
1380.000000	50.808259
1370.000000	52.060604
1360.000000	53.325721
1350.000000	54.535181
1340.000000	55.481976
1330.000000	56.264923
1320.000000	56.833926
1310.000000	57.128094
1300.000000	57.141965
1290.000000	57.064059
1280.000000	57.102867
1270.000000	57.151011
1260.000000	57.072793
1250.000000	56.711500
1240.000000	56.341839
1230.000000	55.898922
1220.000000	55.191988
1210.000000	54.557829
1200.000000	54.345109
1190.000000	54.922988
1180.000000	56.137171
1170.000000	57.676846
1160.000000	59.046473
1150.000000	60.139905
1140.000000	60.910356
1130.000000	61.228559
1120.000000	61.366635
1110.000000	61.483194
1100.000000	61.514373
1090.000000	61.449538
1080.000000	61.347140
1070.000000	61.202098
1060.000000	61.074564
1050.000000	60.967529
1040.000000	60.871988
1030.000000	60.820939
1020.000000	60.870502
1010.000000	61.014043
1000.000000	61.153810
990.000000	61.358362
980.000000	61.609128
970.000000	61.929473
960.000000	62.255310
950.000000	62.455724
940.000000	62.486725
930.000000	62.571536
920.000000	62.630079
910.000000	62.868172
900.000000	63.151263
890.000000	63.272300
880.000000	63.393179
870.000000	63.660247
860.000000	63.700343
850.000000	62.380810
840.000000	62.872501
830.000000	62.832526
820.000000	62.719390
810.000000	62.756957
800.000000	62.771645
790.000000	62.742782
780.000000	62.604049
770.000000	62.535637
760.000000	62.559342
750.000000	62.689682
740.000000	62.532424
730.000000	62.487914
720.000000	62.554077
710.000000	62.552261
700.000000	62.410875
690.000000	62.347209
680.000000	62.048722
670.000000	62.185331
660.000000	61.989597
650.000000	61.812793
640.000000	61.734576
630.000000	61.486628
620.000000	61.358988
610.000000	61.181061
600.000000	60.991944
590.000000	60.730729
580.000000	60.515813
570.000000	60.178028
560.000000	59.918125
550.000000	59.541440
540.000000	59.211288
530.000000	58.868456
520.000000	58.379950
510.000000	57.867025
500.000000	57.366808
490.000000	56.808078
480.000000	56.309032
470.000000	55.332385
460.000000	54.404196
450.000000	53.025707
440.000000	51.407921
430.000000	49.372407
420.000000	46.963311
410.000000	44.624850
400.000000	42.440824
390.000000	39.937055
380.000000	37.470018
370.000000	34.681322
360.000000	32.134983
350.000000	29.567608
340.000000	26.821097
330.000000	24.825611
320.000000	22.987809
310.000000	21.451119
300.000000	19.172464
290.000000	15.648885
280.000000	14.066378
270.000000	13.883311
260.000000	13.888406
250.000000	13.904196
