PE UV       SUBTECH     SPECTRUM    ASCII       PEDS        4.00        
   -1
3C-XXX-C020.Sample.Raw.asc
23/09/05
16:00:53.00
23/09/05
16:00:53.00
Administrator

250.000000
1
Lambda 750
750N8071901
PerkinElmer UV WinLab 6.0.4.0738 / 1.61.00 Lambda 900

0
0
3350/servo 860.8/2
0
0
UV/VIS
1
1
1
CommonBeamDepol,150mm sphere / downward view
0
0
0
0
Program
Program
3350/servo 860.8/2
3350/0.2 860.8/0.2
3350/0.2 860.8/0.2
0
1
 
 
 
0
 
860.8
319.2
860.8
Front
100
on
 
 
0
0
0
 
0
 
 
 
0
 
 
0
0
0
0
0
 
 
 
 
0
0


0
0
#HDR
-1
-1
#GR
nm
%R
1.0
0.0
2500.000000
-10.000000
226
8
65.895227
17.459903
#DATA
2500.000000	17.459903
2490.000000	18.705358
2480.000000	17.536656
2470.000000	19.274108
2460.000000	18.575585
2450.000000	19.835957
2440.000000	19.715646
2430.000000	20.701643
2420.000000	21.555985
2410.000000	21.408684
2400.000000	21.348750
2390.000000	21.204566
2380.000000	20.985144
2370.000000	21.811700
2360.000000	21.841099
2350.000000	21.417328
2340.000000	21.620627
2330.000000	21.600552
2320.000000	21.037327
2310.000000	20.804336
2300.000000	20.091369
2290.000000	20.781943
2280.000000	21.300144
2270.000000	22.216843
2260.000000	23.331324
2250.000000	23.964728
2240.000000	24.169781
2230.000000	23.790269
2220.000000	23.255510
2210.000000	23.110766
2200.000000	22.650701
2190.000000	22.436309
2180.000000	23.102442
2170.000000	23.608830
2160.000000	24.643845
2150.000000	25.278361
2140.000000	25.849988
2130.000000	25.906307
2120.000000	25.907594
2110.000000	25.887283
2100.000000	25.395472
2090.000000	24.813971
2080.000000	23.744030
2070.000000	22.717403
2060.000000	22.052946
2050.000000	22.227857
2040.000000	22.817473
2030.000000	22.596649
2020.000000	22.057581
2010.000000	21.289001
2000.000000	20.432104
1990.000000	19.646550
1980.000000	19.073933
1970.000000	18.504711
1960.000000	18.348808
1950.000000	18.769963
1940.000000	19.731177
1930.000000	21.560359
1920.000000	24.765763
1910.000000	29.030408
1900.000000	33.511222
1890.000000	37.630362
1880.000000	40.277458
1870.000000	41.488570
1860.000000	41.773948
1850.000000	41.480370
1840.000000	41.061994
1830.000000	40.651783
1820.000000	40.142215
1810.000000	39.773412
1800.000000	39.473245
1790.000000	39.100593
1780.000000	38.732876
1770.000000	38.382901
1760.000000	37.940443
1750.000000	37.620360
1740.000000	37.992423
1730.000000	39.065724
1720.000000	39.749316
1710.000000	39.979211
1700.000000	40.813739
1690.000000	42.635401
1680.000000	44.301945
1670.000000	44.922226
1660.000000	44.975144
1650.000000	44.539792
1640.000000	43.927496
1630.000000	43.116533
1620.000000	42.263681
1610.000000	41.345135
1600.000000	40.606249
1590.000000	39.929077
1580.000000	39.298434
1570.000000	38.908269
1560.000000	38.316437
1550.000000	37.299483
1540.000000	36.411583
1530.000000	35.834702
1520.000000	35.430025
1510.000000	35.122009
1500.000000	34.994579
1490.000000	35.014960
1480.000000	35.139246
1470.000000	35.531608
1460.000000	36.240968
1450.000000	37.369056
1440.000000	39.099882
1430.000000	41.599278
1420.000000	44.914479
1410.000000	48.448739
1400.000000	51.442936
1390.000000	53.321440
1380.000000	54.450380
1370.000000	55.476108
1360.000000	56.512249
1350.000000	57.567363
1340.000000	58.387110
1330.000000	59.047508
1320.000000	59.558113
1310.000000	59.829194
1300.000000	59.816381
1290.000000	59.737038
1280.000000	59.752675
1270.000000	59.822458
1260.000000	59.785176
1250.000000	59.492530
1240.000000	59.214913
1230.000000	58.827134
1220.000000	58.249813
1210.000000	57.723337
1200.000000	57.548299
1190.000000	57.968653
1180.000000	58.992160
1170.000000	60.295181
1160.000000	61.454595
1150.000000	62.331458
1140.000000	62.979330
1130.000000	63.250289
1120.000000	63.367057
1110.000000	63.436605
1100.000000	63.460455
1090.000000	63.413241
1080.000000	63.343589
1070.000000	63.233580
1060.000000	63.145164
1050.000000	63.065585
1040.000000	63.022310
1030.000000	62.948694
1020.000000	62.980937
1010.000000	63.109510
1000.000000	63.254918
990.000000	63.444727
980.000000	63.673130
970.000000	63.979306
960.000000	64.248957
950.000000	64.429593
940.000000	64.525585
930.000000	64.625910
920.000000	64.716092
910.000000	64.913640
900.000000	65.288987
890.000000	65.383887
880.000000	65.581099
870.000000	65.650580
860.000000	65.895227
850.000000	64.672746
840.000000	64.860898
830.000000	64.883443
820.000000	64.673531
810.000000	64.792858
800.000000	64.717883
790.000000	64.711193
780.000000	64.697227
770.000000	64.827880
760.000000	64.827367
750.000000	64.976331
740.000000	64.954056
730.000000	64.939928
720.000000	64.860676
710.000000	65.122291
700.000000	65.144745
690.000000	65.097783
680.000000	64.925693
670.000000	64.993368
660.000000	64.946200
650.000000	64.923004
640.000000	64.881107
630.000000	64.832050
620.000000	64.734888
610.000000	64.653726
600.000000	64.642796
590.000000	64.512268
580.000000	64.453402
570.000000	64.307305
560.000000	64.177307
550.000000	64.068229
540.000000	63.918357
530.000000	63.783126
520.000000	63.483832
510.000000	63.303770
500.000000	63.110083
490.000000	62.753038
480.000000	62.559056
470.000000	62.027178
460.000000	61.235318
450.000000	60.399612
440.000000	59.302560
430.000000	57.622932
420.000000	55.857424
410.000000	54.094549
400.000000	52.360902
390.000000	50.674217
380.000000	48.981558
370.000000	47.153101
360.000000	44.960603
350.000000	42.504362
340.000000	40.328283
330.000000	38.591448
320.000000	37.121946
310.000000	35.310921
300.000000	31.000508
290.000000	25.771507
280.000000	22.917300
270.000000	23.531867
260.000000	24.443667
250.000000	25.830120
