PE UV       SUBTECH     SPECTRUM    ASCII       PEDS        4.00        
   -1
3C-XXX-F015.Sample.Raw.asc
23/09/06
14:35:08.00
23/09/06
14:35:08.00
Administrator

250.000000
1
Lambda 750
750N8071901
PerkinElmer UV WinLab 6.0.4.0738 / 1.61.00 Lambda 900

0
0
3350/servo 860.8/2
0
0
UV/VIS
1
1
1
CommonBeamDepol,150mm sphere / downward view
0
0
0
0
Program
Program
3350/servo 860.8/2
3350/0.2 860.8/0.2
3350/0.2 860.8/0.2
0
1
 
 
 
0
 
860.8
319.2
860.8
Front
100
on
 
 
0
0
0
 
0
 
 
 
0
 
 
0
0
0
0
0
 
 
 
 
0
0


0
0
#HDR
-1
-1
#GR
nm
%R
1.0
0.0
2500.000000
-10.000000
226
8
63.374848
13.168460
#DATA
2500.000000	13.491495
2490.000000	13.928937
2480.000000	13.664786
2470.000000	14.060562
2460.000000	14.740304
2450.000000	15.781321
2440.000000	15.332355
2430.000000	15.399262
2420.000000	16.418508
2410.000000	16.085839
2400.000000	16.623961
2390.000000	15.876722
2380.000000	16.391459
2370.000000	16.091032
2360.000000	16.336353
2350.000000	16.615599
2340.000000	16.426816
2330.000000	16.165197
2320.000000	16.027083
2310.000000	16.052676
2300.000000	15.271425
2290.000000	16.090572
2280.000000	15.902696
2270.000000	16.897342
2260.000000	18.145705
2250.000000	18.991093
2240.000000	19.029661
2230.000000	18.992306
2220.000000	18.376521
2210.000000	17.875344
2200.000000	17.627296
2190.000000	17.722754
2180.000000	18.215758
2170.000000	19.033271
2160.000000	19.365883
2150.000000	20.229358
2140.000000	20.423184
2130.000000	20.534376
2120.000000	20.633493
2110.000000	20.435708
2100.000000	20.148056
2090.000000	19.740893
2080.000000	18.919131
2070.000000	17.910019
2060.000000	17.383390
2050.000000	17.511400
2040.000000	17.927528
2030.000000	17.912962
2020.000000	17.400707
2010.000000	16.803992
2000.000000	16.058418
1990.000000	15.376812
1980.000000	14.953275
1970.000000	14.465903
1960.000000	14.155817
1950.000000	14.658636
1940.000000	15.423816
1930.000000	17.180313
1920.000000	19.693937
1910.000000	24.019219
1900.000000	28.424191
1890.000000	32.678133
1880.000000	35.581824
1870.000000	36.788587
1860.000000	36.962454
1850.000000	36.744765
1840.000000	36.313588
1830.000000	35.821268
1820.000000	35.350843
1810.000000	34.963398
1800.000000	34.604508
1790.000000	34.231604
1780.000000	33.772976
1770.000000	33.393996
1760.000000	32.961285
1750.000000	32.595771
1740.000000	32.991491
1730.000000	34.141677
1720.000000	34.870381
1710.000000	35.111860
1700.000000	36.101517
1690.000000	38.035165
1680.000000	39.923071
1670.000000	40.607767
1660.000000	40.674106
1650.000000	40.220502
1640.000000	39.528082
1630.000000	38.680806
1620.000000	37.727230
1610.000000	36.775723
1600.000000	35.960997
1590.000000	35.272242
1580.000000	34.614222
1570.000000	34.187430
1560.000000	33.560491
1550.000000	32.520302
1540.000000	31.532707
1530.000000	30.969671
1520.000000	30.575730
1510.000000	30.286722
1500.000000	30.170134
1490.000000	30.162949
1480.000000	30.336913
1470.000000	30.720851
1460.000000	31.466046
1450.000000	32.635742
1440.000000	34.405142
1430.000000	37.133578
1420.000000	40.688266
1410.000000	44.512241
1400.000000	47.768003
1390.000000	49.878188
1380.000000	51.081401
1370.000000	52.238989
1360.000000	53.442309
1350.000000	54.603485
1340.000000	55.479678
1330.000000	56.247840
1320.000000	56.762760
1310.000000	57.081295
1300.000000	57.079999
1290.000000	56.976913
1280.000000	56.998546
1270.000000	57.073309
1260.000000	56.996239
1250.000000	56.666446
1240.000000	56.308181
1230.000000	55.882329
1220.000000	55.207534
1210.000000	54.668454
1200.000000	54.486566
1190.000000	55.011353
1180.000000	56.147424
1170.000000	57.587608
1160.000000	58.873335
1150.000000	59.896907
1140.000000	60.593827
1130.000000	60.873197
1120.000000	61.011965
1110.000000	61.107949
1100.000000	61.161062
1090.000000	61.080849
1080.000000	60.986538
1070.000000	60.843816
1060.000000	60.755084
1050.000000	60.659857
1040.000000	60.582553
1030.000000	60.537354
1020.000000	60.585396
1010.000000	60.709135
1000.000000	60.864769
990.000000	61.053495
980.000000	61.294904
970.000000	61.610125
960.000000	61.925780
950.000000	62.056719
940.000000	62.150888
930.000000	62.268549
920.000000	62.369686
910.000000	62.539828
900.000000	62.756764
890.000000	62.976375
880.000000	63.100690
870.000000	63.276426
860.000000	63.374848
850.000000	62.015466
840.000000	62.552405
830.000000	62.417848
820.000000	62.354620
810.000000	62.368986
800.000000	62.333756
790.000000	62.489379
780.000000	62.269728
770.000000	62.217897
760.000000	62.161032
750.000000	62.414762
740.000000	62.270238
730.000000	62.269400
720.000000	62.223033
710.000000	62.228973
700.000000	62.080487
690.000000	62.006740
680.000000	61.891537
670.000000	61.821283
660.000000	61.807772
650.000000	61.653937
640.000000	61.561506
630.000000	61.400625
620.000000	61.245437
610.000000	61.109097
600.000000	60.915442
590.000000	60.727128
580.000000	60.519601
570.000000	60.284391
560.000000	60.000018
550.000000	59.654969
540.000000	59.393689
530.000000	59.015316
520.000000	58.633155
510.000000	58.163016
500.000000	57.698089
490.000000	57.118071
480.000000	56.731225
470.000000	55.818743
460.000000	54.946627
450.000000	53.697464
440.000000	52.022209
430.000000	50.022161
420.000000	47.712690
410.000000	45.496704
400.000000	43.185501
390.000000	40.733242
380.000000	38.066517
370.000000	35.319036
360.000000	32.428653
350.000000	29.634922
340.000000	27.272868
330.000000	24.880768
320.000000	22.654335
310.000000	21.746720
300.000000	18.317752
290.000000	14.998708
280.000000	13.311775
270.000000	13.168460
260.000000	13.314458
250.000000	13.383942
