PE UV       SUBTECH     SPECTRUM    ASCII       PEDS        4.00        
   -1
3C-XXX-F037.Sample.Raw.asc
23/09/06
15:45:58.00
23/09/06
15:45:58.00
Administrator

250.000000
1
Lambda 750
750N8071901
PerkinElmer UV WinLab 6.0.4.0738 / 1.61.00 Lambda 900

0
0
3350/servo 860.8/2
0
0
UV/VIS
1
1
1
CommonBeamDepol,150mm sphere / downward view
0
0
0
0
Program
Program
3350/servo 860.8/2
3350/0.2 860.8/0.2
3350/0.2 860.8/0.2
0
1
 
 
 
0
 
860.8
319.2
860.8
Front
100
on
 
 
0
0
0
 
0
 
 
 
0
 
 
0
0
0
0
0
 
 
 
 
0
0


0
0
#HDR
-1
-1
#GR
nm
%R
1.0
0.0
2500.000000
-10.000000
226
8
66.575276
14.067286
#DATA
2500.000000	14.409666
2490.000000	15.355398
2480.000000	16.277526
2470.000000	16.711256
2460.000000	16.560235
2450.000000	17.538805
2440.000000	17.394893
2430.000000	18.245405
2420.000000	18.614929
2410.000000	18.293419
2400.000000	19.459838
2390.000000	18.456095
2380.000000	19.240769
2370.000000	18.544472
2360.000000	18.641761
2350.000000	19.135198
2340.000000	18.829272
2330.000000	18.604811
2320.000000	18.364972
2310.000000	18.222714
2300.000000	17.482744
2290.000000	18.023238
2280.000000	18.285925
2270.000000	19.562857
2260.000000	20.846478
2250.000000	21.750668
2240.000000	21.838719
2230.000000	21.561513
2220.000000	21.118661
2210.000000	20.702668
2200.000000	20.272851
2190.000000	20.347010
2180.000000	20.673412
2170.000000	21.757304
2160.000000	22.283167
2150.000000	23.251231
2140.000000	23.487663
2130.000000	23.363972
2120.000000	23.561212
2110.000000	23.600211
2100.000000	23.260617
2090.000000	22.663098
2080.000000	21.614349
2070.000000	20.532630
2060.000000	19.831831
2050.000000	20.080307
2040.000000	20.614189
2030.000000	20.491964
2020.000000	19.966831
2010.000000	19.244504
2000.000000	18.500496
1990.000000	17.636223
1980.000000	17.009930
1970.000000	16.458536
1960.000000	16.193387
1950.000000	16.738328
1940.000000	17.567671
1930.000000	19.696967
1920.000000	22.558482
1910.000000	27.262505
1900.000000	32.076553
1890.000000	36.507401
1880.000000	39.504020
1870.000000	40.769763
1860.000000	41.010023
1850.000000	40.754198
1840.000000	40.218402
1830.000000	39.771421
1820.000000	39.274143
1810.000000	38.836307
1800.000000	38.476746
1790.000000	38.091168
1780.000000	37.653601
1770.000000	37.217042
1760.000000	36.790515
1750.000000	36.425709
1740.000000	36.809435
1730.000000	38.003624
1720.000000	38.806949
1710.000000	39.034418
1700.000000	40.038625
1690.000000	42.037165
1680.000000	43.920838
1670.000000	44.616487
1660.000000	44.691503
1650.000000	44.241602
1640.000000	43.525165
1630.000000	42.679228
1620.000000	41.709801
1610.000000	40.746733
1600.000000	39.930299
1590.000000	39.187924
1580.000000	38.544835
1570.000000	38.091903
1560.000000	37.457515
1550.000000	36.377677
1540.000000	35.381559
1530.000000	34.775807
1520.000000	34.344713
1510.000000	34.042275
1500.000000	33.925690
1490.000000	33.955723
1480.000000	34.149210
1470.000000	34.539368
1460.000000	35.326110
1450.000000	36.532547
1440.000000	38.373509
1430.000000	41.142737
1420.000000	44.691816
1410.000000	48.522817
1400.000000	51.715362
1390.000000	53.750065
1380.000000	54.923521
1370.000000	56.095884
1360.000000	57.215136
1350.000000	58.315074
1340.000000	59.165135
1330.000000	59.932048
1320.000000	60.413165
1310.000000	60.619156
1300.000000	60.575387
1290.000000	60.518463
1280.000000	60.568454
1270.000000	60.626961
1260.000000	60.569562
1250.000000	60.253923
1240.000000	59.945727
1230.000000	59.554662
1220.000000	58.910260
1210.000000	58.361894
1200.000000	58.147614
1190.000000	58.673364
1180.000000	59.778769
1170.000000	61.118401
1160.000000	62.348803
1150.000000	63.300672
1140.000000	63.956667
1130.000000	64.251863
1120.000000	64.342951
1110.000000	64.453141
1100.000000	64.506613
1090.000000	64.470657
1080.000000	64.343581
1070.000000	64.249652
1060.000000	64.147990
1050.000000	64.036936
1040.000000	63.977547
1030.000000	63.917624
1020.000000	63.943577
1010.000000	64.047534
1000.000000	64.186818
990.000000	64.394416
980.000000	64.621237
970.000000	64.910825
960.000000	65.186247
950.000000	65.370604
940.000000	65.385161
930.000000	65.482569
920.000000	65.555745
910.000000	65.749055
900.000000	65.951004
890.000000	66.084694
880.000000	66.302648
870.000000	66.366052
860.000000	66.575276
850.000000	65.411448
840.000000	65.677595
830.000000	65.783382
820.000000	65.762909
810.000000	65.647383
800.000000	65.691899
790.000000	65.681407
780.000000	65.496146
770.000000	65.453290
760.000000	65.549979
750.000000	65.554032
740.000000	65.482683
730.000000	65.463994
720.000000	65.431628
710.000000	65.420051
700.000000	65.262328
690.000000	65.216720
680.000000	65.045104
670.000000	64.997076
660.000000	64.896325
650.000000	64.817637
640.000000	64.705920
630.000000	64.421946
620.000000	64.349304
610.000000	64.140264
600.000000	63.906223
590.000000	63.721132
580.000000	63.576041
570.000000	63.326064
560.000000	63.020941
550.000000	62.637519
540.000000	62.369048
530.000000	62.057650
520.000000	61.617326
510.000000	61.095719
500.000000	60.665708
490.000000	60.113603
480.000000	59.725456
470.000000	58.830269
460.000000	57.965546
450.000000	56.760171
440.000000	55.074745
430.000000	53.086196
420.000000	50.711010
410.000000	48.606850
400.000000	46.454036
390.000000	44.130744
380.000000	41.586088
370.000000	38.818164
360.000000	35.957252
350.000000	33.507164
340.000000	30.674328
330.000000	28.046832
320.000000	25.939852
310.000000	24.445883
300.000000	20.479430
290.000000	16.225385
280.000000	14.292024
270.000000	14.067286
260.000000	14.175550
250.000000	14.248482
