PE UV       SUBTECH     SPECTRUM    ASCII       PEDS        4.00        
   -1
3C-XXX-C021.Sample.Raw.asc
23/09/06
08:44:43.00
23/09/06
08:44:43.00
Administrator

250.000000
1
Lambda 750
750N8071901
PerkinElmer UV WinLab 6.0.4.0738 / 1.61.00 Lambda 900

0
0
3350/servo 860.8/2
0
0
UV/VIS
1
1
1
CommonBeamDepol,150mm sphere / downward view
0
0
0
0
Program
Program
3350/servo 860.8/2
3350/0.2 860.8/0.2
3350/0.2 860.8/0.2
0
1
 
 
 
0
 
860.8
319.2
860.8
Front
100
on
 
 
0
0
0
 
0
 
 
 
0
 
 
0
0
0
0
0
 
 
 
 
0
0


0
0
#HDR
-1
-1
#GR
nm
%R
1.0
0.0
2500.000000
-10.000000
226
8
68.767713
16.972399
#DATA
2500.000000	17.701493
2490.000000	18.018036
2480.000000	16.972399
2470.000000	17.678067
2460.000000	19.067613
2450.000000	19.652730
2440.000000	19.978212
2430.000000	20.635219
2420.000000	20.832415
2410.000000	20.616792
2400.000000	20.608235
2390.000000	21.332985
2380.000000	21.053659
2370.000000	21.046389
2360.000000	21.475263
2350.000000	21.344427
2340.000000	21.443024
2330.000000	21.024313
2320.000000	20.856710
2310.000000	20.524433
2300.000000	20.079036
2290.000000	20.395912
2280.000000	20.879535
2270.000000	21.684642
2260.000000	22.908275
2250.000000	23.751828
2240.000000	24.143462
2230.000000	23.832160
2220.000000	23.279858
2210.000000	22.854912
2200.000000	22.545673
2190.000000	22.615443
2180.000000	23.236257
2170.000000	23.928513
2160.000000	24.736369
2150.000000	25.083570
2140.000000	25.530800
2130.000000	25.607765
2120.000000	25.813920
2110.000000	25.711379
2100.000000	25.483678
2090.000000	24.758998
2080.000000	23.721335
2070.000000	22.629493
2060.000000	21.909697
2050.000000	22.186140
2040.000000	22.553317
2030.000000	22.469019
2020.000000	21.888016
2010.000000	21.197886
2000.000000	20.329754
1990.000000	19.651493
1980.000000	18.824809
1970.000000	18.395119
1960.000000	18.286710
1950.000000	18.543865
1940.000000	19.718401
1930.000000	21.674819
1920.000000	24.847943
1910.000000	29.534295
1900.000000	34.211266
1890.000000	38.549912
1880.000000	41.338585
1870.000000	42.537877
1860.000000	42.828214
1850.000000	42.513146
1840.000000	42.146460
1830.000000	41.613718
1820.000000	41.134781
1810.000000	40.696120
1800.000000	40.391679
1790.000000	40.077529
1780.000000	39.576814
1770.000000	39.163428
1760.000000	38.807424
1750.000000	38.488707
1740.000000	38.825633
1730.000000	39.889815
1720.000000	40.676701
1710.000000	40.932000
1700.000000	41.843158
1690.000000	43.825645
1680.000000	45.566986
1670.000000	46.223333
1660.000000	46.313118
1650.000000	45.815702
1640.000000	45.093974
1630.000000	44.287641
1620.000000	43.346893
1610.000000	42.405368
1600.000000	41.598547
1590.000000	40.884311
1580.000000	40.219800
1570.000000	39.783569
1560.000000	39.162303
1550.000000	38.086278
1540.000000	37.102759
1530.000000	36.517128
1520.000000	36.143655
1510.000000	35.849074
1500.000000	35.706357
1490.000000	35.739969
1480.000000	35.870059
1470.000000	36.298722
1460.000000	37.092564
1450.000000	38.352986
1440.000000	40.217333
1430.000000	42.956723
1420.000000	46.485161
1410.000000	50.240709
1400.000000	53.402985
1390.000000	55.362847
1380.000000	56.547551
1370.000000	57.650479
1360.000000	58.799268
1350.000000	59.928695
1340.000000	60.786184
1330.000000	61.548379
1320.000000	62.099622
1310.000000	62.415629
1300.000000	62.392913
1290.000000	62.403530
1280.000000	62.376257
1270.000000	62.414111
1260.000000	62.357808
1250.000000	62.073899
1240.000000	61.749881
1230.000000	61.346175
1220.000000	60.683276
1210.000000	60.135589
1200.000000	59.980166
1190.000000	60.477483
1180.000000	61.611361
1170.000000	63.009445
1160.000000	64.185703
1150.000000	65.147049
1140.000000	65.828595
1130.000000	66.093442
1120.000000	66.216715
1110.000000	66.305504
1100.000000	66.358343
1090.000000	66.308049
1080.000000	66.185917
1070.000000	66.055778
1060.000000	65.937717
1050.000000	65.838978
1040.000000	65.788798
1030.000000	65.695924
1020.000000	65.727210
1010.000000	65.882344
1000.000000	65.979428
990.000000	66.206466
980.000000	66.475853
970.000000	66.749150
960.000000	67.078672
950.000000	67.301102
940.000000	67.356311
930.000000	67.415086
920.000000	67.597747
910.000000	67.690535
900.000000	67.988485
890.000000	68.262804
880.000000	68.442431
870.000000	68.767713
860.000000	68.595076
850.000000	68.188211
840.000000	68.281147
830.000000	68.268791
820.000000	68.118623
810.000000	68.095540
800.000000	68.119355
790.000000	68.112493
780.000000	68.054540
770.000000	68.267162
760.000000	68.312893
750.000000	68.237097
740.000000	68.363846
730.000000	68.213169
720.000000	68.385875
710.000000	68.305434
700.000000	68.279139
690.000000	68.321037
680.000000	68.233741
670.000000	68.143907
660.000000	68.161949
650.000000	68.029693
640.000000	68.020230
630.000000	68.041699
620.000000	67.958252
610.000000	67.808083
600.000000	67.747782
590.000000	67.712643
580.000000	67.485994
570.000000	67.473890
560.000000	67.321667
550.000000	67.177933
540.000000	66.985750
530.000000	66.713046
520.000000	66.573372
510.000000	66.268032
500.000000	66.024638
490.000000	65.635495
480.000000	65.403256
470.000000	64.762694
460.000000	64.018385
450.000000	63.119855
440.000000	61.672282
430.000000	60.031596
420.000000	58.091702
410.000000	56.206148
400.000000	54.397205
390.000000	52.400905
380.000000	50.542630
370.000000	48.360743
360.000000	45.560330
350.000000	43.175654
340.000000	40.838556
330.000000	38.531344
320.000000	37.755191
310.000000	36.918847
300.000000	32.313027
290.000000	26.204403
280.000000	23.181728
270.000000	23.665949
260.000000	24.708454
250.000000	25.804673
