PE UV       SUBTECH     SPECTRUM    ASCII       PEDS        4.00        
   -1
3C-XXX-C055.Sample.Raw.asc
23/09/06
10:35:26.00
23/09/06
10:35:26.00
Administrator

250.000000
1
Lambda 750
750N8071901
PerkinElmer UV WinLab 6.0.4.0738 / 1.61.00 Lambda 900

0
0
3350/servo 860.8/2
0
0
UV/VIS
1
1
1
CommonBeamDepol,150mm sphere / downward view
0
0
0
0
Program
Program
3350/servo 860.8/2
3350/0.2 860.8/0.2
3350/0.2 860.8/0.2
0
1
 
 
 
0
 
860.8
319.2
860.8
Front
100
on
 
 
0
0
0
 
0
 
 
 
0
 
 
0
0
0
0
0
 
 
 
 
0
0


0
0
#HDR
-1
-1
#GR
nm
%R
1.0
0.0
2500.000000
-10.000000
226
8
68.526711
18.955199
#DATA
2500.000000	18.955199
2490.000000	19.192465
2480.000000	19.879838
2470.000000	19.808712
2460.000000	20.771656
2450.000000	21.777311
2440.000000	21.496832
2430.000000	22.107419
2420.000000	22.483634
2410.000000	22.480574
2400.000000	22.286038
2390.000000	23.269663
2380.000000	22.673533
2370.000000	22.046693
2360.000000	23.136746
2350.000000	23.295144
2340.000000	23.087120
2330.000000	22.640633
2320.000000	22.306050
2310.000000	22.133596
2300.000000	21.706961
2290.000000	21.897959
2280.000000	22.206015
2270.000000	23.348488
2260.000000	24.940783
2250.000000	25.458447
2240.000000	25.804228
2230.000000	25.551740
2220.000000	25.191014
2210.000000	24.303573
2200.000000	24.088496
2190.000000	24.330908
2180.000000	24.863567
2170.000000	25.534418
2160.000000	26.606266
2150.000000	26.903792
2140.000000	27.672785
2130.000000	27.620106
2120.000000	27.739485
2110.000000	27.583186
2100.000000	27.340151
2090.000000	26.516358
2080.000000	25.527309
2070.000000	24.385082
2060.000000	23.826884
2050.000000	23.932711
2040.000000	24.384196
2030.000000	24.257635
2020.000000	23.713762
2010.000000	22.925494
2000.000000	22.045863
1990.000000	21.191371
1980.000000	20.448204
1970.000000	20.000592
1960.000000	19.767500
1950.000000	20.086461
1940.000000	21.323675
1930.000000	23.193611
1920.000000	26.634840
1910.000000	31.204328
1900.000000	35.558598
1890.000000	39.752018
1880.000000	42.658292
1870.000000	43.653583
1860.000000	43.973063
1850.000000	43.719830
1840.000000	43.407351
1830.000000	42.855649
1820.000000	42.389625
1810.000000	41.962024
1800.000000	41.653388
1790.000000	41.344462
1780.000000	40.910308
1770.000000	40.539723
1760.000000	40.135702
1750.000000	39.873762
1740.000000	40.217503
1730.000000	41.285081
1720.000000	42.022378
1710.000000	42.244039
1700.000000	43.154126
1690.000000	44.985988
1680.000000	46.650209
1670.000000	47.260715
1660.000000	47.360246
1650.000000	46.920491
1640.000000	46.219517
1630.000000	45.432834
1620.000000	44.542175
1610.000000	43.646002
1600.000000	42.880883
1590.000000	42.196034
1580.000000	41.591327
1570.000000	41.170261
1560.000000	40.602439
1550.000000	39.581596
1540.000000	38.643805
1530.000000	38.066087
1520.000000	37.681100
1510.000000	37.371401
1500.000000	37.229131
1490.000000	37.273464
1480.000000	37.430792
1470.000000	37.819678
1460.000000	38.555471
1450.000000	39.734276
1440.000000	41.486581
1430.000000	44.060103
1420.000000	47.427296
1410.000000	51.028235
1400.000000	54.026881
1390.000000	55.852983
1380.000000	56.959582
1370.000000	58.019122
1360.000000	59.075450
1350.000000	60.082777
1340.000000	60.917872
1330.000000	61.608849
1320.000000	62.094047
1310.000000	62.346219
1300.000000	62.354640
1290.000000	62.333046
1280.000000	62.337435
1270.000000	62.399306
1260.000000	62.352132
1250.000000	62.047841
1240.000000	61.790169
1230.000000	61.463454
1220.000000	60.870646
1210.000000	60.390312
1200.000000	60.234207
1190.000000	60.701212
1180.000000	61.716929
1170.000000	62.997651
1160.000000	64.078308
1150.000000	64.957386
1140.000000	65.556829
1130.000000	65.809088
1120.000000	65.965683
1110.000000	66.044397
1100.000000	66.066931
1090.000000	66.039559
1080.000000	65.958766
1070.000000	65.849695
1060.000000	65.772080
1050.000000	65.716201
1040.000000	65.655585
1030.000000	65.585247
1020.000000	65.647633
1010.000000	65.767006
1000.000000	65.873666
990.000000	66.091693
980.000000	66.353327
970.000000	66.663782
960.000000	66.942016
950.000000	67.133337
940.000000	67.268173
930.000000	67.308123
920.000000	67.492382
910.000000	67.626456
900.000000	67.860132
890.000000	67.994556
880.000000	68.205853
870.000000	68.526711
860.000000	68.440413
850.000000	67.615241
840.000000	67.875798
830.000000	67.749599
820.000000	67.514501
810.000000	67.698484
800.000000	67.835219
790.000000	67.938724
780.000000	67.856040
770.000000	67.878316
760.000000	68.001542
750.000000	67.940175
740.000000	67.949417
730.000000	68.003714
720.000000	68.068149
710.000000	67.931933
700.000000	67.996351
690.000000	68.100226
680.000000	68.001910
670.000000	67.969785
660.000000	67.938079
650.000000	67.817840
640.000000	67.793605
630.000000	67.770875
620.000000	67.736665
610.000000	67.507881
600.000000	67.498775
590.000000	67.422105
580.000000	67.283544
570.000000	67.291502
560.000000	67.181589
550.000000	67.039589
540.000000	66.934143
530.000000	66.729078
520.000000	66.476162
510.000000	66.229359
500.000000	66.024161
490.000000	65.641215
480.000000	65.446881
470.000000	64.800954
460.000000	64.008252
450.000000	63.303661
440.000000	61.929203
430.000000	60.324810
420.000000	58.489546
410.000000	56.668541
400.000000	55.183358
390.000000	53.430215
380.000000	51.688353
370.000000	49.622432
360.000000	47.309314
350.000000	44.834388
340.000000	42.299943
330.000000	40.794656
320.000000	39.834438
310.000000	38.434997
300.000000	34.069368
290.000000	27.527431
280.000000	24.323471
270.000000	24.656061
260.000000	25.500370
250.000000	26.897392
