PE UV       SUBTECH     SPECTRUM    ASCII       PEDS        4.00        
   -1
3C-XXX-C047.Sample.Raw.asc
23/09/06
10:07:47.00
23/09/06
10:07:47.00
Administrator

250.000000
1
Lambda 750
750N8071901
PerkinElmer UV WinLab 6.0.4.0738 / 1.61.00 Lambda 900

0
0
3350/servo 860.8/2
0
0
UV/VIS
1
1
1
CommonBeamDepol,150mm sphere / downward view
0
0
0
0
Program
Program
3350/servo 860.8/2
3350/0.2 860.8/0.2
3350/0.2 860.8/0.2
0
1
 
 
 
0
 
860.8
319.2
860.8
Front
100
on
 
 
0
0
0
 
0
 
 
 
0
 
 
0
0
0
0
0
 
 
 
 
0
0


0
0
#HDR
-1
-1
#GR
nm
%R
1.0
0.0
2500.000000
-10.000000
226
8
71.794140
21.569493
#DATA
2500.000000	21.569493
2490.000000	21.665427
2480.000000	22.011913
2470.000000	22.361828
2460.000000	23.638782
2450.000000	24.210532
2440.000000	24.083815
2430.000000	24.889490
2420.000000	25.214186
2410.000000	25.546383
2400.000000	25.219717
2390.000000	25.869983
2380.000000	25.649825
2370.000000	25.322252
2360.000000	25.676795
2350.000000	26.217842
2340.000000	26.038196
2330.000000	25.563899
2320.000000	25.444330
2310.000000	24.723594
2300.000000	24.606533
2290.000000	25.022988
2280.000000	25.201984
2270.000000	26.085751
2260.000000	27.624600
2250.000000	28.567786
2240.000000	28.966893
2230.000000	28.484164
2220.000000	28.133023
2210.000000	27.271036
2200.000000	27.073388
2190.000000	27.282051
2180.000000	27.789220
2170.000000	28.707487
2160.000000	29.702722
2150.000000	30.297494
2140.000000	30.780619
2130.000000	30.650619
2120.000000	30.866835
2110.000000	30.870993
2100.000000	30.475824
2090.000000	29.655190
2080.000000	28.531209
2070.000000	27.453782
2060.000000	26.820982
2050.000000	27.112310
2040.000000	27.475075
2030.000000	27.380031
2020.000000	26.774048
2010.000000	25.979691
2000.000000	24.982961
1990.000000	24.143729
1980.000000	23.413544
1970.000000	22.766055
1960.000000	22.400051
1950.000000	22.944940
1940.000000	24.289757
1930.000000	26.274210
1920.000000	29.870273
1910.000000	34.581725
1900.000000	39.026525
1890.000000	43.219417
1880.000000	46.028992
1870.000000	47.089890
1860.000000	47.347276
1850.000000	47.057962
1840.000000	46.723361
1830.000000	46.202527
1820.000000	45.764265
1810.000000	45.387470
1800.000000	45.053287
1790.000000	44.732839
1780.000000	44.332241
1770.000000	43.946776
1760.000000	43.517724
1750.000000	43.293478
1740.000000	43.637492
1730.000000	44.696903
1720.000000	45.443702
1710.000000	45.661856
1700.000000	46.584518
1690.000000	48.389409
1680.000000	50.009640
1670.000000	50.617526
1660.000000	50.719645
1650.000000	50.257021
1640.000000	49.612779
1630.000000	48.868822
1620.000000	47.992836
1610.000000	47.110689
1600.000000	46.375856
1590.000000	45.725116
1580.000000	45.105816
1570.000000	44.710242
1560.000000	44.102127
1550.000000	43.135704
1540.000000	42.205395
1530.000000	41.649651
1520.000000	41.251613
1510.000000	40.961386
1500.000000	40.872423
1490.000000	40.934297
1480.000000	41.098586
1470.000000	41.497765
1460.000000	42.268706
1450.000000	43.441237
1440.000000	45.196223
1430.000000	47.729500
1420.000000	51.030333
1410.000000	54.511441
1400.000000	57.355581
1390.000000	59.133463
1380.000000	60.202215
1370.000000	61.181282
1360.000000	62.205580
1350.000000	63.174034
1340.000000	63.970669
1330.000000	64.594638
1320.000000	65.038360
1310.000000	65.328710
1300.000000	65.322154
1290.000000	65.315732
1280.000000	65.328514
1270.000000	65.358991
1260.000000	65.351312
1250.000000	65.103603
1240.000000	64.859503
1230.000000	64.530024
1220.000000	63.961783
1210.000000	63.497057
1200.000000	63.366700
1190.000000	63.833311
1180.000000	64.821810
1170.000000	66.052555
1160.000000	67.092015
1150.000000	67.933266
1140.000000	68.512299
1130.000000	68.749787
1120.000000	68.900193
1110.000000	68.997698
1100.000000	69.027783
1090.000000	69.000230
1080.000000	68.938149
1070.000000	68.861769
1060.000000	68.790590
1050.000000	68.763942
1040.000000	68.736857
1030.000000	68.694464
1020.000000	68.730340
1010.000000	68.877586
1000.000000	68.985158
990.000000	69.192131
980.000000	69.469556
970.000000	69.791754
960.000000	70.071917
950.000000	70.257485
940.000000	70.361183
930.000000	70.486263
920.000000	70.654594
910.000000	70.797697
900.000000	71.075706
890.000000	71.228429
880.000000	71.372945
870.000000	71.657777
860.000000	71.660652
850.000000	71.028612
840.000000	71.394718
830.000000	71.140727
820.000000	71.135131
810.000000	70.994785
800.000000	71.225822
790.000000	71.308601
780.000000	71.336830
770.000000	71.337689
760.000000	71.557962
750.000000	71.544524
740.000000	71.651625
730.000000	71.487571
720.000000	71.644006
710.000000	71.705981
700.000000	71.739272
690.000000	71.794140
680.000000	71.761952
670.000000	71.779187
660.000000	71.694072
650.000000	71.692339
640.000000	71.671412
630.000000	71.739960
620.000000	71.672637
610.000000	71.521931
600.000000	71.541274
590.000000	71.469901
580.000000	71.361029
570.000000	71.391017
560.000000	71.308899
550.000000	71.212508
540.000000	71.136689
530.000000	70.971064
520.000000	70.825599
510.000000	70.620612
500.000000	70.455418
490.000000	70.063462
480.000000	70.005147
470.000000	69.498108
460.000000	68.734149
450.000000	68.151851
440.000000	67.065030
430.000000	65.625027
420.000000	63.949339
410.000000	62.290639
400.000000	60.921451
390.000000	59.337561
380.000000	57.925507
370.000000	56.060910
360.000000	53.386725
350.000000	50.827065
340.000000	49.077103
330.000000	47.172420
320.000000	46.722951
310.000000	44.497639
300.000000	40.676142
290.000000	32.519530
280.000000	27.843604
270.000000	27.986148
260.000000	28.870814
250.000000	29.853879
