PE UV       SUBTECH     SPECTRUM    ASCII       PEDS        4.00        
   -1
3C-XXX-C062.Sample.Raw.asc
23/09/06
11:00:11.00
23/09/06
11:00:11.00
Administrator

250.000000
1
Lambda 750
750N8071901
PerkinElmer UV WinLab 6.0.4.0738 / 1.61.00 Lambda 900

0
0
3350/servo 860.8/2
0
0
UV/VIS
1
1
1
CommonBeamDepol,150mm sphere / downward view
0
0
0
0
Program
Program
3350/servo 860.8/2
3350/0.2 860.8/0.2
3350/0.2 860.8/0.2
0
1
 
 
 
0
 
860.8
319.2
860.8
Front
100
on
 
 
0
0
0
 
0
 
 
 
0
 
 
0
0
0
0
0
 
 
 
 
0
0


0
0
#HDR
-1
-1
#GR
nm
%R
1.0
0.0
2500.000000
-10.000000
226
8
70.084444
22.104006
#DATA
2500.000000	22.104006
2490.000000	22.504475
2480.000000	22.801597
2470.000000	23.188267
2460.000000	24.289510
2450.000000	24.550603
2440.000000	25.386904
2430.000000	25.184421
2420.000000	25.544761
2410.000000	25.958368
2400.000000	25.623166
2390.000000	26.040184
2380.000000	26.375707
2370.000000	25.799935
2360.000000	26.392736
2350.000000	26.617029
2340.000000	26.695794
2330.000000	25.949671
2320.000000	25.782220
2310.000000	25.218352
2300.000000	24.916638
2290.000000	25.320070
2280.000000	25.453254
2270.000000	26.672103
2260.000000	28.217024
2250.000000	28.845985
2240.000000	29.239659
2230.000000	28.871092
2220.000000	28.444101
2210.000000	27.935137
2200.000000	27.320889
2190.000000	27.590537
2180.000000	28.453474
2170.000000	29.326319
2160.000000	30.009489
2150.000000	30.687454
2140.000000	31.288826
2130.000000	31.227288
2120.000000	31.210609
2110.000000	31.117647
2100.000000	30.822937
2090.000000	30.099017
2080.000000	29.087479
2070.000000	27.934749
2060.000000	27.217101
2050.000000	27.532639
2040.000000	27.953314
2030.000000	27.823267
2020.000000	27.191388
2010.000000	26.318888
2000.000000	25.379159
1990.000000	24.459729
1980.000000	23.673800
1970.000000	23.057736
1960.000000	22.746878
1950.000000	23.259632
1940.000000	24.618728
1930.000000	26.749636
1920.000000	30.226194
1910.000000	34.802841
1900.000000	38.900820
1890.000000	42.976536
1880.000000	45.817137
1870.000000	46.776668
1860.000000	47.155521
1850.000000	46.889907
1840.000000	46.580609
1830.000000	46.087492
1820.000000	45.670472
1810.000000	45.215812
1800.000000	44.874511
1790.000000	44.581941
1780.000000	44.187936
1770.000000	43.842708
1760.000000	43.464531
1750.000000	43.208862
1740.000000	43.537985
1730.000000	44.529999
1720.000000	45.254208
1710.000000	45.480477
1700.000000	46.307578
1690.000000	48.001371
1680.000000	49.590591
1670.000000	50.234012
1660.000000	50.289238
1650.000000	49.888520
1640.000000	49.280962
1630.000000	48.551511
1620.000000	47.729187
1610.000000	46.850109
1600.000000	46.117818
1590.000000	45.479219
1580.000000	44.890161
1570.000000	44.540772
1560.000000	43.994078
1550.000000	43.060989
1540.000000	42.161499
1530.000000	41.596515
1520.000000	41.198285
1510.000000	40.895955
1500.000000	40.775175
1490.000000	40.859124
1480.000000	41.037249
1470.000000	41.392499
1460.000000	42.091643
1450.000000	43.184908
1440.000000	44.788050
1430.000000	47.190822
1420.000000	50.327294
1410.000000	53.690706
1400.000000	56.473009
1390.000000	58.239756
1380.000000	59.246585
1370.000000	60.276081
1360.000000	61.206069
1350.000000	62.132689
1340.000000	62.892384
1330.000000	63.543995
1320.000000	64.009310
1310.000000	64.270564
1300.000000	64.300324
1290.000000	64.296308
1280.000000	64.295376
1270.000000	64.347078
1260.000000	64.301142
1250.000000	64.047500
1240.000000	63.805609
1230.000000	63.486363
1220.000000	62.960999
1210.000000	62.511383
1200.000000	62.360849
1190.000000	62.788873
1180.000000	63.690331
1170.000000	64.871234
1160.000000	65.875511
1150.000000	66.677326
1140.000000	67.251424
1130.000000	67.499654
1120.000000	67.619082
1110.000000	67.704083
1100.000000	67.746252
1090.000000	67.727777
1080.000000	67.653183
1070.000000	67.537049
1060.000000	67.460031
1050.000000	67.395870
1040.000000	67.347715
1030.000000	67.294725
1020.000000	67.334598
1010.000000	67.511428
1000.000000	67.594377
990.000000	67.773109
980.000000	68.014555
970.000000	68.319796
960.000000	68.585187
950.000000	68.773979
940.000000	68.880060
930.000000	68.945504
920.000000	69.117438
910.000000	69.242215
900.000000	69.535373
890.000000	69.634679
880.000000	69.733800
870.000000	70.084444
860.000000	70.005806
850.000000	68.951269
840.000000	69.234893
830.000000	69.649125
820.000000	69.194590
810.000000	69.146230
800.000000	69.425787
790.000000	69.376455
780.000000	69.386240
770.000000	69.630438
760.000000	69.545964
750.000000	69.644355
740.000000	69.699518
730.000000	69.551664
720.000000	69.758701
710.000000	69.685006
700.000000	69.801359
690.000000	69.819187
680.000000	69.616674
670.000000	69.689721
660.000000	69.667596
650.000000	69.612287
640.000000	69.618394
630.000000	69.594256
620.000000	69.532547
610.000000	69.427903
600.000000	69.410734
590.000000	69.402056
580.000000	69.242237
570.000000	69.259341
560.000000	69.149446
550.000000	69.034947
540.000000	68.948324
530.000000	68.731117
520.000000	68.548418
510.000000	68.361533
500.000000	68.236017
490.000000	67.944048
480.000000	67.754619
470.000000	67.231552
460.000000	66.533950
450.000000	65.938984
440.000000	64.780786
430.000000	63.428909
420.000000	61.684674
410.000000	60.196977
400.000000	58.811288
390.000000	57.266286
380.000000	55.687993
370.000000	53.737178
360.000000	51.238316
350.000000	49.083625
340.000000	46.524500
330.000000	44.460003
320.000000	43.772090
310.000000	42.559050
300.000000	37.028238
290.000000	29.450271
280.000000	25.364044
270.000000	25.464590
260.000000	26.268336
250.000000	27.184765
