PE UV       SUBTECH     SPECTRUM    ASCII       PEDS        4.00        
   -1
3C-XXX-C064.Sample.Raw.asc
23/09/06
11:07:22.00
23/09/06
11:07:22.00
Administrator

250.000000
1
Lambda 750
750N8071901
PerkinElmer UV WinLab 6.0.4.0738 / 1.61.00 Lambda 900

0
0
3350/servo 860.8/2
0
0
UV/VIS
1
1
1
CommonBeamDepol,150mm sphere / downward view
0
0
0
0
Program
Program
3350/servo 860.8/2
3350/0.2 860.8/0.2
3350/0.2 860.8/0.2
0
1
 
 
 
0
 
860.8
319.2
860.8
Front
100
on
 
 
0
0
0
 
0
 
 
 
0
 
 
0
0
0
0
0
 
 
 
 
0
0


0
0
#HDR
-1
-1
#GR
nm
%R
1.0
0.0
2500.000000
-10.000000
226
8
70.224749
20.657951
#DATA
2500.000000	20.657951
2490.000000	20.987517
2480.000000	21.279709
2470.000000	21.837913
2460.000000	22.329340
2450.000000	23.376375
2440.000000	23.396179
2430.000000	23.877819
2420.000000	24.822171
2410.000000	24.587216
2400.000000	23.897178
2390.000000	24.318046
2380.000000	24.693700
2370.000000	24.450602
2360.000000	24.788295
2350.000000	25.261615
2340.000000	25.156565
2330.000000	24.230703
2320.000000	24.300899
2310.000000	23.974156
2300.000000	23.590833
2290.000000	23.748422
2280.000000	24.167446
2270.000000	25.207751
2260.000000	26.646514
2250.000000	27.456521
2240.000000	27.659958
2230.000000	27.398971
2220.000000	26.768188
2210.000000	26.350566
2200.000000	25.906558
2190.000000	26.167161
2180.000000	26.981578
2170.000000	27.566063
2160.000000	28.578047
2150.000000	28.919451
2140.000000	29.434504
2130.000000	29.506740
2120.000000	29.702093
2110.000000	29.641584
2100.000000	29.245067
2090.000000	28.493959
2080.000000	27.373895
2070.000000	26.127671
2060.000000	25.684735
2050.000000	25.909551
2040.000000	26.296644
2030.000000	26.270006
2020.000000	25.564201
2010.000000	24.731494
2000.000000	23.952073
1990.000000	23.090734
1980.000000	22.358148
1970.000000	21.794668
1960.000000	21.525057
1950.000000	21.938417
1940.000000	23.186061
1930.000000	25.149445
1920.000000	28.620954
1910.000000	33.218616
1900.000000	37.726625
1890.000000	41.914467
1880.000000	44.517126
1870.000000	45.694445
1860.000000	45.966054
1850.000000	45.619172
1840.000000	45.259875
1830.000000	44.794491
1820.000000	44.354621
1810.000000	43.927969
1800.000000	43.626742
1790.000000	43.337133
1780.000000	42.936610
1770.000000	42.533168
1760.000000	42.118454
1750.000000	41.912004
1740.000000	42.245520
1730.000000	43.295603
1720.000000	44.009718
1710.000000	44.227978
1700.000000	45.129055
1690.000000	46.985535
1680.000000	48.577957
1670.000000	49.189902
1660.000000	49.283627
1650.000000	48.836739
1640.000000	48.168377
1630.000000	47.379102
1620.000000	46.521375
1610.000000	45.659817
1600.000000	44.937841
1590.000000	44.263406
1580.000000	43.615127
1570.000000	43.245144
1560.000000	42.644238
1550.000000	41.632537
1540.000000	40.717614
1530.000000	40.191286
1520.000000	39.786832
1510.000000	39.487700
1500.000000	39.374394
1490.000000	39.437369
1480.000000	39.582582
1470.000000	39.982103
1460.000000	40.724086
1450.000000	41.910176
1440.000000	43.639779
1430.000000	46.204041
1420.000000	49.511781
1410.000000	52.982636
1400.000000	55.863258
1390.000000	57.644968
1380.000000	58.732585
1370.000000	59.751306
1360.000000	60.758415
1350.000000	61.763923
1340.000000	62.547183
1330.000000	63.188758
1320.000000	63.656933
1310.000000	63.890642
1300.000000	63.893306
1290.000000	63.877481
1280.000000	63.886125
1270.000000	63.966103
1260.000000	63.923382
1250.000000	63.671538
1240.000000	63.384964
1230.000000	63.046213
1220.000000	62.475758
1210.000000	61.997294
1200.000000	61.852970
1190.000000	62.353362
1180.000000	63.349202
1170.000000	64.588906
1160.000000	65.621732
1150.000000	66.495608
1140.000000	67.095799
1130.000000	67.344178
1120.000000	67.482293
1110.000000	67.568772
1100.000000	67.584534
1090.000000	67.579204
1080.000000	67.499988
1070.000000	67.402578
1060.000000	67.340073
1050.000000	67.298044
1040.000000	67.264309
1030.000000	67.202395
1020.000000	67.267037
1010.000000	67.413396
1000.000000	67.504494
990.000000	67.701449
980.000000	67.989094
970.000000	68.290432
960.000000	68.572676
950.000000	68.720537
940.000000	68.882466
930.000000	68.943397
920.000000	69.098159
910.000000	69.210460
900.000000	69.528628
890.000000	69.719885
880.000000	69.825369
870.000000	70.152541
860.000000	70.224749
850.000000	69.213982
840.000000	69.652544
830.000000	69.454159
820.000000	69.223400
810.000000	69.329577
800.000000	69.402902
790.000000	69.344436
780.000000	69.515021
770.000000	69.553323
760.000000	69.604069
750.000000	69.600954
740.000000	69.660979
730.000000	69.611812
720.000000	69.658913
710.000000	69.682683
700.000000	69.789514
690.000000	69.771657
680.000000	69.750566
670.000000	69.687565
660.000000	69.699725
650.000000	69.635899
640.000000	69.637625
630.000000	69.658324
620.000000	69.625647
610.000000	69.462742
600.000000	69.468744
590.000000	69.383927
580.000000	69.224860
570.000000	69.283983
560.000000	69.154969
550.000000	68.996619
540.000000	68.959962
530.000000	68.784844
520.000000	68.539633
510.000000	68.287147
500.000000	68.205835
490.000000	67.796856
480.000000	67.577057
470.000000	67.035945
460.000000	66.265903
450.000000	65.552483
440.000000	64.382967
430.000000	62.831300
420.000000	61.095110
410.000000	59.391910
400.000000	57.936842
390.000000	56.212549
380.000000	54.594420
370.000000	52.653861
360.000000	50.004595
350.000000	47.500289
340.000000	45.579061
330.000000	43.483042
320.000000	43.043002
310.000000	40.823528
300.000000	36.491225
290.000000	29.292247
280.000000	25.471376
270.000000	25.751399
260.000000	26.739984
250.000000	27.677922
