PE UV       SUBTECH     SPECTRUM    ASCII       PEDS        4.00        
   -1
3C-XXX-C014.Sample.Raw.asc
23/09/05
15:44:04.00
23/09/05
15:44:04.00
Administrator

250.000000
1
Lambda 750
750N8071901
PerkinElmer UV WinLab 6.0.4.0738 / 1.61.00 Lambda 900

0
0
3350/servo 860.8/2
0
0
UV/VIS
1
1
1
CommonBeamDepol,150mm sphere / downward view
0
0
0
0
Program
Program
3350/servo 860.8/2
3350/0.2 860.8/0.2
3350/0.2 860.8/0.2
0
1
 
 
 
0
 
860.8
319.2
860.8
Front
100
on
 
 
0
0
0
 
0
 
 
 
0
 
 
0
0
0
0
0
 
 
 
 
0
0


0
0
#HDR
-1
-1
#GR
nm
%R
1.0
0.0
2500.000000
-10.000000
226
8
64.418894
16.049374
#DATA
2500.000000	16.049374
2490.000000	16.461452
2480.000000	16.347111
2470.000000	17.236438
2460.000000	17.406537
2450.000000	18.182697
2440.000000	17.976394
2430.000000	18.878345
2420.000000	19.178041
2410.000000	19.513482
2400.000000	19.106701
2390.000000	19.240374
2380.000000	19.262018
2370.000000	19.788155
2360.000000	19.341710
2350.000000	19.433686
2340.000000	19.665173
2330.000000	19.462480
2320.000000	19.287300
2310.000000	18.774034
2300.000000	18.285997
2290.000000	18.772390
2280.000000	19.304566
2270.000000	20.543331
2260.000000	21.324803
2250.000000	22.132278
2240.000000	22.382090
2230.000000	22.067410
2220.000000	21.467002
2210.000000	21.002394
2200.000000	20.754850
2190.000000	20.510453
2180.000000	21.405160
2170.000000	21.722523
2160.000000	22.955927
2150.000000	23.478780
2140.000000	23.934933
2130.000000	24.071269
2120.000000	24.011854
2110.000000	23.831622
2100.000000	23.458285
2090.000000	22.991216
2080.000000	22.006413
2070.000000	20.984190
2060.000000	20.343264
2050.000000	20.470086
2040.000000	21.004955
2030.000000	20.817939
2020.000000	20.330935
2010.000000	19.601553
2000.000000	18.929514
1990.000000	18.085788
1980.000000	17.495581
1970.000000	17.050806
1960.000000	16.871951
1950.000000	17.249220
1940.000000	18.149797
1930.000000	19.946223
1920.000000	23.073319
1910.000000	27.155952
1900.000000	31.586372
1890.000000	35.714293
1880.000000	38.327502
1870.000000	39.498976
1860.000000	39.775408
1850.000000	39.590140
1840.000000	39.126684
1830.000000	38.741454
1820.000000	38.212740
1810.000000	37.827230
1800.000000	37.515480
1790.000000	37.177436
1780.000000	36.826089
1770.000000	36.483465
1760.000000	36.030368
1750.000000	35.733043
1740.000000	36.140541
1730.000000	37.138876
1720.000000	37.874871
1710.000000	38.126018
1700.000000	38.935872
1690.000000	40.758417
1680.000000	42.397863
1670.000000	43.031748
1660.000000	43.098251
1650.000000	42.702642
1640.000000	42.058671
1630.000000	41.269869
1620.000000	40.427332
1610.000000	39.524160
1600.000000	38.801999
1590.000000	38.113988
1580.000000	37.494195
1570.000000	37.145066
1560.000000	36.546928
1550.000000	35.546969
1540.000000	34.658874
1530.000000	34.121362
1520.000000	33.719100
1510.000000	33.399494
1500.000000	33.262214
1490.000000	33.294352
1480.000000	33.453796
1470.000000	33.859040
1460.000000	34.567626
1450.000000	35.699987
1440.000000	37.387951
1430.000000	39.909778
1420.000000	43.214768
1410.000000	46.747229
1400.000000	49.687014
1390.000000	51.539951
1380.000000	52.625114
1370.000000	53.674993
1360.000000	54.695823
1350.000000	55.708818
1340.000000	56.513599
1330.000000	57.134117
1320.000000	57.602873
1310.000000	57.863284
1300.000000	57.870081
1290.000000	57.815871
1280.000000	57.827307
1270.000000	57.893255
1260.000000	57.879383
1250.000000	57.595538
1240.000000	57.352745
1230.000000	56.997745
1220.000000	56.459621
1210.000000	55.936904
1200.000000	55.773629
1190.000000	56.229097
1180.000000	57.213138
1170.000000	58.484291
1160.000000	59.586830
1150.000000	60.451185
1140.000000	61.080684
1130.000000	61.337455
1120.000000	61.490621
1110.000000	61.574188
1100.000000	61.621895
1090.000000	61.588610
1080.000000	61.562666
1070.000000	61.457206
1060.000000	61.397807
1050.000000	61.344349
1040.000000	61.320843
1030.000000	61.280151
1020.000000	61.313110
1010.000000	61.471376
1000.000000	61.622931
990.000000	61.820011
980.000000	62.045246
970.000000	62.350488
960.000000	62.613219
950.000000	62.807433
940.000000	62.935991
930.000000	63.061394
920.000000	63.218151
910.000000	63.387803
900.000000	63.792494
890.000000	63.923811
880.000000	64.111809
870.000000	64.228585
860.000000	64.418894
850.000000	63.081169
840.000000	63.369148
830.000000	63.378837
820.000000	63.302497
810.000000	63.310697
800.000000	63.295241
790.000000	63.492904
780.000000	63.364649
770.000000	63.393860
760.000000	63.452581
750.000000	63.656627
740.000000	63.660527
730.000000	63.695564
720.000000	63.721732
710.000000	63.850368
700.000000	63.847877
690.000000	63.828999
680.000000	63.796190
670.000000	63.737501
660.000000	63.775157
650.000000	63.797401
640.000000	63.774183
630.000000	63.808139
620.000000	63.718990
610.000000	63.612644
600.000000	63.668435
590.000000	63.614335
580.000000	63.514198
570.000000	63.464019
560.000000	63.332814
550.000000	63.253959
540.000000	63.180150
530.000000	63.059652
520.000000	62.845186
510.000000	62.623732
500.000000	62.507866
490.000000	62.186156
480.000000	62.053218
470.000000	61.600311
460.000000	60.893692
450.000000	60.184393
440.000000	59.010378
430.000000	57.463129
420.000000	55.744958
410.000000	54.133201
400.000000	52.252203
390.000000	50.674712
380.000000	48.720196
370.000000	46.926721
360.000000	44.586439
350.000000	42.219030
340.000000	39.566502
330.000000	38.402037
320.000000	36.806949
310.000000	35.127185
300.000000	32.559338
290.000000	27.424525
280.000000	24.647204
270.000000	25.678853
260.000000	26.599459
250.000000	27.670424
