PE UV       SUBTECH     SPECTRUM    ASCII       PEDS        4.00        
   -1
3C-XXX-C052.Sample.Raw.asc
23/09/06
10:25:39.00
23/09/06
10:25:39.00
Administrator

250.000000
1
Lambda 750
750N8071901
PerkinElmer UV WinLab 6.0.4.0738 / 1.61.00 Lambda 900

0
0
3350/servo 860.8/2
0
0
UV/VIS
1
1
1
CommonBeamDepol,150mm sphere / downward view
0
0
0
0
Program
Program
3350/servo 860.8/2
3350/0.2 860.8/0.2
3350/0.2 860.8/0.2
0
1
 
 
 
0
 
860.8
319.2
860.8
Front
100
on
 
 
0
0
0
 
0
 
 
 
0
 
 
0
0
0
0
0
 
 
 
 
0
0


0
0
#HDR
-1
-1
#GR
nm
%R
1.0
0.0
2500.000000
-10.000000
226
8
71.330705
21.556444
#DATA
2500.000000	21.556444
2490.000000	22.601178
2480.000000	22.084216
2470.000000	22.150794
2460.000000	23.523960
2450.000000	24.792525
2440.000000	24.936341
2430.000000	24.762610
2420.000000	25.374612
2410.000000	25.682096
2400.000000	25.655017
2390.000000	25.284801
2380.000000	25.990948
2370.000000	25.454087
2360.000000	26.210756
2350.000000	26.550430
2340.000000	26.521760
2330.000000	25.923728
2320.000000	25.450971
2310.000000	25.222233
2300.000000	24.665708
2290.000000	25.209749
2280.000000	25.581080
2270.000000	26.583824
2260.000000	27.882389
2250.000000	28.720245
2240.000000	29.080384
2230.000000	28.870786
2220.000000	28.074492
2210.000000	27.656912
2200.000000	27.241652
2190.000000	27.567113
2180.000000	28.301321
2170.000000	28.925353
2160.000000	29.953022
2150.000000	30.461580
2140.000000	30.996087
2130.000000	31.005774
2120.000000	31.129398
2110.000000	31.091833
2100.000000	30.767297
2090.000000	29.797758
2080.000000	28.833965
2070.000000	27.718943
2060.000000	26.985760
2050.000000	27.308172
2040.000000	27.701294
2030.000000	27.629122
2020.000000	27.013660
2010.000000	26.092553
2000.000000	25.205663
1990.000000	24.357281
1980.000000	23.545812
1970.000000	22.917917
1960.000000	22.617904
1950.000000	23.133099
1940.000000	24.436252
1930.000000	26.502867
1920.000000	29.977583
1910.000000	34.727977
1900.000000	39.195082
1890.000000	43.376019
1880.000000	46.167168
1870.000000	47.161828
1860.000000	47.457704
1850.000000	47.182606
1840.000000	46.896797
1830.000000	46.412696
1820.000000	45.939266
1810.000000	45.504178
1800.000000	45.218530
1790.000000	44.929618
1780.000000	44.509148
1770.000000	44.130684
1760.000000	43.763535
1750.000000	43.480000
1740.000000	43.831387
1730.000000	44.848467
1720.000000	45.622465
1710.000000	45.835065
1700.000000	46.699705
1690.000000	48.468241
1680.000000	50.081759
1670.000000	50.719673
1660.000000	50.829675
1650.000000	50.387652
1640.000000	49.727772
1630.000000	48.979111
1620.000000	48.125985
1610.000000	47.244801
1600.000000	46.519606
1590.000000	45.867960
1580.000000	45.258877
1570.000000	44.888390
1560.000000	44.303429
1550.000000	43.340890
1540.000000	42.401858
1530.000000	41.848042
1520.000000	41.435614
1510.000000	41.162057
1500.000000	41.039527
1490.000000	41.115912
1480.000000	41.281680
1470.000000	41.683252
1460.000000	42.425010
1450.000000	43.569351
1440.000000	45.291480
1430.000000	47.798321
1420.000000	51.047128
1410.000000	54.466416
1400.000000	57.292387
1390.000000	59.045982
1380.000000	60.094468
1370.000000	61.066189
1360.000000	62.051458
1350.000000	63.004270
1340.000000	63.792050
1330.000000	64.427890
1320.000000	64.867849
1310.000000	65.106130
1300.000000	65.102928
1290.000000	65.098770
1280.000000	65.137252
1270.000000	65.200192
1260.000000	65.150522
1250.000000	64.916331
1240.000000	64.674094
1230.000000	64.343269
1220.000000	63.799261
1210.000000	63.337843
1200.000000	63.208594
1190.000000	63.651696
1180.000000	64.625813
1170.000000	65.813166
1160.000000	66.833804
1150.000000	67.654906
1140.000000	68.245757
1130.000000	68.482095
1120.000000	68.633128
1110.000000	68.689318
1100.000000	68.745478
1090.000000	68.736533
1080.000000	68.652689
1070.000000	68.581787
1060.000000	68.500824
1050.000000	68.444128
1040.000000	68.421911
1030.000000	68.377032
1020.000000	68.421587
1010.000000	68.592339
1000.000000	68.673362
990.000000	68.880659
980.000000	69.157680
970.000000	69.428018
960.000000	69.745940
950.000000	69.897698
940.000000	70.001992
930.000000	70.095567
920.000000	70.294881
910.000000	70.403431
900.000000	70.671550
890.000000	70.899292
880.000000	71.071939
870.000000	71.267036
860.000000	71.330705
850.000000	70.207725
840.000000	70.354496
830.000000	70.485919
820.000000	70.523427
810.000000	70.239609
800.000000	70.655846
790.000000	70.517736
780.000000	70.537954
770.000000	70.655461
760.000000	70.735732
750.000000	70.768179
740.000000	70.828020
730.000000	70.663150
720.000000	70.855347
710.000000	70.886845
700.000000	70.878972
690.000000	71.104385
680.000000	70.991554
670.000000	70.909514
660.000000	70.982255
650.000000	70.890083
640.000000	70.871246
630.000000	70.911142
620.000000	70.923004
610.000000	70.750930
600.000000	70.801267
590.000000	70.765622
580.000000	70.672966
570.000000	70.660605
560.000000	70.627077
550.000000	70.521360
540.000000	70.378330
530.000000	70.249513
520.000000	70.104257
510.000000	69.877325
500.000000	69.760190
490.000000	69.447238
480.000000	69.370763
470.000000	68.855808
460.000000	68.180658
450.000000	67.519028
440.000000	66.416533
430.000000	64.995224
420.000000	63.310081
410.000000	61.818843
400.000000	60.451886
390.000000	58.887557
380.000000	57.265861
370.000000	55.397158
360.000000	53.029717
350.000000	50.456423
340.000000	48.227405
330.000000	46.289920
320.000000	45.287319
310.000000	43.713202
300.000000	38.860799
290.000000	30.960422
280.000000	26.744015
270.000000	26.951081
260.000000	27.930343
250.000000	29.033315
