PE UV       SUBTECH     SPECTRUM    ASCII       PEDS        4.00        
   -1
3C-XXX-C070.Sample.Raw.asc
23/09/06
11:26:55.00
23/09/06
11:26:55.00
Administrator

250.000000
1
Lambda 750
750N8071901
PerkinElmer UV WinLab 6.0.4.0738 / 1.61.00 Lambda 900

0
0
3350/servo 860.8/2
0
0
UV/VIS
1
1
1
CommonBeamDepol,150mm sphere / downward view
0
0
0
0
Program
Program
3350/servo 860.8/2
3350/0.2 860.8/0.2
3350/0.2 860.8/0.2
0
1
 
 
 
0
 
860.8
319.2
860.8
Front
100
on
 
 
0
0
0
 
0
 
 
 
0
 
 
0
0
0
0
0
 
 
 
 
0
0


0
0
#HDR
-1
-1
#GR
nm
%R
1.0
0.0
2500.000000
-10.000000
226
8
69.668202
19.879590
#DATA
2500.000000	19.879590
2490.000000	20.740002
2480.000000	20.085957
2470.000000	21.400363
2460.000000	21.780800
2450.000000	22.949816
2440.000000	23.031073
2430.000000	23.816115
2420.000000	23.812553
2410.000000	23.833577
2400.000000	23.865837
2390.000000	24.209754
2380.000000	24.691043
2370.000000	24.229817
2360.000000	24.806114
2350.000000	24.945293
2340.000000	24.763264
2330.000000	24.276359
2320.000000	23.864922
2310.000000	23.390250
2300.000000	23.286870
2290.000000	23.527371
2280.000000	23.811286
2270.000000	24.798671
2260.000000	26.179005
2250.000000	27.049931
2240.000000	27.591741
2230.000000	27.260215
2220.000000	26.512383
2210.000000	26.032289
2200.000000	25.571968
2190.000000	25.784634
2180.000000	26.424737
2170.000000	27.247676
2160.000000	28.179534
2150.000000	28.782034
2140.000000	29.154456
2130.000000	29.089239
2120.000000	29.227138
2110.000000	29.220636
2100.000000	28.830558
2090.000000	28.157920
2080.000000	26.972455
2070.000000	25.932685
2060.000000	25.284443
2050.000000	25.462754
2040.000000	25.914398
2030.000000	25.878256
2020.000000	25.177346
2010.000000	24.376131
2000.000000	23.535908
1990.000000	22.748765
1980.000000	22.047450
1970.000000	21.461959
1960.000000	21.252586
1950.000000	21.564868
1940.000000	22.914146
1930.000000	24.824571
1920.000000	28.159982
1910.000000	32.789372
1900.000000	37.263095
1890.000000	41.445779
1880.000000	44.173831
1870.000000	45.191890
1860.000000	45.511461
1850.000000	45.176514
1840.000000	44.796159
1830.000000	44.353337
1820.000000	43.908391
1810.000000	43.471601
1800.000000	43.181379
1790.000000	42.846510
1780.000000	42.417336
1770.000000	42.067315
1760.000000	41.710406
1750.000000	41.419044
1740.000000	41.760987
1730.000000	42.833445
1720.000000	43.525659
1710.000000	43.798938
1700.000000	44.666264
1690.000000	46.506427
1680.000000	48.116881
1670.000000	48.735232
1660.000000	48.795343
1650.000000	48.337301
1640.000000	47.684019
1630.000000	46.924694
1620.000000	46.031057
1610.000000	45.155981
1600.000000	44.419523
1590.000000	43.732125
1580.000000	43.106318
1570.000000	42.742656
1560.000000	42.165927
1550.000000	41.145616
1540.000000	40.235267
1530.000000	39.668486
1520.000000	39.289073
1510.000000	38.982666
1500.000000	38.845894
1490.000000	38.929599
1480.000000	39.068349
1470.000000	39.457913
1460.000000	40.190963
1450.000000	41.369861
1440.000000	43.077284
1430.000000	45.635374
1420.000000	48.945747
1410.000000	52.472287
1400.000000	55.364528
1390.000000	57.172308
1380.000000	58.237944
1370.000000	59.295709
1360.000000	60.308630
1350.000000	61.300361
1340.000000	62.065237
1330.000000	62.679110
1320.000000	63.153306
1310.000000	63.389811
1300.000000	63.399741
1290.000000	63.369606
1280.000000	63.405939
1270.000000	63.454214
1260.000000	63.403720
1250.000000	63.119254
1240.000000	62.880089
1230.000000	62.539827
1220.000000	61.981225
1210.000000	61.488556
1200.000000	61.347719
1190.000000	61.802139
1180.000000	62.814800
1170.000000	64.049450
1160.000000	65.102086
1150.000000	65.967850
1140.000000	66.579896
1130.000000	66.824552
1120.000000	66.933732
1110.000000	67.013707
1100.000000	67.062154
1090.000000	67.057302
1080.000000	66.973223
1070.000000	66.868174
1060.000000	66.759945
1050.000000	66.712873
1040.000000	66.699344
1030.000000	66.666765
1020.000000	66.726448
1010.000000	66.871810
1000.000000	66.963629
990.000000	67.148603
980.000000	67.446797
970.000000	67.705111
960.000000	68.004520
950.000000	68.178875
940.000000	68.276469
930.000000	68.388474
920.000000	68.496028
910.000000	68.592964
900.000000	68.880022
890.000000	69.152378
880.000000	69.269564
870.000000	69.668202
860.000000	69.643718
850.000000	68.254431
840.000000	68.491544
830.000000	68.466442
820.000000	68.340720
810.000000	68.286567
800.000000	68.508045
790.000000	68.440154
780.000000	68.511324
770.000000	68.457815
760.000000	68.606612
750.000000	68.545396
740.000000	68.732454
730.000000	68.693427
720.000000	68.744499
710.000000	68.824598
700.000000	68.744544
690.000000	68.853605
680.000000	68.773057
670.000000	68.703592
660.000000	68.773715
650.000000	68.614734
640.000000	68.536926
630.000000	68.576826
620.000000	68.585548
610.000000	68.429882
600.000000	68.337076
590.000000	68.333300
580.000000	68.185168
570.000000	68.155018
560.000000	67.998918
550.000000	67.891201
540.000000	67.816796
530.000000	67.628321
520.000000	67.411117
510.000000	67.129056
500.000000	67.034768
490.000000	66.536761
480.000000	66.482120
470.000000	65.849581
460.000000	65.048987
450.000000	64.396527
440.000000	63.127464
430.000000	61.603212
420.000000	59.772702
410.000000	58.107678
400.000000	56.646588
390.000000	54.977613
380.000000	53.377349
370.000000	51.279416
360.000000	48.824602
350.000000	46.394092
340.000000	44.206400
330.000000	42.213856
320.000000	41.476595
310.000000	39.972780
300.000000	35.528907
290.000000	28.601847
280.000000	24.799171
270.000000	25.078837
260.000000	25.803128
250.000000	27.099080
