PE UV       SUBTECH     SPECTRUM    ASCII       PEDS        4.00        
   -1
3C-XXX-C023.Sample.Raw.asc
23/09/06
08:50:30.00
23/09/06
08:50:30.00
Administrator

250.000000
1
Lambda 750
750N8071901
PerkinElmer UV WinLab 6.0.4.0738 / 1.61.00 Lambda 900

0
0
3350/servo 860.8/2
0
0
UV/VIS
1
1
1
CommonBeamDepol,150mm sphere / downward view
0
0
0
0
Program
Program
3350/servo 860.8/2
3350/0.2 860.8/0.2
3350/0.2 860.8/0.2
0
1
 
 
 
0
 
860.8
319.2
860.8
Front
100
on
 
 
0
0
0
 
0
 
 
 
0
 
 
0
0
0
0
0
 
 
 
 
0
0


0
0
#HDR
-1
-1
#GR
nm
%R
1.0
0.0
2500.000000
-10.000000
226
8
68.885545
17.681364
#DATA
2500.000000	17.882088
2490.000000	17.681364
2480.000000	18.807901
2470.000000	19.010323
2460.000000	18.814417
2450.000000	19.879850
2440.000000	20.603874
2430.000000	20.563300
2420.000000	21.281112
2410.000000	20.979071
2400.000000	20.970339
2390.000000	21.516263
2380.000000	21.602644
2370.000000	21.287283
2360.000000	21.580846
2350.000000	22.283058
2340.000000	22.062082
2330.000000	21.333584
2320.000000	21.207883
2310.000000	20.763796
2300.000000	20.189094
2290.000000	20.913128
2280.000000	21.047014
2270.000000	22.115538
2260.000000	23.496412
2250.000000	24.027273
2240.000000	24.654530
2230.000000	24.248327
2220.000000	23.767852
2210.000000	23.067876
2200.000000	22.791950
2190.000000	23.026181
2180.000000	23.853836
2170.000000	24.384532
2160.000000	25.294753
2150.000000	25.630899
2140.000000	26.135369
2130.000000	26.279427
2120.000000	26.311569
2110.000000	26.226029
2100.000000	26.016459
2090.000000	25.335253
2080.000000	24.228872
2070.000000	23.124170
2060.000000	22.441078
2050.000000	22.665004
2040.000000	23.148373
2030.000000	22.927925
2020.000000	22.438575
2010.000000	21.680347
2000.000000	20.725034
1990.000000	20.062813
1980.000000	19.358773
1970.000000	18.802738
1960.000000	18.621263
1950.000000	18.962019
1940.000000	20.114091
1930.000000	22.079857
1920.000000	25.386240
1910.000000	30.087495
1900.000000	34.668587
1890.000000	39.019616
1880.000000	41.840874
1870.000000	42.932372
1860.000000	43.260093
1850.000000	42.910663
1840.000000	42.613732
1830.000000	42.076701
1820.000000	41.591669
1810.000000	41.117749
1800.000000	40.799700
1790.000000	40.490562
1780.000000	40.007481
1770.000000	39.616400
1760.000000	39.211278
1750.000000	38.933374
1740.000000	39.241884
1730.000000	40.357903
1720.000000	41.103524
1710.000000	41.369006
1700.000000	42.279602
1690.000000	44.253150
1680.000000	45.944824
1670.000000	46.637123
1660.000000	46.708245
1650.000000	46.204528
1640.000000	45.492725
1630.000000	44.680686
1620.000000	43.734318
1610.000000	42.813715
1600.000000	42.017462
1590.000000	41.311621
1580.000000	40.634771
1570.000000	40.207039
1560.000000	39.634186
1550.000000	38.553934
1540.000000	37.583680
1530.000000	37.031582
1520.000000	36.612409
1510.000000	36.316966
1500.000000	36.164595
1490.000000	36.222783
1480.000000	36.370028
1470.000000	36.761015
1460.000000	37.562087
1450.000000	38.798029
1440.000000	40.625200
1430.000000	43.353183
1420.000000	46.860041
1410.000000	50.626883
1400.000000	53.765966
1390.000000	55.731872
1380.000000	56.885690
1370.000000	58.018411
1360.000000	59.162201
1350.000000	60.256588
1340.000000	61.139173
1330.000000	61.939615
1320.000000	62.541918
1310.000000	62.880839
1300.000000	62.902808
1290.000000	62.881723
1280.000000	62.844553
1270.000000	62.895679
1260.000000	62.831453
1250.000000	62.543142
1240.000000	62.233139
1230.000000	61.828254
1220.000000	61.187406
1210.000000	60.630698
1200.000000	60.471062
1190.000000	60.975254
1180.000000	62.066839
1170.000000	63.480058
1160.000000	64.670491
1150.000000	65.619698
1140.000000	66.287132
1130.000000	66.542908
1120.000000	66.672980
1110.000000	66.748795
1100.000000	66.787655
1090.000000	66.742983
1080.000000	66.601947
1070.000000	66.460086
1060.000000	66.307521
1050.000000	66.211567
1040.000000	66.122915
1030.000000	66.008523
1020.000000	66.013607
1010.000000	66.169361
1000.000000	66.251037
990.000000	66.479810
980.000000	66.744904
970.000000	67.041422
960.000000	67.356058
950.000000	67.521729
940.000000	67.635543
930.000000	67.691063
920.000000	67.803898
910.000000	67.956073
900.000000	68.296875
890.000000	68.444904
880.000000	68.637029
870.000000	68.869625
860.000000	68.885545
850.000000	68.705247
840.000000	68.724391
830.000000	68.777778
820.000000	68.483433
810.000000	68.483755
800.000000	68.617535
790.000000	68.494479
780.000000	68.607323
770.000000	68.617949
760.000000	68.690297
750.000000	68.731293
740.000000	68.787772
730.000000	68.714400
720.000000	68.735689
710.000000	68.805635
700.000000	68.792950
690.000000	68.825442
680.000000	68.642067
670.000000	68.611046
660.000000	68.620868
650.000000	68.517557
640.000000	68.533249
630.000000	68.577298
620.000000	68.403225
610.000000	68.274054
600.000000	68.174041
590.000000	68.133407
580.000000	67.962302
570.000000	67.959024
560.000000	67.817893
550.000000	67.652174
540.000000	67.491799
530.000000	67.204895
520.000000	67.026764
510.000000	66.745859
500.000000	66.445366
490.000000	66.103860
480.000000	65.967897
470.000000	65.281507
460.000000	64.366826
450.000000	63.584308
440.000000	62.209943
430.000000	60.541492
420.000000	58.585551
410.000000	56.695393
400.000000	54.918185
390.000000	53.089597
380.000000	51.105200
370.000000	48.909642
360.000000	46.246977
350.000000	43.902412
340.000000	41.718277
330.000000	39.272465
320.000000	38.357351
310.000000	37.202575
300.000000	32.362267
290.000000	26.160756
280.000000	23.167028
270.000000	23.762470
260.000000	24.738278
250.000000	25.808419
