PE UV       SUBTECH     SPECTRUM    ASCII       PEDS        4.00        
   -1
3C-XXX-C004.Sample.Raw.asc
23/09/05
15:00:00.00
23/09/05
15:00:00.00
Administrator

250.000000
1
Lambda 750
750N8071901
PerkinElmer UV WinLab 6.0.4.0738 / 1.61.00 Lambda 900

0
0
3350/servo 860.8/2
0
0
UV/VIS
1
1
1
CommonBeamDepol,150mm sphere / downward view
0
0
0
0
Program
Program
3350/servo 860.8/2
3350/0.2 860.8/0.2
3350/0.2 860.8/0.2
0
1
 
 
 
0
 
860.8
319.2
860.8
Front
100
on
 
 
0
0
0
 
0
 
 
 
0
 
 
0
0
0
0
0
 
 
 
 
0
0


0
0
#HDR
-1
-1
#GR
nm
%R
1.0
0.0
2500.000000
-10.000000
226
8
66.657067
15.363746
#DATA
2500.000000	15.363746
2490.000000	16.948690
2480.000000	16.295839
2470.000000	17.729303
2460.000000	17.672235
2450.000000	18.438149
2440.000000	18.602876
2430.000000	19.325129
2420.000000	19.887772
2410.000000	20.452837
2400.000000	19.916214
2390.000000	19.685376
2380.000000	19.878840
2370.000000	20.131129
2360.000000	20.041782
2350.000000	20.329219
2340.000000	20.651669
2330.000000	20.182216
2320.000000	19.699439
2310.000000	19.461392
2300.000000	19.046478
2290.000000	19.219162
2280.000000	19.899483
2270.000000	20.923999
2260.000000	22.322302
2250.000000	22.691846
2240.000000	23.169199
2230.000000	22.791688
2220.000000	22.404482
2210.000000	21.921036
2200.000000	21.623216
2190.000000	21.363121
2180.000000	22.145127
2170.000000	22.577008
2160.000000	23.565561
2150.000000	24.135716
2140.000000	24.779846
2130.000000	24.784839
2120.000000	24.691509
2110.000000	24.614901
2100.000000	24.304097
2090.000000	23.719544
2080.000000	22.651700
2070.000000	21.587955
2060.000000	21.004760
2050.000000	21.162337
2040.000000	21.636029
2030.000000	21.559196
2020.000000	20.928435
2010.000000	20.304461
2000.000000	19.505613
1990.000000	18.746900
1980.000000	18.019589
1970.000000	17.528107
1960.000000	17.380614
1950.000000	17.805783
1940.000000	18.838058
1930.000000	20.611001
1920.000000	23.727816
1910.000000	28.111820
1900.000000	32.674819
1890.000000	36.920715
1880.000000	39.569350
1870.000000	40.899716
1860.000000	41.033838
1850.000000	40.871272
1840.000000	40.439171
1830.000000	40.052796
1820.000000	39.470221
1810.000000	39.123633
1800.000000	38.798863
1790.000000	38.438844
1780.000000	38.091924
1770.000000	37.682845
1760.000000	37.266082
1750.000000	36.915986
1740.000000	37.301540
1730.000000	38.398648
1720.000000	39.131770
1710.000000	39.381635
1700.000000	40.238700
1690.000000	42.102127
1680.000000	43.804407
1670.000000	44.476560
1660.000000	44.544624
1650.000000	44.103364
1640.000000	43.424359
1630.000000	42.624675
1620.000000	41.761430
1610.000000	40.813962
1600.000000	40.074735
1590.000000	39.369456
1580.000000	38.712944
1570.000000	38.292513
1560.000000	37.728406
1550.000000	36.685153
1540.000000	35.773279
1530.000000	35.187727
1520.000000	34.804126
1510.000000	34.504750
1500.000000	34.356543
1490.000000	34.375128
1480.000000	34.535710
1470.000000	34.936491
1460.000000	35.674728
1450.000000	36.881803
1440.000000	38.658051
1430.000000	41.291106
1420.000000	44.703519
1410.000000	48.340718
1400.000000	51.407469
1390.000000	53.345559
1380.000000	54.484997
1370.000000	55.552231
1360.000000	56.657047
1350.000000	57.724726
1340.000000	58.571096
1330.000000	59.258306
1320.000000	59.801338
1310.000000	60.106731
1300.000000	60.138410
1290.000000	60.077812
1280.000000	60.088843
1270.000000	60.167419
1260.000000	60.146568
1250.000000	59.824244
1240.000000	59.562824
1230.000000	59.167893
1220.000000	58.580115
1210.000000	58.052457
1200.000000	57.918102
1190.000000	58.369722
1180.000000	59.409481
1170.000000	60.763815
1160.000000	61.946877
1150.000000	62.859769
1140.000000	63.529939
1130.000000	63.784648
1120.000000	63.937351
1110.000000	64.025951
1100.000000	64.070936
1090.000000	64.015748
1080.000000	63.945052
1070.000000	63.837561
1060.000000	63.755531
1050.000000	63.679115
1040.000000	63.645300
1030.000000	63.586032
1020.000000	63.622220
1010.000000	63.774950
1000.000000	63.908027
990.000000	64.116476
980.000000	64.337937
970.000000	64.703722
960.000000	64.989129
950.000000	65.197897
940.000000	65.285054
930.000000	65.396077
920.000000	65.550606
910.000000	65.727255
900.000000	66.077349
890.000000	66.179123
880.000000	66.412736
870.000000	66.656819
860.000000	66.657067
850.000000	65.967670
840.000000	66.198835
830.000000	66.073305
820.000000	66.025048
810.000000	66.025932
800.000000	66.049387
790.000000	66.010743
780.000000	66.132429
770.000000	66.244592
760.000000	66.271675
750.000000	66.439265
740.000000	66.263279
730.000000	66.447776
720.000000	66.402004
710.000000	66.646750
700.000000	66.534480
690.000000	66.626891
680.000000	66.472189
670.000000	66.613175
660.000000	66.586642
650.000000	66.542482
640.000000	66.602619
630.000000	66.621332
620.000000	66.581716
610.000000	66.406230
600.000000	66.470366
590.000000	66.407980
580.000000	66.303658
570.000000	66.269401
560.000000	66.169471
550.000000	66.014951
540.000000	65.880199
530.000000	65.742472
520.000000	65.533066
510.000000	65.363572
500.000000	65.165384
490.000000	64.888843
480.000000	64.643797
470.000000	64.162281
460.000000	63.416875
450.000000	62.639241
440.000000	61.564939
430.000000	59.894934
420.000000	58.036470
410.000000	56.280481
400.000000	54.497483
390.000000	52.745871
380.000000	50.703770
370.000000	48.803717
360.000000	46.162218
350.000000	43.610377
340.000000	41.431092
330.000000	39.459459
320.000000	37.799901
310.000000	35.973760
300.000000	34.419584
290.000000	28.277432
280.000000	25.051389
270.000000	25.726889
260.000000	26.583707
250.000000	27.955955
