PE UV       SUBTECH     SPECTRUM    ASCII       PEDS        4.00        
   -1
RTmsfkat101.Sample.asc
18/03/14
14:36:52.00
18/03/14
14:36:52.00
Administrator

200.000000
1
Lambda 750
750N8071901
PerkinElmer UV WinLab 6.0.4.0738 / 1.61.00 Lambda 900

0
0
3350/servo 860.8/2
0
0
UV/VIS
1
1
1
CommonBeamDepol,150mm sphere / downward view
0
0
0
0
Program
Program
3350/servo 860.8/2
3350/0.2 860.8/0.2
3350/0.2 860.8/0.2
0
1
 
 
 
0
 
860.8
319.2
860.8
Front
100
on
 
 
0
0
0
 
0
 
 
 
0
 
 
0
0
0
0
0
 
 
 
 
0
0


0
0
#HDR
-1
-1
#GR
nm
%R
1.0
0.0
2350.000000
-1.000000
2151
8
46.074626
6.541354
#DATA
2350.000000	25.129215
2349.000000	25.304505
2348.000000	25.103182
2347.000000	25.619783
2346.000000	25.513438
2345.000000	25.723613
2344.000000	25.382264
2343.000000	25.027275
2342.000000	25.086301
2341.000000	25.473239
2340.000000	25.618742
2339.000000	25.973633
2338.000000	25.664467
2337.000000	25.891903
2336.000000	25.823627
2335.000000	25.993384
2334.000000	26.265619
2333.000000	26.559597
2332.000000	26.177879
2331.000000	25.976260
2330.000000	25.883956
2329.000000	25.973196
2328.000000	26.174058
2327.000000	26.095458
2326.000000	26.156985
2325.000000	26.258910
2324.000000	26.046870
2323.000000	25.782889
2322.000000	25.761660
2321.000000	25.711990
2320.000000	25.804037
2319.000000	25.877046
2318.000000	25.864633
2317.000000	25.762774
2316.000000	25.708488
2315.000000	25.593276
2314.000000	25.481754
2313.000000	25.349519
2312.000000	25.428636
2311.000000	25.572431
2310.000000	25.454400
2309.000000	25.756528
2308.000000	25.430663
2307.000000	25.270808
2306.000000	25.315475
2305.000000	25.408602
2304.000000	25.272353
2303.000000	25.238184
2302.000000	25.355638
2301.000000	25.337399
2300.000000	25.064366
2299.000000	25.017029
2298.000000	25.049342
2297.000000	25.105103
2296.000000	25.156017
2295.000000	24.966071
2294.000000	24.974362
2293.000000	24.961838
2292.000000	24.848048
2291.000000	24.837679
2290.000000	24.853251
2289.000000	24.943498
2288.000000	24.925257
2287.000000	25.009207
2286.000000	24.940147
2285.000000	24.820730
2284.000000	24.823295
2283.000000	24.757044
2282.000000	24.736795
2281.000000	24.959467
2280.000000	24.863770
2279.000000	24.945947
2278.000000	24.958705
2277.000000	24.878500
2276.000000	24.882769
2275.000000	24.914469
2274.000000	24.851929
2273.000000	24.916716
2272.000000	24.922236
2271.000000	24.911033
2270.000000	24.896170
2269.000000	24.823896
2268.000000	24.906072
2267.000000	25.223680
2266.000000	25.315970
2265.000000	25.346836
2264.000000	25.363325
2263.000000	25.408129
2262.000000	25.449259
2261.000000	25.428356
2260.000000	25.560169
2259.000000	25.766899
2258.000000	25.805509
2257.000000	25.845845
2256.000000	25.962237
2255.000000	26.094283
2254.000000	26.237132
2253.000000	26.264632
2252.000000	26.346764
2251.000000	26.456913
2250.000000	26.563523
2249.000000	26.839859
2248.000000	26.917247
2247.000000	26.815459
2246.000000	26.803253
2245.000000	26.996141
2244.000000	27.240071
2243.000000	27.434087
2242.000000	27.478689
2241.000000	27.433594
2240.000000	27.498464
2239.000000	27.596226
2238.000000	27.591410
2237.000000	27.626203
2236.000000	27.607017
2235.000000	27.614746
2234.000000	27.719423
2233.000000	27.713636
2232.000000	27.727014
2231.000000	27.803607
2230.000000	27.924814
2229.000000	28.012723
2228.000000	28.022577
2227.000000	27.944978
2226.000000	27.801172
2225.000000	27.809537
2224.000000	27.850886
2223.000000	27.822037
2222.000000	27.912543
2221.000000	27.950835
2220.000000	27.887331
2219.000000	27.856941
2218.000000	27.807479
2217.000000	27.849827
2216.000000	27.870751
2215.000000	27.902293
2214.000000	27.950154
2213.000000	27.886367
2212.000000	27.799668
2211.000000	27.713508
2210.000000	27.653306
2209.000000	27.704439
2208.000000	27.626983
2207.000000	27.635713
2206.000000	27.682513
2205.000000	27.597772
2204.000000	27.550263
2203.000000	27.472519
2202.000000	27.434127
2201.000000	27.358183
2200.000000	27.321688
2199.000000	27.313037
2198.000000	27.335657
2197.000000	27.337056
2196.000000	27.186014
2195.000000	27.218749
2194.000000	27.170769
2193.000000	27.152503
2192.000000	27.205554
2191.000000	27.108275
2190.000000	27.123289
2189.000000	27.175539
2188.000000	27.070532
2187.000000	27.022348
2186.000000	27.087532
2185.000000	26.986533
2184.000000	27.013396
2183.000000	27.155261
2182.000000	27.097884
2181.000000	27.161078
2180.000000	27.210950
2179.000000	27.132919
2178.000000	27.079949
2177.000000	27.024536
2176.000000	26.975890
2175.000000	27.016900
2174.000000	27.061653
2173.000000	27.123458
2172.000000	27.121582
2171.000000	27.162136
2170.000000	27.269189
2169.000000	27.309193
2168.000000	27.358241
2167.000000	27.364499
2166.000000	27.371905
2165.000000	27.357186
2164.000000	27.451830
2163.000000	27.666947
2162.000000	27.820339
2161.000000	27.629127
2160.000000	27.840185
2159.000000	27.922269
2158.000000	27.874005
2157.000000	28.029996
2156.000000	28.178763
2155.000000	28.220084
2154.000000	28.332102
2153.000000	28.482571
2152.000000	28.298200
2151.000000	28.377342
2150.000000	28.428666
2149.000000	28.506212
2148.000000	28.711018
2147.000000	28.670159
2146.000000	28.692954
2145.000000	28.780607
2144.000000	28.826923
2143.000000	28.877624
2142.000000	28.941210
2141.000000	29.277819
2140.000000	29.015653
2139.000000	29.165556
2138.000000	29.349972
2137.000000	29.265179
2136.000000	29.360685
2135.000000	29.416700
2134.000000	29.435482
2133.000000	29.288322
2132.000000	29.554255
2131.000000	29.730209
2130.000000	29.691632
2129.000000	29.649827
2128.000000	29.646854
2127.000000	29.587543
2126.000000	29.799794
2125.000000	29.728567
2124.000000	29.749627
2123.000000	29.799145
2122.000000	29.880871
2121.000000	29.853960
2120.000000	29.829012
2119.000000	29.870953
2118.000000	29.826346
2117.000000	29.875865
2116.000000	29.883545
2115.000000	29.981430
2114.000000	30.058059
2113.000000	29.868056
2112.000000	29.945721
2111.000000	29.868887
2110.000000	29.773373
2109.000000	29.995698
2108.000000	29.933807
2107.000000	29.999768
2106.000000	30.036440
2105.000000	29.962162
2104.000000	30.039568
2103.000000	30.029791
2102.000000	29.964835
2101.000000	29.979809
2100.000000	30.067934
2099.000000	30.142136
2098.000000	29.972508
2097.000000	29.983948
2096.000000	30.026123
2095.000000	30.035670
2094.000000	30.014945
2093.000000	29.971494
2092.000000	30.060732
2091.000000	29.958655
2090.000000	29.977244
2089.000000	29.918831
2088.000000	29.988538
2087.000000	30.030870
2086.000000	29.924075
2085.000000	29.978580
2084.000000	29.874333
2083.000000	29.860978
2082.000000	29.766779
2081.000000	29.826228
2080.000000	29.763302
2079.000000	29.752019
2078.000000	29.648922
2077.000000	29.644967
2076.000000	29.568696
2075.000000	29.516336
2074.000000	29.461489
2073.000000	29.420984
2072.000000	29.341163
2071.000000	29.285308
2070.000000	29.299995
2069.000000	29.201323
2068.000000	29.102502
2067.000000	29.032594
2066.000000	28.953711
2065.000000	28.917037
2064.000000	28.844079
2063.000000	28.701481
2062.000000	28.641637
2061.000000	28.531083
2060.000000	28.478743
2059.000000	28.464354
2058.000000	28.407742
2057.000000	28.256757
2056.000000	28.215509
2055.000000	28.183932
2054.000000	28.112397
2053.000000	28.063736
2052.000000	28.008365
2051.000000	27.934823
2050.000000	27.886804
2049.000000	27.837005
2048.000000	27.731487
2047.000000	27.721164
2046.000000	27.706153
2045.000000	27.681225
2044.000000	27.680668
2043.000000	27.668470
2042.000000	27.688030
2041.000000	27.703360
2040.000000	27.694595
2039.000000	27.676075
2038.000000	27.731033
2037.000000	27.769712
2036.000000	27.782676
2035.000000	27.840112
2034.000000	27.861664
2033.000000	27.879275
2032.000000	27.979675
2031.000000	28.019785
2030.000000	28.059767
2029.000000	28.108857
2028.000000	28.164816
2027.000000	28.239347
2026.000000	28.264500
2025.000000	28.275252
2024.000000	28.269005
2023.000000	28.310464
2022.000000	28.345012
2021.000000	28.355242
2020.000000	28.390386
2019.000000	28.417448
2018.000000	28.415029
2017.000000	28.443564
2016.000000	28.407852
2015.000000	28.343424
2014.000000	28.347888
2013.000000	28.336229
2012.000000	28.287948
2011.000000	28.317164
2010.000000	28.309145
2009.000000	28.247997
2008.000000	28.176949
2007.000000	28.107206
2006.000000	28.077399
2005.000000	28.063309
2004.000000	27.980246
2003.000000	27.909178
2002.000000	27.898754
2001.000000	27.838003
2000.000000	27.769287
1999.000000	27.749773
1998.000000	27.713946
1997.000000	27.651737
1996.000000	27.616265
1995.000000	27.557191
1994.000000	27.462777
1993.000000	27.388821
1992.000000	27.325623
1991.000000	27.303265
1990.000000	27.254279
1989.000000	27.200637
1988.000000	27.146293
1987.000000	27.101805
1986.000000	26.999398
1985.000000	26.953572
1984.000000	26.914976
1983.000000	26.884880
1982.000000	26.845481
1981.000000	26.812537
1980.000000	26.724902
1979.000000	26.704437
1978.000000	26.658612
1977.000000	26.585332
1976.000000	26.523295
1975.000000	26.525513
1974.000000	26.463102
1973.000000	26.420998
1972.000000	26.366223
1971.000000	26.311621
1970.000000	26.262374
1969.000000	26.207145
1968.000000	26.200968
1967.000000	26.173411
1966.000000	26.117754
1965.000000	26.093418
1964.000000	26.058236
1963.000000	26.010146
1962.000000	25.959759
1961.000000	25.921861
1960.000000	25.890204
1959.000000	25.869958
1958.000000	25.821849
1957.000000	25.815500
1956.000000	25.725051
1955.000000	25.663264
1954.000000	25.674293
1953.000000	25.671531
1952.000000	25.635254
1951.000000	25.673255
1950.000000	25.601181
1949.000000	25.607363
1948.000000	25.609746
1947.000000	25.600608
1946.000000	25.578723
1945.000000	25.557560
1944.000000	25.552867
1943.000000	25.659075
1942.000000	25.621400
1941.000000	25.609092
1940.000000	25.708610
1939.000000	25.696546
1938.000000	25.675177
1937.000000	25.742167
1936.000000	25.735358
1935.000000	25.751628
1934.000000	25.806070
1933.000000	25.978199
1932.000000	26.024614
1931.000000	25.989351
1930.000000	26.080145
1929.000000	26.162605
1928.000000	26.246112
1927.000000	26.297617
1926.000000	26.426190
1925.000000	26.499869
1924.000000	26.691760
1923.000000	26.753961
1922.000000	26.903276
1921.000000	27.102102
1920.000000	27.142172
1919.000000	27.242291
1918.000000	27.512363
1917.000000	27.595992
1916.000000	27.689231
1915.000000	27.879889
1914.000000	28.048525
1913.000000	28.344775
1912.000000	28.424650
1911.000000	28.669721
1910.000000	28.833758
1909.000000	29.045782
1908.000000	29.259551
1907.000000	29.568146
1906.000000	29.735530
1905.000000	29.966535
1904.000000	30.231134
1903.000000	30.568382
1902.000000	30.805508
1901.000000	31.113468
1900.000000	31.305400
1899.000000	31.613990
1898.000000	31.967016
1897.000000	32.219925
1896.000000	32.509722
1895.000000	32.775760
1894.000000	33.107728
1893.000000	33.339508
1892.000000	33.636676
1891.000000	33.963013
1890.000000	34.193301
1889.000000	34.470245
1888.000000	34.660464
1887.000000	34.952638
1886.000000	35.258847
1885.000000	35.537973
1884.000000	35.804831
1883.000000	36.055991
1882.000000	36.270018
1881.000000	36.465259
1880.000000	36.677518
1879.000000	36.849523
1878.000000	37.089141
1877.000000	37.266783
1876.000000	37.374146
1875.000000	37.583640
1874.000000	37.743357
1873.000000	37.831017
1872.000000	37.992837
1871.000000	38.149176
1870.000000	38.250071
1869.000000	38.319952
1868.000000	38.421461
1867.000000	38.505747
1866.000000	38.558238
1865.000000	38.636936
1864.000000	38.735633
1863.000000	38.772693
1862.000000	38.831623
1861.000000	38.820573
1860.000000	38.904189
1859.000000	38.934591
1858.000000	38.969011
1857.000000	39.047890
1856.000000	39.064161
1855.000000	39.091987
1854.000000	39.149620
1853.000000	39.159196
1852.000000	39.159372
1851.000000	39.200309
1850.000000	39.211661
1849.000000	39.182700
1848.000000	39.192294
1847.000000	39.178709
1846.000000	39.181892
1845.000000	39.193427
1844.000000	39.188889
1843.000000	39.183780
1842.000000	39.166609
1841.000000	39.137115
1840.000000	39.093810
1839.000000	39.071773
1838.000000	39.045224
1837.000000	39.017259
1836.000000	38.985882
1835.000000	38.936705
1834.000000	38.925094
1833.000000	38.882371
1832.000000	38.871673
1831.000000	38.852813
1830.000000	38.816787
1829.000000	38.815954
1828.000000	38.795040
1827.000000	38.752169
1826.000000	38.745182
1825.000000	38.719017
1824.000000	38.677606
1823.000000	38.649398
1822.000000	38.611908
1821.000000	38.602403
1820.000000	38.601902
1819.000000	38.561725
1818.000000	38.563467
1817.000000	38.547986
1816.000000	38.507873
1815.000000	38.500209
1814.000000	38.484930
1813.000000	38.483270
1812.000000	38.461398
1811.000000	38.427124
1810.000000	38.410471
1809.000000	38.397778
1808.000000	38.388841
1807.000000	38.376077
1806.000000	38.352132
1805.000000	38.329912
1804.000000	38.311725
1803.000000	38.298328
1802.000000	38.288529
1801.000000	38.279515
1800.000000	38.261900
1799.000000	38.256189
1798.000000	38.240328
1797.000000	38.230695
1796.000000	38.221327
1795.000000	38.223185
1794.000000	38.236681
1793.000000	38.216200
1792.000000	38.199411
1791.000000	38.204129
1790.000000	38.193390
1789.000000	38.187682
1788.000000	38.198204
1787.000000	38.195122
1786.000000	38.188620
1785.000000	38.172841
1784.000000	38.146343
1783.000000	38.136777
1782.000000	38.163912
1781.000000	38.165730
1780.000000	38.130579
1779.000000	38.096330
1778.000000	38.059286
1777.000000	38.062430
1776.000000	38.028859
1775.000000	37.986472
1774.000000	37.952878
1773.000000	37.948197
1772.000000	37.896938
1771.000000	37.867457
1770.000000	37.835639
1769.000000	37.806142
1768.000000	37.775756
1767.000000	37.740669
1766.000000	37.729197
1765.000000	37.698839
1764.000000	37.674916
1763.000000	37.639121
1762.000000	37.608990
1761.000000	37.591022
1760.000000	37.572209
1759.000000	37.519010
1758.000000	37.498060
1757.000000	37.477456
1756.000000	37.466181
1755.000000	37.430503
1754.000000	37.402855
1753.000000	37.379206
1752.000000	37.358431
1751.000000	37.316870
1750.000000	37.309927
1749.000000	37.290436
1748.000000	37.259633
1747.000000	37.207314
1746.000000	37.184685
1745.000000	37.150665
1744.000000	37.109188
1743.000000	37.070988
1742.000000	37.064716
1741.000000	37.049862
1740.000000	36.997420
1739.000000	36.973351
1738.000000	36.959908
1737.000000	36.957351
1736.000000	36.932870
1735.000000	36.924941
1734.000000	36.901846
1733.000000	36.906606
1732.000000	36.885526
1731.000000	36.903596
1730.000000	36.926089
1729.000000	36.942116
1728.000000	36.955234
1727.000000	36.982552
1726.000000	37.038506
1725.000000	37.090656
1724.000000	37.120536
1723.000000	37.174226
1722.000000	37.230818
1721.000000	37.263922
1720.000000	37.359126
1719.000000	37.410746
1718.000000	37.444939
1717.000000	37.494829
1716.000000	37.539057
1715.000000	37.626336
1714.000000	37.690515
1713.000000	37.735269
1712.000000	37.771806
1711.000000	37.816719
1710.000000	37.864750
1709.000000	37.909021
1708.000000	37.944250
1707.000000	37.946081
1706.000000	37.987245
1705.000000	37.993632
1704.000000	38.037674
1703.000000	38.035600
1702.000000	38.080149
1701.000000	38.074453
1700.000000	38.064622
1699.000000	38.074699
1698.000000	38.105949
1697.000000	38.113602
1696.000000	38.150352
1695.000000	38.146256
1694.000000	38.184589
1693.000000	38.221354
1692.000000	38.214808
1691.000000	38.280475
1690.000000	38.336339
1689.000000	38.362794
1688.000000	38.428707
1687.000000	38.478672
1686.000000	38.557952
1685.000000	38.643307
1684.000000	38.704705
1683.000000	38.805996
1682.000000	38.913053
1681.000000	39.009238
1680.000000	39.096001
1679.000000	39.179127
1678.000000	39.294444
1677.000000	39.367669
1676.000000	39.477910
1675.000000	39.588574
1674.000000	39.669497
1673.000000	39.806888
1672.000000	39.900938
1671.000000	39.988991
1670.000000	40.072726
1669.000000	40.181042
1668.000000	40.261935
1667.000000	40.356696
1666.000000	40.417229
1665.000000	40.467730
1664.000000	40.514131
1663.000000	40.557676
1662.000000	40.596899
1661.000000	40.671404
1660.000000	40.719981
1659.000000	40.756692
1658.000000	40.768080
1657.000000	40.799592
1656.000000	40.824456
1655.000000	40.852587
1654.000000	40.857856
1653.000000	40.875957
1652.000000	40.905223
1651.000000	40.871472
1650.000000	40.877151
1649.000000	40.889500
1648.000000	40.858958
1647.000000	40.856251
1646.000000	40.855245
1645.000000	40.853998
1644.000000	40.852315
1643.000000	40.831309
1642.000000	40.809987
1641.000000	40.778695
1640.000000	40.770724
1639.000000	40.768730
1638.000000	40.754282
1637.000000	40.736189
1636.000000	40.687612
1635.000000	40.690348
1634.000000	40.678777
1633.000000	40.636844
1632.000000	40.618619
1631.000000	40.597637
1630.000000	40.555775
1629.000000	40.531369
1628.000000	40.515116
1627.000000	40.481768
1626.000000	40.450907
1625.000000	40.429039
1624.000000	40.405081
1623.000000	40.375272
1622.000000	40.352498
1621.000000	40.328277
1620.000000	40.298456
1619.000000	40.261511
1618.000000	40.211246
1617.000000	40.182875
1616.000000	40.157643
1615.000000	40.116864
1614.000000	40.090946
1613.000000	40.068669
1612.000000	40.038112
1611.000000	40.006342
1610.000000	39.968270
1609.000000	39.931154
1608.000000	39.911911
1607.000000	39.877082
1606.000000	39.828696
1605.000000	39.795583
1604.000000	39.761770
1603.000000	39.717417
1602.000000	39.677425
1601.000000	39.652365
1600.000000	39.615793
1599.000000	39.565772
1598.000000	39.522190
1597.000000	39.493831
1596.000000	39.472397
1595.000000	39.447182
1594.000000	39.429026
1593.000000	39.402438
1592.000000	39.369720
1591.000000	39.332829
1590.000000	39.301946
1589.000000	39.270715
1588.000000	39.243308
1587.000000	39.221380
1586.000000	39.184685
1585.000000	39.154430
1584.000000	39.134007
1583.000000	39.117297
1582.000000	39.099695
1581.000000	39.077944
1580.000000	39.051831
1579.000000	39.016119
1578.000000	38.995739
1577.000000	38.962400
1576.000000	38.924229
1575.000000	38.906737
1574.000000	38.874884
1573.000000	38.846315
1572.000000	38.818612
1571.000000	38.786156
1570.000000	38.756690
1569.000000	38.739167
1568.000000	38.721781
1567.000000	38.698466
1566.000000	38.677797
1565.000000	38.663879
1564.000000	38.637468
1563.000000	38.618857
1562.000000	38.602415
1561.000000	38.579975
1560.000000	38.560090
1559.000000	38.538924
1558.000000	38.530331
1557.000000	38.506219
1556.000000	38.494495
1555.000000	38.475622
1554.000000	38.455954
1553.000000	38.448102
1552.000000	38.421738
1551.000000	38.398174
1550.000000	38.384163
1549.000000	38.344208
1548.000000	38.306564
1547.000000	38.275958
1546.000000	38.244125
1545.000000	38.211512
1544.000000	38.160313
1543.000000	38.113477
1542.000000	38.077299
1541.000000	38.037107
1540.000000	37.985181
1539.000000	37.922436
1538.000000	37.872601
1537.000000	37.821146
1536.000000	37.775688
1535.000000	37.723446
1534.000000	37.668974
1533.000000	37.632974
1532.000000	37.583204
1531.000000	37.534505
1530.000000	37.499823
1529.000000	37.457423
1528.000000	37.398605
1527.000000	37.362480
1526.000000	37.344331
1525.000000	37.299285
1524.000000	37.259403
1523.000000	37.236705
1522.000000	37.215058
1521.000000	37.192341
1520.000000	37.181766
1519.000000	37.153783
1518.000000	37.130309
1517.000000	37.113281
1516.000000	37.107266
1515.000000	37.089845
1514.000000	37.053435
1513.000000	37.041692
1512.000000	37.041617
1511.000000	37.052542
1510.000000	37.056952
1509.000000	37.064176
1508.000000	37.076219
1507.000000	37.078096
1506.000000	37.052733
1505.000000	37.029745
1504.000000	37.018048
1503.000000	37.010577
1502.000000	36.999291
1501.000000	36.992544
1500.000000	36.980101
1499.000000	36.979768
1498.000000	36.973357
1497.000000	36.969402
1496.000000	36.972936
1495.000000	36.994545
1494.000000	36.974726
1493.000000	37.000805
1492.000000	37.019476
1491.000000	37.015406
1490.000000	37.031449
1489.000000	37.047985
1488.000000	37.065643
1487.000000	37.083010
1486.000000	37.098556
1485.000000	37.104626
1484.000000	37.105129
1483.000000	37.125769
1482.000000	37.112111
1481.000000	37.159623
1480.000000	37.179869
1479.000000	37.185201
1478.000000	37.233753
1477.000000	37.236211
1476.000000	37.248668
1475.000000	37.263662
1474.000000	37.285865
1473.000000	37.307507
1472.000000	37.319403
1471.000000	37.342221
1470.000000	37.364840
1469.000000	37.395763
1468.000000	37.426140
1467.000000	37.436917
1466.000000	37.456797
1465.000000	37.468534
1464.000000	37.487597
1463.000000	37.531744
1462.000000	37.538625
1461.000000	37.550616
1460.000000	37.575569
1459.000000	37.605933
1458.000000	37.647644
1457.000000	37.660458
1456.000000	37.680763
1455.000000	37.708608
1454.000000	37.766651
1453.000000	37.790498
1452.000000	37.822671
1451.000000	37.848709
1450.000000	37.874722
1449.000000	37.928054
1448.000000	37.980380
1447.000000	38.015398
1446.000000	38.048371
1445.000000	38.074997
1444.000000	38.117677
1443.000000	38.161625
1442.000000	38.204311
1441.000000	38.273057
1440.000000	38.345907
1439.000000	38.396040
1438.000000	38.444495
1437.000000	38.491167
1436.000000	38.549225
1435.000000	38.601373
1434.000000	38.670198
1433.000000	38.731148
1432.000000	38.815917
1431.000000	38.888917
1430.000000	38.953917
1429.000000	39.034559
1428.000000	39.117630
1427.000000	39.203433
1426.000000	39.295557
1425.000000	39.396495
1424.000000	39.485206
1423.000000	39.590667
1422.000000	39.668969
1421.000000	39.775036
1420.000000	39.885326
1419.000000	39.981384
1418.000000	40.085245
1417.000000	40.206430
1416.000000	40.334423
1415.000000	40.451135
1414.000000	40.556146
1413.000000	40.670015
1412.000000	40.799795
1411.000000	40.910756
1410.000000	41.038626
1409.000000	41.174428
1408.000000	41.289346
1407.000000	41.400525
1406.000000	41.508756
1405.000000	41.641902
1404.000000	41.763416
1403.000000	41.866542
1402.000000	41.975541
1401.000000	42.089897
1400.000000	42.196422
1399.000000	42.314099
1398.000000	42.429385
1397.000000	42.532869
1396.000000	42.636127
1395.000000	42.743523
1394.000000	42.843607
1393.000000	42.922159
1392.000000	43.003879
1391.000000	43.095067
1390.000000	43.177941
1389.000000	43.264311
1388.000000	43.329363
1387.000000	43.400954
1386.000000	43.485467
1385.000000	43.556026
1384.000000	43.623041
1383.000000	43.672929
1382.000000	43.727335
1381.000000	43.805455
1380.000000	43.864200
1379.000000	43.908322
1378.000000	43.968163
1377.000000	44.016989
1376.000000	44.055989
1375.000000	44.089338
1374.000000	44.125709
1373.000000	44.185819
1372.000000	44.224738
1371.000000	44.240279
1370.000000	44.264320
1369.000000	44.285786
1368.000000	44.304393
1367.000000	44.328046
1366.000000	44.354831
1365.000000	44.388943
1364.000000	44.406753
1363.000000	44.435155
1362.000000	44.474543
1361.000000	44.498974
1360.000000	44.525836
1359.000000	44.540971
1358.000000	44.548489
1357.000000	44.589265
1356.000000	44.634573
1355.000000	44.654362
1354.000000	44.673544
1353.000000	44.722081
1352.000000	44.755043
1351.000000	44.794621
1350.000000	44.836896
1349.000000	44.871627
1348.000000	44.903157
1347.000000	44.937161
1346.000000	44.960064
1345.000000	44.999939
1344.000000	45.047087
1343.000000	45.066561
1342.000000	45.083334
1341.000000	45.129081
1340.000000	45.162291
1339.000000	45.177539
1338.000000	45.190421
1337.000000	45.213663
1336.000000	45.262741
1335.000000	45.281668
1334.000000	45.294819
1333.000000	45.321737
1332.000000	45.334976
1331.000000	45.349834
1330.000000	45.375192
1329.000000	45.393962
1328.000000	45.398565
1327.000000	45.419859
1326.000000	45.444116
1325.000000	45.458650
1324.000000	45.455142
1323.000000	45.468693
1322.000000	45.486640
1321.000000	45.493116
1320.000000	45.528564
1319.000000	45.509419
1318.000000	45.498796
1317.000000	45.513542
1316.000000	45.550775
1315.000000	45.583687
1314.000000	45.587388
1313.000000	45.558133
1312.000000	45.542184
1311.000000	45.559276
1310.000000	45.591839
1309.000000	45.600188
1308.000000	45.617036
1307.000000	45.637711
1306.000000	45.656763
1305.000000	45.636052
1304.000000	45.629320
1303.000000	45.657827
1302.000000	45.668925
1301.000000	45.673578
1300.000000	45.679288
1299.000000	45.672719
1298.000000	45.671821
1297.000000	45.656526
1296.000000	45.668578
1295.000000	45.651335
1294.000000	45.670272
1293.000000	45.659094
1292.000000	45.665523
1291.000000	45.663552
1290.000000	45.661886
1289.000000	45.661504
1288.000000	45.656839
1287.000000	45.648694
1286.000000	45.631749
1285.000000	45.609900
1284.000000	45.608910
1283.000000	45.607817
1282.000000	45.606627
1281.000000	45.623347
1280.000000	45.619172
1279.000000	45.604468
1278.000000	45.617205
1277.000000	45.607853
1276.000000	45.589190
1275.000000	45.582095
1274.000000	45.582222
1273.000000	45.585955
1272.000000	45.587418
1271.000000	45.579976
1270.000000	45.569605
1269.000000	45.564818
1268.000000	45.556795
1267.000000	45.554677
1266.000000	45.581375
1265.000000	45.560589
1264.000000	45.576091
1263.000000	45.604843
1262.000000	45.617463
1261.000000	45.604001
1260.000000	45.602727
1259.000000	45.576701
1258.000000	45.574161
1257.000000	45.606015
1256.000000	45.641076
1255.000000	45.616496
1254.000000	45.609319
1253.000000	45.615275
1252.000000	45.645880
1251.000000	45.629487
1250.000000	45.632185
1249.000000	45.625859
1248.000000	45.626540
1247.000000	45.614701
1246.000000	45.627834
1245.000000	45.623261
1244.000000	45.613591
1243.000000	45.605037
1242.000000	45.593088
1241.000000	45.565184
1240.000000	45.526783
1239.000000	45.523227
1238.000000	45.527094
1237.000000	45.494864
1236.000000	45.486334
1235.000000	45.484971
1234.000000	45.467902
1233.000000	45.429875
1232.000000	45.413343
1231.000000	45.418673
1230.000000	45.391901
1229.000000	45.366372
1228.000000	45.363301
1227.000000	45.345895
1226.000000	45.331558
1225.000000	45.327503
1224.000000	45.306722
1223.000000	45.289409
1222.000000	45.269630
1221.000000	45.249449
1220.000000	45.236686
1219.000000	45.208740
1218.000000	45.184795
1217.000000	45.168151
1216.000000	45.164033
1215.000000	45.140433
1214.000000	45.101723
1213.000000	45.079438
1212.000000	45.067932
1211.000000	45.087235
1210.000000	45.044801
1209.000000	45.028719
1208.000000	45.032716
1207.000000	45.009388
1206.000000	44.977667
1205.000000	44.972214
1204.000000	44.946737
1203.000000	44.904567
1202.000000	44.884344
1201.000000	44.902966
1200.000000	44.882778
1199.000000	44.849244
1198.000000	44.831436
1197.000000	44.844860
1196.000000	44.829185
1195.000000	44.804031
1194.000000	44.772581
1193.000000	44.772961
1192.000000	44.763107
1191.000000	44.759958
1190.000000	44.719524
1189.000000	44.664709
1188.000000	44.667522
1187.000000	44.678660
1186.000000	44.671975
1185.000000	44.668107
1184.000000	44.671044
1183.000000	44.680218
1182.000000	44.693629
1181.000000	44.704920
1180.000000	44.720428
1179.000000	44.732238
1178.000000	44.755584
1177.000000	44.774690
1176.000000	44.792736
1175.000000	44.817485
1174.000000	44.853779
1173.000000	44.887306
1172.000000	44.910631
1171.000000	44.930512
1170.000000	44.962990
1169.000000	44.984370
1168.000000	45.016392
1167.000000	45.065367
1166.000000	45.103794
1165.000000	45.138887
1164.000000	45.178235
1163.000000	45.217842
1162.000000	45.248211
1161.000000	45.286536
1160.000000	45.320909
1159.000000	45.336899
1158.000000	45.369660
1157.000000	45.402233
1156.000000	45.423037
1155.000000	45.460726
1154.000000	45.494354
1153.000000	45.520639
1152.000000	45.557176
1151.000000	45.595501
1150.000000	45.618747
1149.000000	45.641431
1148.000000	45.677770
1147.000000	45.698881
1146.000000	45.711533
1145.000000	45.736800
1144.000000	45.768873
1143.000000	45.761123
1142.000000	45.766177
1141.000000	45.799831
1140.000000	45.812760
1139.000000	45.829464
1138.000000	45.862477
1137.000000	45.877521
1136.000000	45.902100
1135.000000	45.922401
1134.000000	45.931186
1133.000000	45.952824
1132.000000	45.979226
1131.000000	45.993737
1130.000000	45.981245
1129.000000	45.974918
1128.000000	45.996913
1127.000000	46.010692
1126.000000	46.026939
1125.000000	46.024345
1124.000000	46.023992
1123.000000	46.043569
1122.000000	46.048070
1121.000000	46.037593
1120.000000	46.045078
1119.000000	46.052025
1118.000000	46.063570
1117.000000	46.056189
1116.000000	46.063575
1115.000000	46.074626
1114.000000	46.061930
1113.000000	46.059635
1112.000000	46.065534
1111.000000	46.074255
1110.000000	46.072551
1109.000000	46.062844
1108.000000	46.058397
1107.000000	46.072278
1106.000000	46.067796
1105.000000	46.026985
1104.000000	46.025088
1103.000000	46.023681
1102.000000	46.037608
1101.000000	46.047539
1100.000000	46.035725
1099.000000	46.028793
1098.000000	46.032987
1097.000000	46.064015
1096.000000	46.017153
1095.000000	46.000090
1094.000000	46.009206
1093.000000	46.020851
1092.000000	46.015575
1091.000000	46.003520
1090.000000	46.030588
1089.000000	46.033838
1088.000000	46.003859
1087.000000	45.980354
1086.000000	45.978487
1085.000000	45.997535
1084.000000	45.992967
1083.000000	45.997208
1082.000000	45.948961
1081.000000	45.948770
1080.000000	45.945211
1079.000000	45.942576
1078.000000	45.940238
1077.000000	45.960685
1076.000000	45.949577
1075.000000	45.907372
1074.000000	45.919948
1073.000000	45.909896
1072.000000	45.903460
1071.000000	45.906758
1070.000000	45.900266
1069.000000	45.900670
1068.000000	45.893469
1067.000000	45.858337
1066.000000	45.865767
1065.000000	45.845989
1064.000000	45.847711
1063.000000	45.854561
1062.000000	45.855916
1061.000000	45.811338
1060.000000	45.806666
1059.000000	45.825806
1058.000000	45.804300
1057.000000	45.808685
1056.000000	45.820501
1055.000000	45.782616
1054.000000	45.786741
1053.000000	45.783367
1052.000000	45.757668
1051.000000	45.773356
1050.000000	45.721155
1049.000000	45.724925
1048.000000	45.719625
1047.000000	45.733319
1046.000000	45.706341
1045.000000	45.696444
1044.000000	45.686752
1043.000000	45.699652
1042.000000	45.702663
1041.000000	45.671242
1040.000000	45.676976
1039.000000	45.672326
1038.000000	45.668428
1037.000000	45.628678
1036.000000	45.635253
1035.000000	45.638630
1034.000000	45.657072
1033.000000	45.629957
1032.000000	45.623489
1031.000000	45.624133
1030.000000	45.638023
1029.000000	45.597246
1028.000000	45.601034
1027.000000	45.604260
1026.000000	45.578001
1025.000000	45.593600
1024.000000	45.584102
1023.000000	45.592449
1022.000000	45.566545
1021.000000	45.565403
1020.000000	45.557941
1019.000000	45.544516
1018.000000	45.555389
1017.000000	45.559450
1016.000000	45.529204
1015.000000	45.529918
1014.000000	45.539149
1013.000000	45.538115
1012.000000	45.523593
1011.000000	45.521350
1010.000000	45.521824
1009.000000	45.532134
1008.000000	45.530410
1007.000000	45.510805
1006.000000	45.528385
1005.000000	45.523737
1004.000000	45.518522
1003.000000	45.515087
1002.000000	45.522034
1001.000000	45.526315
1000.000000	45.539846
999.000000	45.556410
998.000000	45.547797
997.000000	45.554194
996.000000	45.548898
995.000000	45.537098
994.000000	45.536950
993.000000	45.535982
992.000000	45.547378
991.000000	45.539040
990.000000	45.535403
989.000000	45.527901
988.000000	45.513439
987.000000	45.528259
986.000000	45.527266
985.000000	45.532794
984.000000	45.544015
983.000000	45.538244
982.000000	45.528672
981.000000	45.522169
980.000000	45.531255
979.000000	45.533298
978.000000	45.548207
977.000000	45.530867
976.000000	45.526742
975.000000	45.515228
974.000000	45.521827
973.000000	45.516316
972.000000	45.516986
971.000000	45.510147
970.000000	45.508542
969.000000	45.505851
968.000000	45.501142
967.000000	45.508386
966.000000	45.513698
965.000000	45.499525
964.000000	45.494489
963.000000	45.491018
962.000000	45.484632
961.000000	45.491720
960.000000	45.496252
959.000000	45.499060
958.000000	45.501186
957.000000	45.511653
956.000000	45.510688
955.000000	45.488497
954.000000	45.485919
953.000000	45.494408
952.000000	45.496231
951.000000	45.492395
950.000000	45.487651
949.000000	45.492758
948.000000	45.492305
947.000000	45.475057
946.000000	45.462053
945.000000	45.475053
944.000000	45.482165
943.000000	45.455946
942.000000	45.450364
941.000000	45.451842
940.000000	45.438941
939.000000	45.425013
938.000000	45.419458
937.000000	45.405193
936.000000	45.383474
935.000000	45.392421
934.000000	45.394213
933.000000	45.385374
932.000000	45.383769
931.000000	45.370757
930.000000	45.354309
929.000000	45.342332
928.000000	45.346073
927.000000	45.349021
926.000000	45.350053
925.000000	45.322362
924.000000	45.319318
923.000000	45.332799
922.000000	45.325206
921.000000	45.305575
920.000000	45.301920
919.000000	45.303702
918.000000	45.299305
917.000000	45.283469
916.000000	45.302137
915.000000	45.292020
914.000000	45.242041
913.000000	45.267012
912.000000	45.279757
911.000000	45.268821
910.000000	45.259060
909.000000	45.247455
908.000000	45.232004
907.000000	45.213655
906.000000	45.182695
905.000000	45.191559
904.000000	45.193294
903.000000	45.179728
902.000000	45.186345
901.000000	45.215548
900.000000	45.196775
899.000000	45.190358
898.000000	45.169506
897.000000	45.187193
896.000000	45.219902
895.000000	45.180479
894.000000	45.167587
893.000000	45.180232
892.000000	45.169962
891.000000	45.117798
890.000000	45.137922
889.000000	45.124955
888.000000	45.150436
887.000000	45.179750
886.000000	45.129031
885.000000	45.131067
884.000000	45.056243
883.000000	45.103888
882.000000	45.082733
881.000000	45.098499
880.000000	45.071929
879.000000	45.072330
878.000000	45.076993
877.000000	45.065794
876.000000	45.014138
875.000000	45.044684
874.000000	45.152854
873.000000	45.012263
872.000000	44.975679
871.000000	44.981276
870.000000	44.967664
869.000000	44.901326
868.000000	44.866585
867.000000	44.947558
866.000000	44.992129
865.000000	44.902465
864.000000	44.900980
863.000000	44.844341
862.000000	44.835770
861.000000	44.793130
860.000000	44.908661
859.000000	44.185685
858.000000	43.827562
857.000000	44.116114
856.000000	43.845727
855.000000	43.942882
854.000000	43.870081
853.000000	43.733851
852.000000	43.809240
851.000000	43.912376
850.000000	43.957882
849.000000	43.827731
848.000000	43.770464
847.000000	43.774118
846.000000	43.790090
845.000000	43.844176
844.000000	43.786456
843.000000	43.841026
842.000000	43.815038
841.000000	43.738742
840.000000	43.972031
839.000000	43.763599
838.000000	43.669383
837.000000	43.701919
836.000000	43.749062
835.000000	43.815065
834.000000	43.655854
833.000000	43.682380
832.000000	43.703624
831.000000	43.582837
830.000000	43.574832
829.000000	43.671909
828.000000	43.527940
827.000000	43.510875
826.000000	43.718317
825.000000	43.595722
824.000000	43.498139
823.000000	43.503607
822.000000	43.658697
821.000000	43.446940
820.000000	43.563114
819.000000	43.386215
818.000000	43.344088
817.000000	43.411806
816.000000	43.333898
815.000000	43.498028
814.000000	43.487763
813.000000	43.371236
812.000000	43.382431
811.000000	43.385224
810.000000	43.214544
809.000000	43.253781
808.000000	43.251930
807.000000	43.257154
806.000000	43.283311
805.000000	43.241558
804.000000	43.200179
803.000000	43.158411
802.000000	43.212899
801.000000	43.066033
800.000000	43.137709
799.000000	43.188336
798.000000	42.991721
797.000000	43.148501
796.000000	43.139955
795.000000	43.013861
794.000000	42.972189
793.000000	43.023715
792.000000	43.032220
791.000000	42.986357
790.000000	42.920246
789.000000	43.010552
788.000000	42.886478
787.000000	42.901784
786.000000	42.861957
785.000000	42.859133
784.000000	42.845530
783.000000	42.889589
782.000000	42.785153
781.000000	42.785107
780.000000	42.764669
779.000000	42.834056
778.000000	42.655296
777.000000	42.692498
776.000000	42.672498
775.000000	42.669475
774.000000	42.618149
773.000000	42.564793
772.000000	42.534817
771.000000	42.529343
770.000000	42.445727
769.000000	42.528287
768.000000	42.472895
767.000000	42.497025
766.000000	42.428272
765.000000	42.334170
764.000000	42.374959
763.000000	42.406872
762.000000	42.408907
761.000000	42.306065
760.000000	42.314595
759.000000	42.312943
758.000000	42.211951
757.000000	42.210397
756.000000	42.184727
755.000000	42.202464
754.000000	42.160871
753.000000	42.139925
752.000000	42.074990
751.000000	42.061426
750.000000	42.014134
749.000000	41.966273
748.000000	41.850001
747.000000	41.906497
746.000000	41.944868
745.000000	41.915182
744.000000	41.810091
743.000000	41.819703
742.000000	41.849116
741.000000	41.824278
740.000000	41.716984
739.000000	41.682293
738.000000	41.673878
737.000000	41.632192
736.000000	41.634215
735.000000	41.597908
734.000000	41.523772
733.000000	41.460989
732.000000	41.451163
731.000000	41.418969
730.000000	41.389591
729.000000	41.370751
728.000000	41.372262
727.000000	41.350145
726.000000	41.299254
725.000000	41.246115
724.000000	41.166137
723.000000	41.134114
722.000000	41.105703
721.000000	41.054841
720.000000	41.029218
719.000000	41.026758
718.000000	40.982491
717.000000	40.957646
716.000000	40.916442
715.000000	40.841712
714.000000	40.846744
713.000000	40.847520
712.000000	40.770856
711.000000	40.751381
710.000000	40.722213
709.000000	40.657578
708.000000	40.624331
707.000000	40.608802
706.000000	40.562120
705.000000	40.491299
704.000000	40.454402
703.000000	40.417169
702.000000	40.364244
701.000000	40.297164
700.000000	40.265661
699.000000	40.244875
698.000000	40.187427
697.000000	40.134460
696.000000	40.112014
695.000000	40.082026
694.000000	40.037111
693.000000	39.954001
692.000000	39.924750
691.000000	39.908768
690.000000	39.840865
689.000000	39.744073
688.000000	39.727038
687.000000	39.700320
686.000000	39.615050
685.000000	39.588815
684.000000	39.548930
683.000000	39.488418
682.000000	39.437316
681.000000	39.398579
680.000000	39.372748
679.000000	39.337922
678.000000	39.305111
677.000000	39.227915
676.000000	39.161761
675.000000	39.111154
674.000000	39.061080
673.000000	39.037728
672.000000	38.987735
671.000000	38.901571
670.000000	38.838829
669.000000	38.787565
668.000000	38.744413
667.000000	38.730611
666.000000	38.658593
665.000000	38.550684
664.000000	38.539108
663.000000	38.496421
662.000000	38.418764
661.000000	38.378014
660.000000	38.349280
659.000000	38.256354
658.000000	38.229609
657.000000	38.159735
656.000000	38.115597
655.000000	38.034737
654.000000	37.977586
653.000000	37.959300
652.000000	37.907320
651.000000	37.804989
650.000000	37.770890
649.000000	37.699380
648.000000	37.643704
647.000000	37.610111
646.000000	37.560865
645.000000	37.498791
644.000000	37.417850
643.000000	37.384145
642.000000	37.315387
641.000000	37.253932
640.000000	37.199956
639.000000	37.174019
638.000000	37.105933
637.000000	37.027103
636.000000	36.934344
635.000000	36.844352
634.000000	36.805768
633.000000	36.756610
632.000000	36.728176
631.000000	36.627771
630.000000	36.607647
629.000000	36.550749
628.000000	36.491260
627.000000	36.374991
626.000000	36.307327
625.000000	36.277889
624.000000	36.191867
623.000000	36.123553
622.000000	36.104205
621.000000	36.047551
620.000000	35.952840
619.000000	35.893509
618.000000	35.850026
617.000000	35.777497
616.000000	35.710347
615.000000	35.669603
614.000000	35.578688
613.000000	35.515887
612.000000	35.476978
611.000000	35.382202
610.000000	35.272601
609.000000	35.235202
608.000000	35.181956
607.000000	35.143809
606.000000	35.061003
605.000000	34.977129
604.000000	34.949903
603.000000	34.836740
602.000000	34.751476
601.000000	34.725347
600.000000	34.625151
599.000000	34.603350
598.000000	34.472784
597.000000	34.446713
596.000000	34.368673
595.000000	34.284425
594.000000	34.203599
593.000000	34.132801
592.000000	34.061894
591.000000	34.004159
590.000000	33.910840
589.000000	33.839764
588.000000	33.747708
587.000000	33.679628
586.000000	33.590087
585.000000	33.522510
584.000000	33.432089
583.000000	33.359790
582.000000	33.315889
581.000000	33.195474
580.000000	33.141594
579.000000	33.062690
578.000000	32.982575
577.000000	32.918963
576.000000	32.796906
575.000000	32.734123
574.000000	32.649191
573.000000	32.542766
572.000000	32.474643
571.000000	32.405959
570.000000	32.291048
569.000000	32.258163
568.000000	32.149913
567.000000	32.043987
566.000000	31.939521
565.000000	31.886645
564.000000	31.820943
563.000000	31.705138
562.000000	31.612486
561.000000	31.491155
560.000000	31.403273
559.000000	31.325562
558.000000	31.263485
557.000000	31.160228
556.000000	31.073882
555.000000	30.982865
554.000000	30.875893
553.000000	30.795726
552.000000	30.690164
551.000000	30.586008
550.000000	30.510705
549.000000	30.413965
548.000000	30.316377
547.000000	30.237313
546.000000	30.136212
545.000000	30.027785
544.000000	29.943965
543.000000	29.837580
542.000000	29.727337
541.000000	29.645500
540.000000	29.570399
539.000000	29.458013
538.000000	29.365770
537.000000	29.295142
536.000000	29.178348
535.000000	29.080092
534.000000	28.971149
533.000000	28.882149
532.000000	28.795970
531.000000	28.675766
530.000000	28.564303
529.000000	28.483773
528.000000	28.376835
527.000000	28.260510
526.000000	28.163067
525.000000	28.070528
524.000000	27.946853
523.000000	27.837221
522.000000	27.753358
521.000000	27.650401
520.000000	27.546266
519.000000	27.440380
518.000000	27.339536
517.000000	27.256100
516.000000	27.144990
515.000000	27.052600
514.000000	26.950665
513.000000	26.828647
512.000000	26.708332
511.000000	26.614211
510.000000	26.509792
509.000000	26.408410
508.000000	26.308992
507.000000	26.195691
506.000000	26.102240
505.000000	26.009658
504.000000	25.898328
503.000000	25.804895
502.000000	25.695642
501.000000	25.575824
500.000000	25.467399
499.000000	25.384040
498.000000	25.285436
497.000000	25.164099
496.000000	25.032823
495.000000	24.940780
494.000000	24.864852
493.000000	24.759573
492.000000	24.636620
491.000000	24.532607
490.000000	24.447928
489.000000	24.351330
488.000000	24.237724
487.000000	24.121224
486.000000	24.031939
485.000000	23.911783
484.000000	23.823614
483.000000	23.738725
482.000000	23.649952
481.000000	23.557735
480.000000	23.436525
479.000000	23.347366
478.000000	23.255433
477.000000	23.160631
476.000000	23.054042
475.000000	22.977575
474.000000	22.896075
473.000000	22.794641
472.000000	22.687970
471.000000	22.586815
470.000000	22.490965
469.000000	22.392517
468.000000	22.296956
467.000000	22.202582
466.000000	22.102365
465.000000	22.005746
464.000000	21.918997
463.000000	21.824443
462.000000	21.711977
461.000000	21.613097
460.000000	21.515863
459.000000	21.395406
458.000000	21.296581
457.000000	21.202772
456.000000	21.086693
455.000000	20.977127
454.000000	20.871427
453.000000	20.753050
452.000000	20.658708
451.000000	20.547918
450.000000	20.441700
449.000000	20.326597
448.000000	20.174726
447.000000	20.067554
446.000000	19.957243
445.000000	19.836638
444.000000	19.751709
443.000000	19.653799
442.000000	19.544502
441.000000	19.425587
440.000000	19.286748
439.000000	19.147380
438.000000	19.040216
437.000000	18.924762
436.000000	18.797896
435.000000	18.689050
434.000000	18.572729
433.000000	18.448642
432.000000	18.341321
431.000000	18.229894
430.000000	18.120514
429.000000	17.983686
428.000000	17.859918
427.000000	17.745520
426.000000	17.626146
425.000000	17.497479
424.000000	17.381258
423.000000	17.245073
422.000000	17.120617
421.000000	17.011549
420.000000	16.882705
419.000000	16.760711
418.000000	16.666667
417.000000	16.550629
416.000000	16.422044
415.000000	16.282674
414.000000	16.161871
413.000000	16.044272
412.000000	15.930692
411.000000	15.822132
410.000000	15.715710
409.000000	15.596751
408.000000	15.479662
407.000000	15.333472
406.000000	15.231517
405.000000	15.133371
404.000000	15.003633
403.000000	14.879611
402.000000	14.785185
401.000000	14.647621
400.000000	14.522003
399.000000	14.397473
398.000000	14.321625
397.000000	14.196051
396.000000	14.049194
395.000000	13.954249
394.000000	13.834427
393.000000	13.707317
392.000000	13.598293
391.000000	13.481043
390.000000	13.380335
389.000000	13.288144
388.000000	13.187377
387.000000	13.033774
386.000000	12.925592
385.000000	12.809452
384.000000	12.686306
383.000000	12.575804
382.000000	12.479772
381.000000	12.349554
380.000000	12.230289
379.000000	12.128588
378.000000	12.030803
377.000000	11.953062
376.000000	11.826004
375.000000	11.742966
374.000000	11.587347
373.000000	11.508004
372.000000	11.382338
371.000000	11.302833
370.000000	11.182255
369.000000	11.056917
368.000000	10.941128
367.000000	10.894035
366.000000	10.809600
365.000000	10.731559
364.000000	10.629803
363.000000	10.488398
362.000000	10.412182
361.000000	10.318990
360.000000	10.266950
359.000000	10.125636
358.000000	10.061427
357.000000	9.957264
356.000000	9.918878
355.000000	9.781356
354.000000	9.737125
353.000000	9.649087
352.000000	9.576261
351.000000	9.472732
350.000000	9.398045
349.000000	9.314300
348.000000	9.256250
347.000000	9.162455
346.000000	9.045321
345.000000	9.020350
344.000000	8.939036
343.000000	8.891607
342.000000	8.749778
341.000000	8.701692
340.000000	8.645254
339.000000	8.507399
338.000000	8.434839
337.000000	8.401411
336.000000	8.294454
335.000000	8.227450
334.000000	8.167291
333.000000	8.128292
332.000000	8.045241
331.000000	7.986235
330.000000	7.932940
329.000000	7.851733
328.000000	7.797371
327.000000	7.688676
326.000000	7.628253
325.000000	7.613356
324.000000	7.487255
323.000000	7.416453
322.000000	7.445474
321.000000	7.431107
320.000000	7.341451
319.000000	7.261843
318.000000	7.322302
317.000000	7.204083
316.000000	7.168618
315.000000	7.171944
314.000000	7.191011
313.000000	7.079188
312.000000	7.097428
311.000000	7.044816
310.000000	7.071669
309.000000	7.002910
308.000000	6.951517
307.000000	6.958584
306.000000	6.906672
305.000000	6.918010
304.000000	6.851460
303.000000	6.818060
302.000000	6.834598
301.000000	6.887320
300.000000	6.822474
299.000000	6.787586
298.000000	6.775051
297.000000	6.724408
296.000000	6.718903
295.000000	6.669278
294.000000	6.679042
293.000000	6.673596
292.000000	6.604053
291.000000	6.628518
290.000000	6.610855
289.000000	6.584572
288.000000	6.571320
287.000000	6.554749
286.000000	6.547946
285.000000	6.562046
284.000000	6.552727
283.000000	6.581581
282.000000	6.541354
281.000000	6.575145
280.000000	6.603462
279.000000	6.619884
278.000000	6.600573
277.000000	6.611207
276.000000	6.642792
275.000000	6.723302
274.000000	6.702365
273.000000	6.754324
272.000000	6.764461
271.000000	6.764667
270.000000	6.798704
269.000000	6.815203
268.000000	6.852457
267.000000	6.909236
266.000000	6.975486
265.000000	7.036066
264.000000	7.075626
263.000000	7.145281
262.000000	7.193594
261.000000	7.245289
260.000000	7.324900
259.000000	7.388761
258.000000	7.410323
257.000000	7.519773
256.000000	7.579479
255.000000	7.643480
254.000000	7.738457
253.000000	7.789619
252.000000	7.875929
251.000000	7.946022
250.000000	7.999666
249.000000	8.054512
248.000000	8.111866
247.000000	8.159438
246.000000	8.238595
245.000000	8.294200
244.000000	8.326348
243.000000	8.357087
242.000000	8.346878
241.000000	8.353526
240.000000	8.355957
239.000000	8.365673
238.000000	8.346354
237.000000	8.316333
236.000000	8.296087
235.000000	8.215262
234.000000	8.195869
233.000000	8.170930
232.000000	8.125096
231.000000	8.091691
230.000000	8.083586
229.000000	8.084357
228.000000	8.025908
227.000000	7.950878
226.000000	7.906794
225.000000	7.909083
224.000000	7.904530
223.000000	7.963590
222.000000	7.983464
221.000000	7.949889
220.000000	7.998756
219.000000	8.054367
218.000000	8.042172
217.000000	8.005622
216.000000	8.098383
215.000000	8.246631
214.000000	8.354744
213.000000	8.362463
212.000000	8.389408
211.000000	8.480353
210.000000	8.675527
209.000000	8.809606
208.000000	8.896600
207.000000	9.137516
206.000000	9.328938
205.000000	9.496052
204.000000	9.837612
203.000000	10.240659
202.000000	10.391605
201.000000	10.527097
200.000000	11.082302
