PE UV       SUBTECH     SPECTRUM    ASCII       PEDS        4.00        
   -1
RTmsmeh71.Sample.asc
18/03/14
09:38:15.00
18/03/14
09:38:15.00
Administrator

200.000000
1
Lambda 750
750N8071901
PerkinElmer UV WinLab 6.0.4.0738 / 1.61.00 Lambda 900

0
0
3350/servo 860.8/2
0
0
UV/VIS
1
1
1
CommonBeamDepol,150mm sphere / downward view
0
0
0
0
Program
Program
3350/servo 860.8/2
3350/0.2 860.8/0.2
3350/0.2 860.8/0.2
0
1
 
 
 
0
 
860.8
319.2
860.8
Front
100
on
 
 
0
0
0
 
0
 
 
 
0
 
 
0
0
0
0
0
 
 
 
 
0
0


0
0
#HDR
-1
-1
#GR
nm
%R
1.0
0.0
2350.000000
-1.000000
2151
8
62.605740
6.836033
#DATA
2350.000000	25.814341
2349.000000	26.015892
2348.000000	26.159373
2347.000000	26.668379
2346.000000	26.282866
2345.000000	26.294506
2344.000000	26.025131
2343.000000	26.054332
2342.000000	26.290730
2341.000000	26.189401
2340.000000	26.635702
2339.000000	27.020963
2338.000000	26.867494
2337.000000	27.072769
2336.000000	26.816851
2335.000000	26.942579
2334.000000	26.920416
2333.000000	27.446971
2332.000000	27.419558
2331.000000	27.114966
2330.000000	27.298367
2329.000000	27.265640
2328.000000	27.102690
2327.000000	27.193265
2326.000000	26.956711
2325.000000	26.737810
2324.000000	26.726454
2323.000000	26.750230
2322.000000	26.659180
2321.000000	26.523701
2320.000000	26.527614
2319.000000	26.409963
2318.000000	26.358406
2317.000000	26.306941
2316.000000	26.033669
2315.000000	25.936298
2314.000000	25.884059
2313.000000	25.957910
2312.000000	25.612406
2311.000000	25.641236
2310.000000	25.612320
2309.000000	25.452866
2308.000000	25.392698
2307.000000	25.313337
2306.000000	25.433591
2305.000000	25.624955
2304.000000	25.539248
2303.000000	25.583772
2302.000000	25.546733
2301.000000	25.340529
2300.000000	25.343193
2299.000000	25.322543
2298.000000	25.365495
2297.000000	25.406974
2296.000000	25.295666
2295.000000	25.275889
2294.000000	25.157824
2293.000000	25.231147
2292.000000	25.229470
2291.000000	25.160603
2290.000000	25.372442
2289.000000	25.476481
2288.000000	25.373563
2287.000000	25.404415
2286.000000	25.274214
2285.000000	25.377921
2284.000000	25.363280
2283.000000	25.314727
2282.000000	25.342424
2281.000000	25.322369
2280.000000	25.262172
2279.000000	25.437178
2278.000000	25.474470
2277.000000	25.424100
2276.000000	25.520991
2275.000000	25.612655
2274.000000	25.702900
2273.000000	25.864212
2272.000000	26.013416
2271.000000	25.893127
2270.000000	26.002811
2269.000000	26.135795
2268.000000	26.322782
2267.000000	26.429895
2266.000000	26.607179
2265.000000	26.709386
2264.000000	26.718140
2263.000000	26.945089
2262.000000	27.158994
2261.000000	27.297042
2260.000000	27.368306
2259.000000	27.578237
2258.000000	27.865034
2257.000000	27.942179
2256.000000	28.048879
2255.000000	28.335608
2254.000000	28.554707
2253.000000	28.692378
2252.000000	29.011089
2251.000000	29.314058
2250.000000	29.507626
2249.000000	29.692839
2248.000000	29.776553
2247.000000	29.860865
2246.000000	30.101145
2245.000000	30.312457
2244.000000	30.539114
2243.000000	30.844913
2242.000000	31.057709
2241.000000	31.103850
2240.000000	31.146396
2239.000000	31.266486
2238.000000	31.513809
2237.000000	31.567417
2236.000000	31.712797
2235.000000	31.925602
2234.000000	31.849582
2233.000000	31.874820
2232.000000	31.975703
2231.000000	32.079632
2230.000000	32.128451
2229.000000	32.047087
2228.000000	32.090691
2227.000000	32.125593
2226.000000	32.074854
2225.000000	32.061222
2224.000000	32.085624
2223.000000	32.190768
2222.000000	32.127173
2221.000000	31.968821
2220.000000	31.928786
2219.000000	32.026455
2218.000000	31.961230
2217.000000	31.846880
2216.000000	31.915848
2215.000000	31.849792
2214.000000	31.735335
2213.000000	31.719716
2212.000000	31.696425
2211.000000	31.634354
2210.000000	31.474120
2209.000000	31.409425
2208.000000	31.315999
2207.000000	31.255947
2206.000000	31.203940
2205.000000	31.205118
2204.000000	31.203469
2203.000000	31.104349
2202.000000	30.947703
2201.000000	30.927832
2200.000000	30.824679
2199.000000	30.747044
2198.000000	30.744917
2197.000000	30.601551
2196.000000	30.501566
2195.000000	30.565703
2194.000000	30.407282
2193.000000	30.310339
2192.000000	30.362665
2191.000000	30.321505
2190.000000	30.095582
2189.000000	30.128329
2188.000000	30.066883
2187.000000	29.874388
2186.000000	29.952051
2185.000000	29.872210
2184.000000	29.834346
2183.000000	29.885663
2182.000000	29.856973
2181.000000	29.769092
2180.000000	29.720220
2179.000000	29.686820
2178.000000	29.684694
2177.000000	29.703564
2176.000000	29.865472
2175.000000	29.932340
2174.000000	29.943741
2173.000000	29.914812
2172.000000	29.858210
2171.000000	29.916982
2170.000000	29.947165
2169.000000	30.211206
2168.000000	30.128505
2167.000000	30.247564
2166.000000	30.259824
2165.000000	30.290959
2164.000000	30.378107
2163.000000	30.381398
2162.000000	30.661241
2161.000000	30.793840
2160.000000	30.986801
2159.000000	31.064548
2158.000000	31.187475
2157.000000	31.217629
2156.000000	31.307568
2155.000000	31.575603
2154.000000	31.729970
2153.000000	32.006745
2152.000000	32.100841
2151.000000	31.941573
2150.000000	32.294467
2149.000000	32.482248
2148.000000	32.556204
2147.000000	32.806369
2146.000000	32.714077
2145.000000	33.056666
2144.000000	33.205869
2143.000000	33.393003
2142.000000	33.350657
2141.000000	33.604675
2140.000000	33.593437
2139.000000	33.842170
2138.000000	33.879568
2137.000000	33.956775
2136.000000	34.203327
2135.000000	34.300280
2134.000000	34.269636
2133.000000	34.190425
2132.000000	34.310271
2131.000000	34.735373
2130.000000	34.838515
2129.000000	34.813113
2128.000000	34.640990
2127.000000	34.849974
2126.000000	34.895929
2125.000000	34.896492
2124.000000	34.968074
2123.000000	35.018679
2122.000000	35.163348
2121.000000	35.164188
2120.000000	35.019598
2119.000000	35.251431
2118.000000	35.221517
2117.000000	35.290812
2116.000000	35.367373
2115.000000	35.382401
2114.000000	35.399181
2113.000000	35.328862
2112.000000	35.541375
2111.000000	35.588890
2110.000000	35.550665
2109.000000	35.509426
2108.000000	35.582379
2107.000000	35.484831
2106.000000	35.559866
2105.000000	35.561597
2104.000000	35.583066
2103.000000	35.632813
2102.000000	35.595163
2101.000000	35.657108
2100.000000	35.633719
2099.000000	35.717820
2098.000000	35.752990
2097.000000	35.648000
2096.000000	35.656954
2095.000000	35.615995
2094.000000	35.633060
2093.000000	35.578024
2092.000000	35.582301
2091.000000	35.509738
2090.000000	35.386810
2089.000000	35.452175
2088.000000	35.518454
2087.000000	35.393796
2086.000000	35.325924
2085.000000	35.325657
2084.000000	35.279559
2083.000000	35.183999
2082.000000	35.100857
2081.000000	35.035049
2080.000000	34.879278
2079.000000	34.827515
2078.000000	34.730163
2077.000000	34.633719
2076.000000	34.537920
2075.000000	34.315926
2074.000000	34.215849
2073.000000	34.134997
2072.000000	34.022925
2071.000000	33.897081
2070.000000	33.746733
2069.000000	33.619973
2068.000000	33.450640
2067.000000	33.299187
2066.000000	33.204963
2065.000000	33.012818
2064.000000	32.891994
2063.000000	32.733926
2062.000000	32.587427
2061.000000	32.436451
2060.000000	32.288851
2059.000000	32.149465
2058.000000	32.011124
2057.000000	31.884259
2056.000000	31.794329
2055.000000	31.629181
2054.000000	31.464232
2053.000000	31.398330
2052.000000	31.279453
2051.000000	31.200059
2050.000000	31.132651
2049.000000	31.062388
2048.000000	30.939675
2047.000000	30.916677
2046.000000	30.916688
2045.000000	30.857903
2044.000000	30.831965
2043.000000	30.852423
2042.000000	30.858010
2041.000000	30.932526
2040.000000	30.954139
2039.000000	30.943109
2038.000000	30.980691
2037.000000	31.053371
2036.000000	31.137339
2035.000000	31.200293
2034.000000	31.230822
2033.000000	31.332008
2032.000000	31.494189
2031.000000	31.598970
2030.000000	31.695511
2029.000000	31.818936
2028.000000	31.868400
2027.000000	31.915632
2026.000000	32.006470
2025.000000	32.077110
2024.000000	32.144368
2023.000000	32.199620
2022.000000	32.228732
2021.000000	32.254273
2020.000000	32.308197
2019.000000	32.324723
2018.000000	32.292466
2017.000000	32.282155
2016.000000	32.274898
2015.000000	32.211082
2014.000000	32.137478
2013.000000	32.107548
2012.000000	32.058244
2011.000000	31.995245
2010.000000	31.973421
2009.000000	31.883838
2008.000000	31.756678
2007.000000	31.687087
2006.000000	31.578553
2005.000000	31.467193
2004.000000	31.359570
2003.000000	31.279854
2002.000000	31.193550
2001.000000	31.065350
2000.000000	30.930049
1999.000000	30.852340
1998.000000	30.733731
1997.000000	30.568484
1996.000000	30.452959
1995.000000	30.395597
1994.000000	30.278017
1993.000000	30.150130
1992.000000	29.985940
1991.000000	29.836435
1990.000000	29.729009
1989.000000	29.614098
1988.000000	29.514615
1987.000000	29.393835
1986.000000	29.260600
1985.000000	29.170991
1984.000000	29.058866
1983.000000	28.915718
1982.000000	28.828601
1981.000000	28.741001
1980.000000	28.592350
1979.000000	28.482204
1978.000000	28.361959
1977.000000	28.241941
1976.000000	28.108145
1975.000000	28.001006
1974.000000	27.863689
1973.000000	27.806635
1972.000000	27.701991
1971.000000	27.576213
1970.000000	27.460856
1969.000000	27.344903
1968.000000	27.277023
1967.000000	27.195016
1966.000000	27.034850
1965.000000	26.926407
1964.000000	26.833789
1963.000000	26.802668
1962.000000	26.677304
1961.000000	26.586620
1960.000000	26.509539
1959.000000	26.417040
1958.000000	26.408207
1957.000000	26.294506
1956.000000	26.173854
1955.000000	26.135765
1954.000000	26.040183
1953.000000	26.005587
1952.000000	26.000875
1951.000000	25.937249
1950.000000	25.879277
1949.000000	25.798296
1948.000000	25.786622
1947.000000	25.755097
1946.000000	25.679762
1945.000000	25.750314
1944.000000	25.753458
1943.000000	25.792587
1942.000000	25.776547
1941.000000	25.814738
1940.000000	25.932781
1939.000000	25.955404
1938.000000	26.065170
1937.000000	26.151398
1936.000000	26.167678
1935.000000	26.208432
1934.000000	26.373369
1933.000000	26.529606
1932.000000	26.613505
1931.000000	26.691072
1930.000000	26.934735
1929.000000	27.129538
1928.000000	27.300566
1927.000000	27.442469
1926.000000	27.687444
1925.000000	27.887434
1924.000000	28.171906
1923.000000	28.429610
1922.000000	28.694827
1921.000000	29.047942
1920.000000	29.320867
1919.000000	29.601635
1918.000000	29.952511
1917.000000	30.278371
1916.000000	30.568066
1915.000000	31.070583
1914.000000	31.403417
1913.000000	31.790885
1912.000000	32.178190
1911.000000	32.634869
1910.000000	33.075926
1909.000000	33.561017
1908.000000	34.077423
1907.000000	34.575310
1906.000000	35.071781
1905.000000	35.582193
1904.000000	36.050780
1903.000000	36.684406
1902.000000	37.226404
1901.000000	37.761729
1900.000000	38.307753
1899.000000	38.877453
1898.000000	39.437964
1897.000000	39.996014
1896.000000	40.521313
1895.000000	41.041861
1894.000000	41.660930
1893.000000	42.176067
1892.000000	42.699689
1891.000000	43.161296
1890.000000	43.649128
1889.000000	44.151042
1888.000000	44.534615
1887.000000	45.051550
1886.000000	45.466902
1885.000000	45.926912
1884.000000	46.300085
1883.000000	46.754099
1882.000000	47.118841
1881.000000	47.459749
1880.000000	47.762265
1879.000000	48.088627
1878.000000	48.355957
1877.000000	48.662360
1876.000000	48.957066
1875.000000	49.241415
1874.000000	49.457805
1873.000000	49.694710
1872.000000	49.872320
1871.000000	50.092296
1870.000000	50.303741
1869.000000	50.432258
1868.000000	50.586462
1867.000000	50.708388
1866.000000	50.805745
1865.000000	50.960805
1864.000000	51.059702
1863.000000	51.151162
1862.000000	51.201106
1861.000000	51.272547
1860.000000	51.327084
1859.000000	51.361665
1858.000000	51.399597
1857.000000	51.482044
1856.000000	51.540158
1855.000000	51.535848
1854.000000	51.598999
1853.000000	51.639260
1852.000000	51.627211
1851.000000	51.646518
1850.000000	51.629744
1849.000000	51.633812
1848.000000	51.653904
1847.000000	51.674034
1846.000000	51.612192
1845.000000	51.596352
1844.000000	51.561291
1843.000000	51.571274
1842.000000	51.589152
1841.000000	51.554498
1840.000000	51.480314
1839.000000	51.445635
1838.000000	51.419043
1837.000000	51.350961
1836.000000	51.307032
1835.000000	51.264229
1834.000000	51.244726
1833.000000	51.203702
1832.000000	51.151768
1831.000000	51.119140
1830.000000	51.067598
1829.000000	51.023209
1828.000000	51.015385
1827.000000	50.966965
1826.000000	50.936771
1825.000000	50.894453
1824.000000	50.853689
1823.000000	50.830611
1822.000000	50.787145
1821.000000	50.756147
1820.000000	50.730803
1819.000000	50.685696
1818.000000	50.661828
1817.000000	50.646614
1816.000000	50.609797
1815.000000	50.561634
1814.000000	50.538874
1813.000000	50.512724
1812.000000	50.463331
1811.000000	50.424032
1810.000000	50.422622
1809.000000	50.413381
1808.000000	50.393666
1807.000000	50.349721
1806.000000	50.329596
1805.000000	50.323140
1804.000000	50.284316
1803.000000	50.267562
1802.000000	50.249823
1801.000000	50.207668
1800.000000	50.191730
1799.000000	50.178237
1798.000000	50.156969
1797.000000	50.144294
1796.000000	50.118519
1795.000000	50.101131
1794.000000	50.094163
1793.000000	50.070274
1792.000000	50.058618
1791.000000	50.059691
1790.000000	50.017595
1789.000000	49.986917
1788.000000	49.993660
1787.000000	49.990970
1786.000000	49.936905
1785.000000	49.912010
1784.000000	49.873999
1783.000000	49.837643
1782.000000	49.795072
1781.000000	49.759060
1780.000000	49.719957
1779.000000	49.673367
1778.000000	49.618548
1777.000000	49.567336
1776.000000	49.512681
1775.000000	49.449842
1774.000000	49.361986
1773.000000	49.308617
1772.000000	49.247486
1771.000000	49.173558
1770.000000	49.141948
1769.000000	49.065295
1768.000000	49.020306
1767.000000	48.969081
1766.000000	48.904406
1765.000000	48.834631
1764.000000	48.801197
1763.000000	48.741576
1762.000000	48.669497
1761.000000	48.629711
1760.000000	48.590811
1759.000000	48.562362
1758.000000	48.508799
1757.000000	48.455629
1756.000000	48.408083
1755.000000	48.387090
1754.000000	48.317676
1753.000000	48.259043
1752.000000	48.218528
1751.000000	48.166901
1750.000000	48.101453
1749.000000	48.054274
1748.000000	47.975846
1747.000000	47.897388
1746.000000	47.817836
1745.000000	47.736849
1744.000000	47.660729
1743.000000	47.588262
1742.000000	47.498852
1741.000000	47.432477
1740.000000	47.369734
1739.000000	47.284463
1738.000000	47.249877
1737.000000	47.201728
1736.000000	47.149976
1735.000000	47.085441
1734.000000	47.088465
1733.000000	47.078865
1732.000000	47.063959
1731.000000	47.088336
1730.000000	47.078470
1729.000000	47.118061
1728.000000	47.186354
1727.000000	47.205314
1726.000000	47.300979
1725.000000	47.387885
1724.000000	47.465678
1723.000000	47.545966
1722.000000	47.658975
1721.000000	47.745516
1720.000000	47.878900
1719.000000	48.040597
1718.000000	48.102749
1717.000000	48.255048
1716.000000	48.355411
1715.000000	48.461662
1714.000000	48.569120
1713.000000	48.670242
1712.000000	48.725447
1711.000000	48.873442
1710.000000	48.959363
1709.000000	49.040941
1708.000000	49.116569
1707.000000	49.173203
1706.000000	49.238524
1705.000000	49.268429
1704.000000	49.350863
1703.000000	49.385764
1702.000000	49.436265
1701.000000	49.488688
1700.000000	49.529585
1699.000000	49.559156
1698.000000	49.610461
1697.000000	49.695366
1696.000000	49.744481
1695.000000	49.802298
1694.000000	49.877410
1693.000000	49.958566
1692.000000	50.007451
1691.000000	50.072036
1690.000000	50.195492
1689.000000	50.294740
1688.000000	50.377028
1687.000000	50.538226
1686.000000	50.658568
1685.000000	50.799116
1684.000000	50.927745
1683.000000	51.103928
1682.000000	51.275648
1681.000000	51.419720
1680.000000	51.585988
1679.000000	51.743762
1678.000000	51.917990
1677.000000	52.065874
1676.000000	52.238382
1675.000000	52.425012
1674.000000	52.561835
1673.000000	52.727571
1672.000000	52.899199
1671.000000	53.026004
1670.000000	53.174131
1669.000000	53.324322
1668.000000	53.466226
1667.000000	53.590722
1666.000000	53.668057
1665.000000	53.751354
1664.000000	53.823211
1663.000000	53.899093
1662.000000	53.983312
1661.000000	54.054810
1660.000000	54.107622
1659.000000	54.174177
1658.000000	54.210336
1657.000000	54.274361
1656.000000	54.292024
1655.000000	54.313288
1654.000000	54.351035
1653.000000	54.371729
1652.000000	54.379826
1651.000000	54.359489
1650.000000	54.390010
1649.000000	54.398155
1648.000000	54.385451
1647.000000	54.371410
1646.000000	54.371667
1645.000000	54.361123
1644.000000	54.365648
1643.000000	54.338184
1642.000000	54.301600
1641.000000	54.281300
1640.000000	54.263655
1639.000000	54.239749
1638.000000	54.210685
1637.000000	54.193987
1636.000000	54.157119
1635.000000	54.126162
1634.000000	54.100090
1633.000000	54.061354
1632.000000	54.038860
1631.000000	54.017772
1630.000000	53.984983
1629.000000	53.935160
1628.000000	53.879735
1627.000000	53.854890
1626.000000	53.817834
1625.000000	53.776831
1624.000000	53.734706
1623.000000	53.693254
1622.000000	53.665490
1621.000000	53.613030
1620.000000	53.560412
1619.000000	53.509369
1618.000000	53.462624
1617.000000	53.427657
1616.000000	53.378912
1615.000000	53.326588
1614.000000	53.272696
1613.000000	53.224431
1612.000000	53.180520
1611.000000	53.122660
1610.000000	53.070344
1609.000000	53.021844
1608.000000	52.964660
1607.000000	52.903630
1606.000000	52.838837
1605.000000	52.790113
1604.000000	52.748416
1603.000000	52.688621
1602.000000	52.631600
1601.000000	52.574131
1600.000000	52.521382
1599.000000	52.457484
1598.000000	52.406519
1597.000000	52.363271
1596.000000	52.310480
1595.000000	52.261456
1594.000000	52.208030
1593.000000	52.154132
1592.000000	52.110539
1591.000000	52.065311
1590.000000	52.021854
1589.000000	51.973286
1588.000000	51.925917
1587.000000	51.881829
1586.000000	51.835867
1585.000000	51.802024
1584.000000	51.761122
1583.000000	51.719265
1582.000000	51.671513
1581.000000	51.625138
1580.000000	51.574426
1579.000000	51.531802
1578.000000	51.494410
1577.000000	51.440334
1576.000000	51.385269
1575.000000	51.356273
1574.000000	51.318152
1573.000000	51.282475
1572.000000	51.245280
1571.000000	51.190734
1570.000000	51.150596
1569.000000	51.117895
1568.000000	51.078213
1567.000000	51.043109
1566.000000	51.014820
1565.000000	50.987282
1564.000000	50.945764
1563.000000	50.929746
1562.000000	50.894835
1561.000000	50.854441
1560.000000	50.810891
1559.000000	50.795293
1558.000000	50.772239
1557.000000	50.745625
1556.000000	50.722850
1555.000000	50.697847
1554.000000	50.655689
1553.000000	50.611091
1552.000000	50.586707
1551.000000	50.548567
1550.000000	50.500159
1549.000000	50.449154
1548.000000	50.396372
1547.000000	50.338705
1546.000000	50.282466
1545.000000	50.217891
1544.000000	50.150204
1543.000000	50.077806
1542.000000	50.006429
1541.000000	49.914958
1540.000000	49.846710
1539.000000	49.764003
1538.000000	49.677179
1537.000000	49.597618
1536.000000	49.504197
1535.000000	49.431494
1534.000000	49.360749
1533.000000	49.265733
1532.000000	49.192417
1531.000000	49.104848
1530.000000	49.041930
1529.000000	48.966294
1528.000000	48.905479
1527.000000	48.833527
1526.000000	48.786856
1525.000000	48.724749
1524.000000	48.661546
1523.000000	48.606293
1522.000000	48.557163
1521.000000	48.497600
1520.000000	48.487334
1519.000000	48.423528
1518.000000	48.375422
1517.000000	48.348210
1516.000000	48.340231
1515.000000	48.318973
1514.000000	48.337494
1513.000000	48.328398
1512.000000	48.338448
1511.000000	48.304387
1510.000000	48.245531
1509.000000	48.209210
1508.000000	48.186182
1507.000000	48.155113
1506.000000	48.139743
1505.000000	48.110070
1504.000000	48.091230
1503.000000	48.107449
1502.000000	48.090357
1501.000000	48.068935
1500.000000	48.063314
1499.000000	48.053851
1498.000000	48.058498
1497.000000	48.069035
1496.000000	48.074236
1495.000000	48.066790
1494.000000	48.074080
1493.000000	48.088093
1492.000000	48.113145
1491.000000	48.138389
1490.000000	48.156782
1489.000000	48.187789
1488.000000	48.203230
1487.000000	48.237453
1486.000000	48.252954
1485.000000	48.290903
1484.000000	48.318250
1483.000000	48.354645
1482.000000	48.375455
1481.000000	48.414072
1480.000000	48.441223
1479.000000	48.446703
1478.000000	48.472884
1477.000000	48.497639
1476.000000	48.527258
1475.000000	48.553960
1474.000000	48.584102
1473.000000	48.604217
1472.000000	48.639176
1471.000000	48.673793
1470.000000	48.695044
1469.000000	48.727490
1468.000000	48.759031
1467.000000	48.804441
1466.000000	48.864309
1465.000000	48.887461
1464.000000	48.921711
1463.000000	48.937669
1462.000000	48.990368
1461.000000	49.027454
1460.000000	49.051078
1459.000000	49.118878
1458.000000	49.161818
1457.000000	49.212131
1456.000000	49.256707
1455.000000	49.314027
1454.000000	49.365789
1453.000000	49.406277
1452.000000	49.478454
1451.000000	49.532086
1450.000000	49.583991
1449.000000	49.637397
1448.000000	49.702685
1447.000000	49.778253
1446.000000	49.863151
1445.000000	49.930892
1444.000000	50.002631
1443.000000	50.068295
1442.000000	50.150614
1441.000000	50.239997
1440.000000	50.316001
1439.000000	50.430799
1438.000000	50.542631
1437.000000	50.628040
1436.000000	50.710343
1435.000000	50.807519
1434.000000	50.928773
1433.000000	51.028138
1432.000000	51.145507
1431.000000	51.259440
1430.000000	51.388859
1429.000000	51.519779
1428.000000	51.648868
1427.000000	51.781611
1426.000000	51.923678
1425.000000	52.076855
1424.000000	52.224854
1423.000000	52.389695
1422.000000	52.545061
1421.000000	52.689578
1420.000000	52.863109
1419.000000	53.042979
1418.000000	53.204374
1417.000000	53.375861
1416.000000	53.556403
1415.000000	53.749946
1414.000000	53.935015
1413.000000	54.102524
1412.000000	54.295879
1411.000000	54.496699
1410.000000	54.693370
1409.000000	54.871350
1408.000000	55.052797
1407.000000	55.250204
1406.000000	55.433480
1405.000000	55.592677
1404.000000	55.772781
1403.000000	55.958148
1402.000000	56.142064
1401.000000	56.317524
1400.000000	56.486184
1399.000000	56.655515
1398.000000	56.820526
1397.000000	56.981793
1396.000000	57.135340
1395.000000	57.277545
1394.000000	57.416655
1393.000000	57.545350
1392.000000	57.677666
1391.000000	57.811127
1390.000000	57.936891
1389.000000	58.061008
1388.000000	58.162393
1387.000000	58.265671
1386.000000	58.367379
1385.000000	58.478638
1384.000000	58.608746
1383.000000	58.707884
1382.000000	58.792069
1381.000000	58.893982
1380.000000	58.978677
1379.000000	59.033992
1378.000000	59.102223
1377.000000	59.174816
1376.000000	59.242724
1375.000000	59.307428
1374.000000	59.361460
1373.000000	59.433232
1372.000000	59.500512
1371.000000	59.530315
1370.000000	59.564874
1369.000000	59.617756
1368.000000	59.661049
1367.000000	59.700100
1366.000000	59.744181
1365.000000	59.780330
1364.000000	59.816045
1363.000000	59.873086
1362.000000	59.934742
1361.000000	59.984343
1360.000000	60.024713
1359.000000	60.065241
1358.000000	60.088077
1357.000000	60.151833
1356.000000	60.200014
1355.000000	60.265035
1354.000000	60.303579
1353.000000	60.354404
1352.000000	60.417703
1351.000000	60.485950
1350.000000	60.537276
1349.000000	60.563744
1348.000000	60.604387
1347.000000	60.662073
1346.000000	60.729084
1345.000000	60.789519
1344.000000	60.822317
1343.000000	60.842090
1342.000000	60.882722
1341.000000	60.933980
1340.000000	60.990220
1339.000000	61.012369
1338.000000	61.039313
1337.000000	61.085864
1336.000000	61.144082
1335.000000	61.165657
1334.000000	61.185840
1333.000000	61.225327
1332.000000	61.252633
1331.000000	61.275570
1330.000000	61.310192
1329.000000	61.330086
1328.000000	61.362192
1327.000000	61.356656
1326.000000	61.393421
1325.000000	61.417946
1324.000000	61.435753
1323.000000	61.452632
1322.000000	61.467873
1321.000000	61.504753
1320.000000	61.543405
1319.000000	61.524771
1318.000000	61.527498
1317.000000	61.540272
1316.000000	61.557946
1315.000000	61.598580
1314.000000	61.624505
1313.000000	61.616608
1312.000000	61.600240
1311.000000	61.611292
1310.000000	61.631515
1309.000000	61.666990
1308.000000	61.685699
1307.000000	61.692305
1306.000000	61.704757
1305.000000	61.705118
1304.000000	61.707938
1303.000000	61.722866
1302.000000	61.735077
1301.000000	61.730953
1300.000000	61.734892
1299.000000	61.747078
1298.000000	61.734060
1297.000000	61.731551
1296.000000	61.765868
1295.000000	61.744598
1294.000000	61.766914
1293.000000	61.764447
1292.000000	61.753448
1291.000000	61.737024
1290.000000	61.732357
1289.000000	61.745358
1288.000000	61.730700
1287.000000	61.742461
1286.000000	61.702940
1285.000000	61.700134
1284.000000	61.694696
1283.000000	61.700185
1282.000000	61.707146
1281.000000	61.691857
1280.000000	61.699086
1279.000000	61.693898
1278.000000	61.692567
1277.000000	61.693735
1276.000000	61.684140
1275.000000	61.687573
1274.000000	61.681177
1273.000000	61.671518
1272.000000	61.680098
1271.000000	61.663934
1270.000000	61.672593
1269.000000	61.680052
1268.000000	61.677699
1267.000000	61.671395
1266.000000	61.705958
1265.000000	61.683532
1264.000000	61.680840
1263.000000	61.703388
1262.000000	61.722610
1261.000000	61.721924
1260.000000	61.734773
1259.000000	61.700349
1258.000000	61.707755
1257.000000	61.723076
1256.000000	61.744155
1255.000000	61.707176
1254.000000	61.724401
1253.000000	61.723493
1252.000000	61.745139
1251.000000	61.728191
1250.000000	61.722169
1249.000000	61.700031
1248.000000	61.713434
1247.000000	61.716006
1246.000000	61.705373
1245.000000	61.711839
1244.000000	61.681239
1243.000000	61.675008
1242.000000	61.657342
1241.000000	61.625407
1240.000000	61.573216
1239.000000	61.569807
1238.000000	61.542726
1237.000000	61.493941
1236.000000	61.485161
1235.000000	61.456701
1234.000000	61.436458
1233.000000	61.389691
1232.000000	61.373438
1231.000000	61.368927
1230.000000	61.328683
1229.000000	61.289517
1228.000000	61.257604
1227.000000	61.220336
1226.000000	61.201229
1225.000000	61.186002
1224.000000	61.142023
1223.000000	61.118000
1222.000000	61.090980
1221.000000	61.065193
1220.000000	61.030901
1219.000000	60.999310
1218.000000	60.964319
1217.000000	60.908393
1216.000000	60.909175
1215.000000	60.900565
1214.000000	60.858046
1213.000000	60.827007
1212.000000	60.829527
1211.000000	60.837246
1210.000000	60.777152
1209.000000	60.751739
1208.000000	60.770565
1207.000000	60.766457
1206.000000	60.726530
1205.000000	60.716413
1204.000000	60.690956
1203.000000	60.662198
1202.000000	60.628700
1201.000000	60.641441
1200.000000	60.633531
1199.000000	60.600669
1198.000000	60.587705
1197.000000	60.597666
1196.000000	60.581454
1195.000000	60.571362
1194.000000	60.533583
1193.000000	60.528250
1192.000000	60.526686
1191.000000	60.528158
1190.000000	60.505281
1189.000000	60.466730
1188.000000	60.472563
1187.000000	60.484743
1186.000000	60.480183
1185.000000	60.496669
1184.000000	60.517742
1183.000000	60.518170
1182.000000	60.555036
1181.000000	60.582722
1180.000000	60.594119
1179.000000	60.625219
1178.000000	60.661430
1177.000000	60.697257
1176.000000	60.727397
1175.000000	60.763190
1174.000000	60.814639
1173.000000	60.865385
1172.000000	60.908389
1171.000000	60.944043
1170.000000	60.999207
1169.000000	61.047821
1168.000000	61.089830
1167.000000	61.144068
1166.000000	61.192311
1165.000000	61.239596
1164.000000	61.290870
1163.000000	61.352890
1162.000000	61.398374
1161.000000	61.440476
1160.000000	61.494564
1159.000000	61.541216
1158.000000	61.597541
1157.000000	61.647529
1156.000000	61.680293
1155.000000	61.709648
1154.000000	61.745818
1153.000000	61.790862
1152.000000	61.839295
1151.000000	61.886309
1150.000000	61.915194
1149.000000	61.947789
1148.000000	61.991832
1147.000000	62.026464
1146.000000	62.049958
1145.000000	62.079626
1144.000000	62.108633
1143.000000	62.145659
1142.000000	62.191521
1141.000000	62.219452
1140.000000	62.236111
1139.000000	62.240298
1138.000000	62.259253
1137.000000	62.276405
1136.000000	62.320808
1135.000000	62.357433
1134.000000	62.371246
1133.000000	62.390709
1132.000000	62.420283
1131.000000	62.446110
1130.000000	62.472157
1129.000000	62.483146
1128.000000	62.515118
1127.000000	62.527123
1126.000000	62.516315
1125.000000	62.506057
1124.000000	62.525924
1123.000000	62.544338
1122.000000	62.542135
1121.000000	62.550092
1120.000000	62.564116
1119.000000	62.580558
1118.000000	62.569218
1117.000000	62.575472
1116.000000	62.581875
1115.000000	62.586354
1114.000000	62.593122
1113.000000	62.589059
1112.000000	62.595509
1111.000000	62.593088
1110.000000	62.581385
1109.000000	62.591378
1108.000000	62.591098
1107.000000	62.597504
1106.000000	62.605740
1105.000000	62.596967
1104.000000	62.602435
1103.000000	62.585180
1102.000000	62.564736
1101.000000	62.571103
1100.000000	62.571853
1099.000000	62.572626
1098.000000	62.577371
1097.000000	62.591835
1096.000000	62.577357
1095.000000	62.586300
1094.000000	62.569657
1093.000000	62.554132
1092.000000	62.547373
1091.000000	62.549657
1090.000000	62.563759
1089.000000	62.552626
1088.000000	62.562256
1087.000000	62.543333
1086.000000	62.532484
1085.000000	62.542939
1084.000000	62.522321
1083.000000	62.523488
1082.000000	62.520675
1081.000000	62.522101
1080.000000	62.498734
1079.000000	62.481522
1078.000000	62.464111
1077.000000	62.484357
1076.000000	62.481308
1075.000000	62.481052
1074.000000	62.473465
1073.000000	62.442767
1072.000000	62.429609
1071.000000	62.426831
1070.000000	62.418226
1069.000000	62.402823
1068.000000	62.422329
1067.000000	62.413598
1066.000000	62.403888
1065.000000	62.367780
1064.000000	62.382429
1063.000000	62.372388
1062.000000	62.359234
1061.000000	62.357143
1060.000000	62.345794
1059.000000	62.318780
1058.000000	62.306028
1057.000000	62.307474
1056.000000	62.305214
1055.000000	62.302597
1054.000000	62.303946
1053.000000	62.278607
1052.000000	62.267625
1051.000000	62.248440
1050.000000	62.215976
1049.000000	62.213936
1048.000000	62.199651
1047.000000	62.224979
1046.000000	62.199479
1045.000000	62.201965
1044.000000	62.162269
1043.000000	62.164481
1042.000000	62.169881
1041.000000	62.168976
1040.000000	62.134105
1039.000000	62.137917
1038.000000	62.147193
1037.000000	62.145370
1036.000000	62.131027
1035.000000	62.107522
1034.000000	62.112172
1033.000000	62.107886
1032.000000	62.087134
1031.000000	62.084301
1030.000000	62.068366
1029.000000	62.075337
1028.000000	62.043054
1027.000000	62.037200
1026.000000	62.046833
1025.000000	62.046172
1024.000000	62.001362
1023.000000	62.035550
1022.000000	62.023913
1021.000000	61.988536
1020.000000	61.993706
1019.000000	62.007952
1018.000000	62.006724
1017.000000	61.974023
1016.000000	61.973188
1015.000000	61.959343
1014.000000	61.943285
1013.000000	61.962398
1012.000000	61.962982
1011.000000	61.955525
1010.000000	61.961913
1009.000000	61.959732
1008.000000	61.931056
1007.000000	61.927866
1006.000000	61.918366
1005.000000	61.933165
1004.000000	61.917924
1003.000000	61.908130
1002.000000	61.906656
1001.000000	61.892779
1000.000000	61.877241
999.000000	61.884154
998.000000	61.890071
997.000000	61.893955
996.000000	61.895512
995.000000	61.893281
994.000000	61.905764
993.000000	61.899511
992.000000	61.910551
991.000000	61.907851
990.000000	61.901139
989.000000	61.891771
988.000000	61.880815
987.000000	61.879070
986.000000	61.878352
985.000000	61.881417
984.000000	61.886054
983.000000	61.889154
982.000000	61.879775
981.000000	61.865749
980.000000	61.878259
979.000000	61.884630
978.000000	61.878525
977.000000	61.875428
976.000000	61.872925
975.000000	61.866527
974.000000	61.869336
973.000000	61.863122
972.000000	61.850489
971.000000	61.850316
970.000000	61.851201
969.000000	61.848552
968.000000	61.857914
967.000000	61.851319
966.000000	61.844763
965.000000	61.837234
964.000000	61.835342
963.000000	61.840577
962.000000	61.834110
961.000000	61.826122
960.000000	61.831880
959.000000	61.831620
958.000000	61.825202
957.000000	61.818522
956.000000	61.809271
955.000000	61.805210
954.000000	61.808449
953.000000	61.801989
952.000000	61.795444
951.000000	61.799090
950.000000	61.782213
949.000000	61.780200
948.000000	61.778403
947.000000	61.760302
946.000000	61.754208
945.000000	61.765544
944.000000	61.771805
943.000000	61.742595
942.000000	61.730523
941.000000	61.726603
940.000000	61.726490
939.000000	61.716820
938.000000	61.683314
937.000000	61.659613
936.000000	61.649634
935.000000	61.641188
934.000000	61.650856
933.000000	61.652783
932.000000	61.629635
931.000000	61.598166
930.000000	61.582419
929.000000	61.572195
928.000000	61.555653
927.000000	61.555011
926.000000	61.573256
925.000000	61.556850
924.000000	61.517131
923.000000	61.526388
922.000000	61.533967
921.000000	61.507024
920.000000	61.496387
919.000000	61.504956
918.000000	61.489025
917.000000	61.462481
916.000000	61.437492
915.000000	61.442827
914.000000	61.413490
913.000000	61.404244
912.000000	61.395840
911.000000	61.394784
910.000000	61.375543
909.000000	61.339729
908.000000	61.296443
907.000000	61.298513
906.000000	61.317998
905.000000	61.294789
904.000000	61.294652
903.000000	61.294840
902.000000	61.269829
901.000000	61.272136
900.000000	61.311183
899.000000	61.297132
898.000000	61.219805
897.000000	61.213216
896.000000	61.192999
895.000000	61.232981
894.000000	61.245692
893.000000	61.213033
892.000000	61.193322
891.000000	61.183167
890.000000	61.222524
889.000000	61.207725
888.000000	61.154238
887.000000	61.155941
886.000000	61.114051
885.000000	61.183813
884.000000	61.155285
883.000000	61.119307
882.000000	61.065211
881.000000	61.099273
880.000000	61.079349
879.000000	61.090444
878.000000	60.984279
877.000000	60.970379
876.000000	60.957381
875.000000	60.983262
874.000000	60.989818
873.000000	60.930606
872.000000	60.903493
871.000000	60.951649
870.000000	60.907051
869.000000	60.855956
868.000000	60.834890
867.000000	60.811220
866.000000	60.772925
865.000000	60.750227
864.000000	60.715392
863.000000	60.695714
862.000000	60.725254
861.000000	60.595147
860.000000	60.662501
859.000000	61.206341
858.000000	60.665694
857.000000	61.056422
856.000000	61.099397
855.000000	60.931758
854.000000	60.529924
853.000000	60.558801
852.000000	60.456116
851.000000	60.781952
850.000000	60.789238
849.000000	60.724782
848.000000	60.660769
847.000000	60.539291
846.000000	60.672752
845.000000	60.618329
844.000000	60.435931
843.000000	60.543182
842.000000	60.706667
841.000000	60.474129
840.000000	60.741565
839.000000	60.510755
838.000000	60.280945
837.000000	60.577239
836.000000	60.600043
835.000000	60.302875
834.000000	60.186200
833.000000	60.283624
832.000000	60.352819
831.000000	60.321827
830.000000	60.214531
829.000000	60.162344
828.000000	60.216517
827.000000	60.159186
826.000000	60.136802
825.000000	60.246801
824.000000	59.976847
823.000000	59.927194
822.000000	59.978420
821.000000	59.664222
820.000000	59.944046
819.000000	59.811300
818.000000	59.716552
817.000000	59.708491
816.000000	59.744216
815.000000	59.657188
814.000000	59.671839
813.000000	59.660712
812.000000	59.564031
811.000000	59.604914
810.000000	59.475971
809.000000	59.386621
808.000000	59.481261
807.000000	59.569229
806.000000	59.380107
805.000000	59.367626
804.000000	59.216043
803.000000	59.176109
802.000000	59.334664
801.000000	59.144362
800.000000	59.044648
799.000000	59.061175
798.000000	59.039964
797.000000	59.155673
796.000000	59.045890
795.000000	58.914244
794.000000	58.784929
793.000000	58.842495
792.000000	58.811112
791.000000	58.719697
790.000000	58.703874
789.000000	58.714260
788.000000	58.534119
787.000000	58.543790
786.000000	58.485338
785.000000	58.436313
784.000000	58.471179
783.000000	58.393304
782.000000	58.332059
781.000000	58.365681
780.000000	58.193955
779.000000	58.280454
778.000000	58.146971
777.000000	58.118620
776.000000	58.098435
775.000000	58.041371
774.000000	58.039779
773.000000	57.864749
772.000000	57.832768
771.000000	57.819782
770.000000	57.691839
769.000000	57.723882
768.000000	57.650656
767.000000	57.612096
766.000000	57.489748
765.000000	57.384866
764.000000	57.419830
763.000000	57.430014
762.000000	57.299202
761.000000	57.251206
760.000000	57.245278
759.000000	57.161441
758.000000	57.097854
757.000000	57.085255
756.000000	56.957665
755.000000	56.954886
754.000000	56.905380
753.000000	56.800447
752.000000	56.671954
751.000000	56.649095
750.000000	56.620549
749.000000	56.554841
748.000000	56.407147
747.000000	56.411929
746.000000	56.418243
745.000000	56.335021
744.000000	56.238308
743.000000	56.157555
742.000000	56.133635
741.000000	56.017175
740.000000	55.963379
739.000000	55.831969
738.000000	55.690300
737.000000	55.690820
736.000000	55.705130
735.000000	55.598597
734.000000	55.498763
733.000000	55.410088
732.000000	55.320148
731.000000	55.301687
730.000000	55.255302
729.000000	55.103677
728.000000	55.026135
727.000000	54.996661
726.000000	54.963477
725.000000	54.885059
724.000000	54.784099
723.000000	54.665145
722.000000	54.578789
721.000000	54.511915
720.000000	54.439979
719.000000	54.341385
718.000000	54.265165
717.000000	54.175116
716.000000	54.109723
715.000000	54.039017
714.000000	53.993607
713.000000	53.938226
712.000000	53.814940
711.000000	53.754813
710.000000	53.643752
709.000000	53.550816
708.000000	53.529172
707.000000	53.442491
706.000000	53.305742
705.000000	53.189699
704.000000	53.100946
703.000000	52.993365
702.000000	52.871203
701.000000	52.757012
700.000000	52.694030
699.000000	52.625197
698.000000	52.541570
697.000000	52.492511
696.000000	52.380709
695.000000	52.290000
694.000000	52.199347
693.000000	52.027698
692.000000	51.923304
691.000000	51.845839
690.000000	51.770203
689.000000	51.646371
688.000000	51.543113
687.000000	51.429538
686.000000	51.299702
685.000000	51.222040
684.000000	51.136001
683.000000	51.073881
682.000000	50.916224
681.000000	50.788680
680.000000	50.718447
679.000000	50.645136
678.000000	50.524420
677.000000	50.369995
676.000000	50.285018
675.000000	50.191528
674.000000	50.038757
673.000000	49.964430
672.000000	49.878154
671.000000	49.707741
670.000000	49.576697
669.000000	49.499321
668.000000	49.367492
667.000000	49.303156
666.000000	49.177621
665.000000	49.029559
664.000000	48.947136
663.000000	48.836865
662.000000	48.649941
661.000000	48.545358
660.000000	48.480633
659.000000	48.340030
658.000000	48.234906
657.000000	48.103276
656.000000	47.972510
655.000000	47.836412
654.000000	47.682852
653.000000	47.581372
652.000000	47.455372
651.000000	47.322353
650.000000	47.202937
649.000000	47.089655
648.000000	46.940868
647.000000	46.858228
646.000000	46.763947
645.000000	46.596877
644.000000	46.421765
643.000000	46.304108
642.000000	46.186843
641.000000	46.067835
640.000000	45.929285
639.000000	45.801522
638.000000	45.661140
637.000000	45.519382
636.000000	45.382089
635.000000	45.192810
634.000000	45.101310
633.000000	44.954229
632.000000	44.838415
631.000000	44.701594
630.000000	44.593962
629.000000	44.425308
628.000000	44.305313
627.000000	44.111967
626.000000	43.949687
625.000000	43.852136
624.000000	43.718507
623.000000	43.548429
622.000000	43.440142
621.000000	43.291988
620.000000	43.097881
619.000000	42.950449
618.000000	42.856205
617.000000	42.672917
616.000000	42.536939
615.000000	42.412351
614.000000	42.229523
613.000000	42.058552
612.000000	41.953608
611.000000	41.801363
610.000000	41.633581
609.000000	41.521908
608.000000	41.342066
607.000000	41.224071
606.000000	41.066923
605.000000	40.915991
604.000000	40.735035
603.000000	40.605412
602.000000	40.403788
601.000000	40.305693
600.000000	40.121175
599.000000	40.003633
598.000000	39.790788
597.000000	39.684262
596.000000	39.485053
595.000000	39.348577
594.000000	39.158526
593.000000	39.029669
592.000000	38.844447
591.000000	38.731188
590.000000	38.556939
589.000000	38.375858
588.000000	38.200884
587.000000	38.066610
586.000000	37.911264
585.000000	37.758534
584.000000	37.578991
583.000000	37.435223
582.000000	37.287231
581.000000	37.081149
580.000000	36.945705
579.000000	36.787218
578.000000	36.598936
577.000000	36.442750
576.000000	36.244164
575.000000	36.093842
574.000000	35.927153
573.000000	35.739378
572.000000	35.567413
571.000000	35.431406
570.000000	35.241582
569.000000	35.105217
568.000000	34.922672
567.000000	34.718727
566.000000	34.553047
565.000000	34.398137
564.000000	34.242130
563.000000	34.047058
562.000000	33.875840
561.000000	33.652007
560.000000	33.455868
559.000000	33.326161
558.000000	33.178574
557.000000	32.964802
556.000000	32.795113
555.000000	32.630573
554.000000	32.424754
553.000000	32.289273
552.000000	32.093740
551.000000	31.935510
550.000000	31.748281
549.000000	31.563130
548.000000	31.403796
547.000000	31.235290
546.000000	31.045469
545.000000	30.869124
544.000000	30.675181
543.000000	30.524609
542.000000	30.326254
541.000000	30.178517
540.000000	30.010656
539.000000	29.819660
538.000000	29.642684
537.000000	29.469527
536.000000	29.297960
535.000000	29.124571
534.000000	28.929462
533.000000	28.761804
532.000000	28.600960
531.000000	28.414697
530.000000	28.245065
529.000000	28.084468
528.000000	27.903580
527.000000	27.728040
526.000000	27.561387
525.000000	27.378971
524.000000	27.186153
523.000000	27.016561
522.000000	26.847751
521.000000	26.690132
520.000000	26.509942
519.000000	26.337142
518.000000	26.161696
517.000000	25.999537
516.000000	25.817774
515.000000	25.656703
514.000000	25.504179
513.000000	25.320174
512.000000	25.137336
511.000000	24.983269
510.000000	24.815554
509.000000	24.631238
508.000000	24.471409
507.000000	24.294587
506.000000	24.115202
505.000000	23.959184
504.000000	23.775391
503.000000	23.622872
502.000000	23.450606
501.000000	23.273271
500.000000	23.092244
499.000000	22.943832
498.000000	22.780404
497.000000	22.581074
496.000000	22.422695
495.000000	22.265042
494.000000	22.109736
493.000000	21.937303
492.000000	21.783301
491.000000	21.614997
490.000000	21.431432
489.000000	21.269455
488.000000	21.107478
487.000000	20.946412
486.000000	20.785078
485.000000	20.625907
484.000000	20.470118
483.000000	20.341448
482.000000	20.194657
481.000000	20.010086
480.000000	19.861246
479.000000	19.729960
478.000000	19.560064
477.000000	19.400126
476.000000	19.249109
475.000000	19.096496
474.000000	18.950585
473.000000	18.812896
472.000000	18.668496
471.000000	18.513599
470.000000	18.366826
469.000000	18.218549
468.000000	18.076872
467.000000	17.930230
466.000000	17.780701
465.000000	17.645347
464.000000	17.498687
463.000000	17.357082
462.000000	17.216281
461.000000	17.070383
460.000000	16.913392
459.000000	16.763023
458.000000	16.601271
457.000000	16.445643
456.000000	16.310848
455.000000	16.175948
454.000000	16.023664
453.000000	15.860043
452.000000	15.724094
451.000000	15.585225
450.000000	15.436274
449.000000	15.289028
448.000000	15.140164
447.000000	14.997061
446.000000	14.858918
445.000000	14.730444
444.000000	14.596504
443.000000	14.448371
442.000000	14.327093
441.000000	14.211432
440.000000	14.096411
439.000000	13.970910
438.000000	13.843863
437.000000	13.723967
436.000000	13.619751
435.000000	13.508649
434.000000	13.391939
433.000000	13.274987
432.000000	13.158778
431.000000	13.037742
430.000000	12.937064
429.000000	12.834267
428.000000	12.710218
427.000000	12.589614
426.000000	12.493418
425.000000	12.395034
424.000000	12.282545
423.000000	12.177137
422.000000	12.056134
421.000000	11.944912
420.000000	11.844681
419.000000	11.753047
418.000000	11.650401
417.000000	11.533611
416.000000	11.443639
415.000000	11.356551
414.000000	11.264993
413.000000	11.150588
412.000000	11.054652
411.000000	10.985835
410.000000	10.891442
409.000000	10.794284
408.000000	10.697985
407.000000	10.597192
406.000000	10.532945
405.000000	10.427848
404.000000	10.346088
403.000000	10.249414
402.000000	10.171755
401.000000	10.074560
400.000000	10.012626
399.000000	9.915095
398.000000	9.848061
397.000000	9.779762
396.000000	9.689280
395.000000	9.623436
394.000000	9.556373
393.000000	9.470943
392.000000	9.385738
391.000000	9.331566
390.000000	9.268154
389.000000	9.210555
388.000000	9.124869
387.000000	9.052477
386.000000	8.984554
385.000000	8.915651
384.000000	8.874888
383.000000	8.816893
382.000000	8.754094
381.000000	8.698085
380.000000	8.621563
379.000000	8.554721
378.000000	8.558087
377.000000	8.501902
376.000000	8.472161
375.000000	8.413274
374.000000	8.345975
373.000000	8.263109
372.000000	8.208755
371.000000	8.170183
370.000000	8.132193
369.000000	8.074317
368.000000	8.028631
367.000000	7.989152
366.000000	7.921944
365.000000	7.956806
364.000000	7.897294
363.000000	7.849437
362.000000	7.823516
361.000000	7.768823
360.000000	7.737730
359.000000	7.654939
358.000000	7.663058
357.000000	7.574951
356.000000	7.620793
355.000000	7.583074
354.000000	7.551934
353.000000	7.482301
352.000000	7.467735
351.000000	7.457449
350.000000	7.366620
349.000000	7.383606
348.000000	7.369817
347.000000	7.277918
346.000000	7.285902
345.000000	7.308258
344.000000	7.214675
343.000000	7.208246
342.000000	7.186920
341.000000	7.168770
340.000000	7.155684
339.000000	7.137662
338.000000	7.085082
337.000000	7.081317
336.000000	7.087506
335.000000	7.039137
334.000000	7.033288
333.000000	7.017128
332.000000	7.022552
331.000000	7.034797
330.000000	7.005788
329.000000	6.982674
328.000000	6.915123
327.000000	6.876546
326.000000	6.920375
325.000000	6.914158
324.000000	6.924586
323.000000	6.957016
322.000000	6.896369
321.000000	6.942695
320.000000	6.929037
319.000000	6.906993
318.000000	6.910131
317.000000	6.836033
316.000000	6.884436
315.000000	6.932214
314.000000	6.929174
313.000000	6.893427
312.000000	6.933105
311.000000	6.952382
310.000000	6.941269
309.000000	6.936884
308.000000	6.905209
307.000000	6.977626
306.000000	6.929765
305.000000	6.977637
304.000000	6.929722
303.000000	7.004930
302.000000	7.031019
301.000000	7.047269
300.000000	7.031465
299.000000	7.042730
298.000000	7.096789
297.000000	7.075353
296.000000	7.071122
295.000000	7.102150
294.000000	7.118053
293.000000	7.147838
292.000000	7.139124
291.000000	7.247102
290.000000	7.214483
289.000000	7.220365
288.000000	7.212986
287.000000	7.252763
286.000000	7.222793
285.000000	7.257104
284.000000	7.297795
283.000000	7.334695
282.000000	7.354775
281.000000	7.366341
280.000000	7.406259
279.000000	7.483073
278.000000	7.522067
277.000000	7.496143
276.000000	7.547175
275.000000	7.628911
274.000000	7.678829
273.000000	7.682690
272.000000	7.711985
271.000000	7.794541
270.000000	7.843838
269.000000	7.865996
268.000000	7.914842
267.000000	7.978958
266.000000	8.078862
265.000000	8.118906
264.000000	8.131826
263.000000	8.206455
262.000000	8.280065
261.000000	8.358536
260.000000	8.438850
259.000000	8.507963
258.000000	8.601658
257.000000	8.665242
256.000000	8.769483
255.000000	8.816776
254.000000	8.932216
253.000000	9.047414
252.000000	9.145535
251.000000	9.247459
250.000000	9.423614
249.000000	9.540257
248.000000	9.581630
247.000000	9.708277
246.000000	9.881682
245.000000	10.016774
244.000000	10.119911
243.000000	10.216382
242.000000	10.332738
241.000000	10.516047
240.000000	10.627168
239.000000	10.667493
238.000000	10.805984
237.000000	10.966817
236.000000	11.078315
235.000000	11.184297
234.000000	11.269269
233.000000	11.382512
232.000000	11.518578
231.000000	11.557896
230.000000	11.675576
229.000000	11.842640
228.000000	11.938285
227.000000	12.026971
226.000000	12.190147
225.000000	12.305241
224.000000	12.443506
223.000000	12.561065
222.000000	12.773238
221.000000	12.949182
220.000000	13.100445
219.000000	13.241088
218.000000	13.398136
217.000000	13.709873
216.000000	13.878243
215.000000	14.105366
214.000000	14.413880
213.000000	14.614734
212.000000	15.004964
211.000000	15.423808
210.000000	15.662194
209.000000	15.981170
208.000000	16.435539
207.000000	17.058255
206.000000	17.624921
205.000000	17.966620
204.000000	18.525371
203.000000	19.245454
202.000000	19.784670
201.000000	20.382925
200.000000	21.280922
