PE UV       SUBTECH     SPECTRUM    ASCII       PEDS        4.00        
   -1
TDmsmeh81.Sample.asc
18/03/14
10:05:53.00
18/03/14
10:05:53.00
Administrator

200.000000
1
Lambda 750
750N8071901
PerkinElmer UV WinLab 6.0.4.0738 / 1.61.00 Lambda 900

0
0
3350/servo 860.8/2
0
0
UV/VIS
1
1
1
CommonBeamDepol,150mm sphere / downward view
0
0
0
0
Program
Program
3350/servo 860.8/2
3350/0.2 860.8/0.2
3350/0.2 860.8/0.2
0
1
 
 
 
0
 
860.8
319.2
860.8
Front
100
on
 
 
0
0
0
 
0
 
 
 
0
 
 
0
0
0
0
0
 
 
 
 
0
0


0
0
#HDR
-1
-1
#GR
nm
%T
1.0
0.0
2350.000000
-1.000000
2151
8
15.067609
-0.001958
#DATA
2350.000000	9.478376
2349.000000	9.184987
2348.000000	8.917831
2347.000000	9.829784
2346.000000	9.338949
2345.000000	9.593711
2344.000000	8.924655
2343.000000	9.205832
2342.000000	9.260803
2341.000000	9.704883
2340.000000	9.712608
2339.000000	10.206128
2338.000000	9.829254
2337.000000	9.885101
2336.000000	10.080098
2335.000000	10.376220
2334.000000	10.013483
2333.000000	10.011547
2332.000000	10.108810
2331.000000	10.397647
2330.000000	10.363871
2329.000000	9.978722
2328.000000	10.281976
2327.000000	10.162195
2326.000000	9.991464
2325.000000	10.032298
2324.000000	10.010290
2323.000000	9.758978
2322.000000	9.705375
2321.000000	9.788533
2320.000000	9.996005
2319.000000	9.565859
2318.000000	9.930438
2317.000000	9.759022
2316.000000	9.644683
2315.000000	9.691675
2314.000000	9.639130
2313.000000	9.473818
2312.000000	9.310833
2311.000000	9.481944
2310.000000	9.521517
2309.000000	9.381899
2308.000000	9.434355
2307.000000	9.433998
2306.000000	9.383863
2305.000000	9.426347
2304.000000	9.508712
2303.000000	9.573059
2302.000000	9.403280
2301.000000	9.360845
2300.000000	9.368954
2299.000000	9.066764
2298.000000	8.996026
2297.000000	9.018474
2296.000000	9.241412
2295.000000	9.085514
2294.000000	9.038410
2293.000000	9.055214
2292.000000	9.216396
2291.000000	9.324486
2290.000000	9.259744
2289.000000	9.088333
2288.000000	9.019342
2287.000000	9.111743
2286.000000	9.095060
2285.000000	9.141655
2284.000000	9.015434
2283.000000	8.973603
2282.000000	9.121160
2281.000000	9.114135
2280.000000	9.067707
2279.000000	9.151375
2278.000000	9.060325
2277.000000	8.947096
2276.000000	9.059375
2275.000000	9.066510
2274.000000	9.015156
2273.000000	9.100329
2272.000000	9.201545
2271.000000	9.178638
2270.000000	9.086865
2269.000000	9.194211
2268.000000	9.154726
2267.000000	9.140545
2266.000000	9.362655
2265.000000	9.438069
2264.000000	9.498469
2263.000000	9.443743
2262.000000	9.404501
2261.000000	9.470891
2260.000000	9.547759
2259.000000	9.682543
2258.000000	9.740038
2257.000000	9.787879
2256.000000	9.830365
2255.000000	9.830622
2254.000000	9.896854
2253.000000	9.993030
2252.000000	10.018170
2251.000000	10.097529
2250.000000	10.103450
2249.000000	10.219812
2248.000000	10.394655
2247.000000	10.449168
2246.000000	10.423364
2245.000000	10.469171
2244.000000	10.639243
2243.000000	10.674701
2242.000000	10.667085
2241.000000	10.763385
2240.000000	10.825572
2239.000000	10.822400
2238.000000	10.829221
2237.000000	10.867251
2236.000000	10.904912
2235.000000	11.031119
2234.000000	11.101545
2233.000000	10.962125
2232.000000	10.871278
2231.000000	10.906465
2230.000000	10.931943
2229.000000	10.878965
2228.000000	10.837118
2227.000000	10.995435
2226.000000	11.068400
2225.000000	10.982197
2224.000000	11.061705
2223.000000	11.050688
2222.000000	10.953522
2221.000000	10.889766
2220.000000	10.942217
2219.000000	10.859733
2218.000000	10.846385
2217.000000	10.842317
2216.000000	10.936011
2215.000000	10.959930
2214.000000	10.906428
2213.000000	10.837718
2212.000000	10.856872
2211.000000	10.789867
2210.000000	10.744084
2209.000000	10.760362
2208.000000	10.676355
2207.000000	10.684063
2206.000000	10.621259
2205.000000	10.591194
2204.000000	10.610942
2203.000000	10.667926
2202.000000	10.630322
2201.000000	10.560701
2200.000000	10.569082
2199.000000	10.534685
2198.000000	10.618787
2197.000000	10.588009
2196.000000	10.527322
2195.000000	10.538003
2194.000000	10.363269
2193.000000	10.283977
2192.000000	10.345172
2191.000000	10.189427
2190.000000	10.143635
2189.000000	10.169253
2188.000000	10.105119
2187.000000	10.064874
2186.000000	10.156069
2185.000000	10.182563
2184.000000	10.095872
2183.000000	10.097592
2182.000000	10.280492
2181.000000	10.192282
2180.000000	10.179578
2179.000000	10.149803
2178.000000	10.148905
2177.000000	10.144635
2176.000000	10.181053
2175.000000	10.162402
2174.000000	10.043062
2173.000000	10.056759
2172.000000	10.122722
2171.000000	10.149098
2170.000000	10.267315
2169.000000	10.408201
2168.000000	10.378445
2167.000000	10.275256
2166.000000	10.411308
2165.000000	10.141932
2164.000000	10.187361
2163.000000	10.281318
2162.000000	10.427562
2161.000000	10.423720
2160.000000	10.466313
2159.000000	10.474766
2158.000000	10.485760
2157.000000	10.671663
2156.000000	10.808488
2155.000000	10.769249
2154.000000	10.829823
2153.000000	10.763527
2152.000000	10.750949
2151.000000	10.869062
2150.000000	10.928225
2149.000000	10.912944
2148.000000	10.981573
2147.000000	10.972660
2146.000000	11.147628
2145.000000	11.176821
2144.000000	11.143142
2143.000000	11.099018
2142.000000	11.030603
2141.000000	11.219769
2140.000000	11.210918
2139.000000	11.071193
2138.000000	11.469812
2137.000000	11.530961
2136.000000	11.291734
2135.000000	11.388744
2134.000000	11.521731
2133.000000	11.295826
2132.000000	11.455876
2131.000000	11.635523
2130.000000	11.516360
2129.000000	11.535232
2128.000000	11.520164
2127.000000	11.620016
2126.000000	11.524561
2125.000000	11.535850
2124.000000	11.345929
2123.000000	11.551352
2122.000000	11.500820
2121.000000	11.497846
2120.000000	11.612845
2119.000000	11.629968
2118.000000	11.539216
2117.000000	11.559985
2116.000000	11.625140
2115.000000	11.671541
2114.000000	11.665201
2113.000000	11.626515
2112.000000	11.620089
2111.000000	11.558724
2110.000000	11.611095
2109.000000	11.617647
2108.000000	11.576428
2107.000000	11.640929
2106.000000	11.450205
2105.000000	11.606079
2104.000000	11.589538
2103.000000	11.621647
2102.000000	11.634486
2101.000000	11.641173
2100.000000	11.577738
2099.000000	11.656761
2098.000000	11.722605
2097.000000	11.653694
2096.000000	11.533281
2095.000000	11.639376
2094.000000	11.627360
2093.000000	11.586723
2092.000000	11.534482
2091.000000	11.481008
2090.000000	11.459544
2089.000000	11.416213
2088.000000	11.432556
2087.000000	11.505574
2086.000000	11.632471
2085.000000	11.509695
2084.000000	11.498060
2083.000000	11.467914
2082.000000	11.414961
2081.000000	11.321229
2080.000000	11.314766
2079.000000	11.269303
2078.000000	11.200228
2077.000000	11.269276
2076.000000	11.232148
2075.000000	11.251405
2074.000000	11.198127
2073.000000	11.216735
2072.000000	11.147327
2071.000000	11.109854
2070.000000	10.992421
2069.000000	10.962462
2068.000000	10.903214
2067.000000	10.783621
2066.000000	10.748036
2065.000000	10.737440
2064.000000	10.706292
2063.000000	10.578604
2062.000000	10.499104
2061.000000	10.469464
2060.000000	10.471511
2059.000000	10.445978
2058.000000	10.400330
2057.000000	10.378246
2056.000000	10.376155
2055.000000	10.338675
2054.000000	10.271808
2053.000000	10.256392
2052.000000	10.148795
2051.000000	10.078733
2050.000000	10.028376
2049.000000	10.054594
2048.000000	10.015302
2047.000000	9.982554
2046.000000	9.993823
2045.000000	9.946136
2044.000000	9.938233
2043.000000	9.950054
2042.000000	9.918509
2041.000000	9.996744
2040.000000	10.030642
2039.000000	9.992782
2038.000000	9.993347
2037.000000	9.966434
2036.000000	9.962060
2035.000000	9.997704
2034.000000	10.039082
2033.000000	10.083898
2032.000000	10.136262
2031.000000	10.172415
2030.000000	10.206724
2029.000000	10.235432
2028.000000	10.285013
2027.000000	10.310210
2026.000000	10.340513
2025.000000	10.350389
2024.000000	10.367832
2023.000000	10.380058
2022.000000	10.318046
2021.000000	10.324194
2020.000000	10.371837
2019.000000	10.360880
2018.000000	10.323396
2017.000000	10.306950
2016.000000	10.348574
2015.000000	10.378294
2014.000000	10.340022
2013.000000	10.276910
2012.000000	10.229668
2011.000000	10.234792
2010.000000	10.233938
2009.000000	10.205206
2008.000000	10.164576
2007.000000	10.123248
2006.000000	10.092545
2005.000000	10.046747
2004.000000	10.018943
2003.000000	10.013436
2002.000000	9.993322
2001.000000	9.947581
2000.000000	9.862289
1999.000000	9.841174
1998.000000	9.823448
1997.000000	9.717455
1996.000000	9.733033
1995.000000	9.722383
1994.000000	9.662994
1993.000000	9.582951
1992.000000	9.527227
1991.000000	9.495434
1990.000000	9.458576
1989.000000	9.433517
1988.000000	9.429291
1987.000000	9.405597
1986.000000	9.376818
1985.000000	9.268847
1984.000000	9.248058
1983.000000	9.221783
1982.000000	9.169460
1981.000000	9.148991
1980.000000	9.130242
1979.000000	9.043507
1978.000000	9.060948
1977.000000	8.982735
1976.000000	8.953513
1975.000000	8.940069
1974.000000	8.904253
1973.000000	8.876656
1972.000000	8.837226
1971.000000	8.798496
1970.000000	8.727057
1969.000000	8.702309
1968.000000	8.645649
1967.000000	8.650895
1966.000000	8.657863
1965.000000	8.594979
1964.000000	8.541526
1963.000000	8.541105
1962.000000	8.448945
1961.000000	8.419405
1960.000000	8.400749
1959.000000	8.387551
1958.000000	8.394621
1957.000000	8.310971
1956.000000	8.296380
1955.000000	8.239995
1954.000000	8.286010
1953.000000	8.272262
1952.000000	8.262907
1951.000000	8.255331
1950.000000	8.214245
1949.000000	8.204028
1948.000000	8.202348
1947.000000	8.111131
1946.000000	8.133761
1945.000000	8.174341
1944.000000	8.203285
1943.000000	8.281376
1942.000000	8.308488
1941.000000	8.280833
1940.000000	8.261327
1939.000000	8.315735
1938.000000	8.381711
1937.000000	8.362965
1936.000000	8.426385
1935.000000	8.446582
1934.000000	8.449488
1933.000000	8.471345
1932.000000	8.450884
1931.000000	8.567990
1930.000000	8.593123
1929.000000	8.597229
1928.000000	8.799792
1927.000000	8.792707
1926.000000	8.895199
1925.000000	8.922459
1924.000000	9.089907
1923.000000	9.200751
1922.000000	9.211018
1921.000000	9.240564
1920.000000	9.427621
1919.000000	9.432922
1918.000000	9.556342
1917.000000	9.631182
1916.000000	9.703586
1915.000000	9.940735
1914.000000	10.062754
1913.000000	10.160438
1912.000000	10.348454
1911.000000	10.360459
1910.000000	10.375756
1909.000000	10.611711
1908.000000	10.715565
1907.000000	10.795836
1906.000000	11.012766
1905.000000	11.098589
1904.000000	11.278555
1903.000000	11.416720
1902.000000	11.486867
1901.000000	11.707704
1900.000000	11.799393
1899.000000	11.941181
1898.000000	12.122304
1897.000000	12.242503
1896.000000	12.370269
1895.000000	12.499734
1894.000000	12.584033
1893.000000	12.721982
1892.000000	12.838172
1891.000000	12.970184
1890.000000	13.054547
1889.000000	13.177191
1888.000000	13.264801
1887.000000	13.437331
1886.000000	13.526431
1885.000000	13.640735
1884.000000	13.728110
1883.000000	13.847276
1882.000000	13.932767
1881.000000	14.013525
1880.000000	14.114662
1879.000000	14.152283
1878.000000	14.216891
1877.000000	14.250711
1876.000000	14.297791
1875.000000	14.423274
1874.000000	14.517701
1873.000000	14.515868
1872.000000	14.554158
1871.000000	14.640400
1870.000000	14.719803
1869.000000	14.693430
1868.000000	14.726304
1867.000000	14.740349
1866.000000	14.771706
1865.000000	14.753091
1864.000000	14.775000
1863.000000	14.761840
1862.000000	14.796763
1861.000000	14.790807
1860.000000	14.795190
1859.000000	14.803187
1858.000000	14.832421
1857.000000	14.832371
1856.000000	14.796997
1855.000000	14.799655
1854.000000	14.833096
1853.000000	14.842179
1852.000000	14.835187
1851.000000	14.833014
1850.000000	14.852596
1849.000000	14.843902
1848.000000	14.836943
1847.000000	14.805966
1846.000000	14.807227
1845.000000	14.801242
1844.000000	14.805533
1843.000000	14.797633
1842.000000	14.797858
1841.000000	14.816623
1840.000000	14.795255
1839.000000	14.763410
1838.000000	14.763489
1837.000000	14.739701
1836.000000	14.730656
1835.000000	14.703402
1834.000000	14.701177
1833.000000	14.704359
1832.000000	14.670637
1831.000000	14.622785
1830.000000	14.608655
1829.000000	14.600833
1828.000000	14.571241
1827.000000	14.549456
1826.000000	14.578509
1825.000000	14.553998
1824.000000	14.528411
1823.000000	14.519821
1822.000000	14.499319
1821.000000	14.503087
1820.000000	14.482259
1819.000000	14.449494
1818.000000	14.457907
1817.000000	14.450024
1816.000000	14.435234
1815.000000	14.428017
1814.000000	14.418081
1813.000000	14.391227
1812.000000	14.381146
1811.000000	14.384072
1810.000000	14.372694
1809.000000	14.369815
1808.000000	14.361451
1807.000000	14.327217
1806.000000	14.310028
1805.000000	14.294288
1804.000000	14.298517
1803.000000	14.296490
1802.000000	14.278443
1801.000000	14.265772
1800.000000	14.258165
1799.000000	14.264229
1798.000000	14.262653
1797.000000	14.256974
1796.000000	14.251041
1795.000000	14.250838
1794.000000	14.267474
1793.000000	14.233549
1792.000000	14.220461
1791.000000	14.219554
1790.000000	14.219348
1789.000000	14.234658
1788.000000	14.224848
1787.000000	14.208649
1786.000000	14.213156
1785.000000	14.220017
1784.000000	14.199096
1783.000000	14.196662
1782.000000	14.212210
1781.000000	14.216845
1780.000000	14.221945
1779.000000	14.197607
1778.000000	14.170354
1777.000000	14.154940
1776.000000	14.164154
1775.000000	14.157371
1774.000000	14.140876
1773.000000	14.138629
1772.000000	14.117154
1771.000000	14.112495
1770.000000	14.084734
1769.000000	14.051603
1768.000000	14.045951
1767.000000	14.026136
1766.000000	13.997333
1765.000000	13.996598
1764.000000	13.998174
1763.000000	13.969362
1762.000000	13.938986
1761.000000	13.921169
1760.000000	13.913157
1759.000000	13.906251
1758.000000	13.898201
1757.000000	13.879765
1756.000000	13.858227
1755.000000	13.845127
1754.000000	13.840580
1753.000000	13.830104
1752.000000	13.809258
1751.000000	13.785180
1750.000000	13.771335
1749.000000	13.797713
1748.000000	13.783378
1747.000000	13.736065
1746.000000	13.725214
1745.000000	13.694917
1744.000000	13.689094
1743.000000	13.692090
1742.000000	13.653164
1741.000000	13.624052
1740.000000	13.608230
1739.000000	13.606080
1738.000000	13.581680
1737.000000	13.599749
1736.000000	13.580485
1735.000000	13.566192
1734.000000	13.584120
1733.000000	13.566324
1732.000000	13.538833
1731.000000	13.540304
1730.000000	13.567837
1729.000000	13.576614
1728.000000	13.578656
1727.000000	13.593541
1726.000000	13.613293
1725.000000	13.634667
1724.000000	13.629570
1723.000000	13.663991
1722.000000	13.657332
1721.000000	13.682517
1720.000000	13.708394
1719.000000	13.736359
1718.000000	13.750839
1717.000000	13.770107
1716.000000	13.777669
1715.000000	13.797236
1714.000000	13.817530
1713.000000	13.844246
1712.000000	13.888959
1711.000000	13.869696
1710.000000	13.905818
1709.000000	13.901262
1708.000000	13.908897
1707.000000	13.928672
1706.000000	13.935580
1705.000000	13.942575
1704.000000	13.954248
1703.000000	13.930899
1702.000000	13.963725
1701.000000	13.926893
1700.000000	13.953564
1699.000000	13.915943
1698.000000	13.987909
1697.000000	14.004947
1696.000000	13.998399
1695.000000	13.975554
1694.000000	14.001249
1693.000000	14.020694
1692.000000	14.010954
1691.000000	14.045525
1690.000000	14.029683
1689.000000	14.056106
1688.000000	14.076569
1687.000000	14.092021
1686.000000	14.125324
1685.000000	14.188265
1684.000000	14.196600
1683.000000	14.212969
1682.000000	14.272317
1681.000000	14.290465
1680.000000	14.293666
1679.000000	14.344896
1678.000000	14.379478
1677.000000	14.409631
1676.000000	14.416727
1675.000000	14.469267
1674.000000	14.492351
1673.000000	14.535186
1672.000000	14.561346
1671.000000	14.601333
1670.000000	14.618566
1669.000000	14.615083
1668.000000	14.631823
1667.000000	14.694655
1666.000000	14.675065
1665.000000	14.676925
1664.000000	14.695719
1663.000000	14.675791
1662.000000	14.695340
1661.000000	14.743317
1660.000000	14.750600
1659.000000	14.767490
1658.000000	14.779360
1657.000000	14.786449
1656.000000	14.808905
1655.000000	14.826668
1654.000000	14.816184
1653.000000	14.818218
1652.000000	14.824120
1651.000000	14.814218
1650.000000	14.806875
1649.000000	14.796420
1648.000000	14.782677
1647.000000	14.790977
1646.000000	14.790596
1645.000000	14.766491
1644.000000	14.783577
1643.000000	14.757416
1642.000000	14.753786
1641.000000	14.754170
1640.000000	14.761939
1639.000000	14.733765
1638.000000	14.727115
1637.000000	14.720847
1636.000000	14.700454
1635.000000	14.697615
1634.000000	14.681835
1633.000000	14.658321
1632.000000	14.670855
1631.000000	14.644430
1630.000000	14.639728
1629.000000	14.637470
1628.000000	14.607427
1627.000000	14.593347
1626.000000	14.580003
1625.000000	14.573458
1624.000000	14.570238
1623.000000	14.564432
1622.000000	14.549308
1621.000000	14.528404
1620.000000	14.517595
1619.000000	14.514387
1618.000000	14.506536
1617.000000	14.481876
1616.000000	14.458040
1615.000000	14.449566
1614.000000	14.429645
1613.000000	14.420834
1612.000000	14.423349
1611.000000	14.391784
1610.000000	14.368932
1609.000000	14.349188
1608.000000	14.343599
1607.000000	14.341430
1606.000000	14.319632
1605.000000	14.308043
1604.000000	14.296728
1603.000000	14.276742
1602.000000	14.263543
1601.000000	14.240617
1600.000000	14.216296
1599.000000	14.203612
1598.000000	14.182667
1597.000000	14.168690
1596.000000	14.176591
1595.000000	14.168615
1594.000000	14.142880
1593.000000	14.138287
1592.000000	14.133091
1591.000000	14.109323
1590.000000	14.093268
1589.000000	14.084580
1588.000000	14.066295
1587.000000	14.052512
1586.000000	14.040934
1585.000000	14.029729
1584.000000	14.025254
1583.000000	14.018507
1582.000000	14.002546
1581.000000	13.990545
1580.000000	13.977375
1579.000000	13.958726
1578.000000	13.951401
1577.000000	13.935637
1576.000000	13.911825
1575.000000	13.915093
1574.000000	13.910561
1573.000000	13.894394
1572.000000	13.883046
1571.000000	13.876945
1570.000000	13.867203
1569.000000	13.852374
1568.000000	13.846880
1567.000000	13.838443
1566.000000	13.825231
1565.000000	13.806250
1564.000000	13.792007
1563.000000	13.796739
1562.000000	13.804083
1561.000000	13.795712
1560.000000	13.789252
1559.000000	13.763822
1558.000000	13.745883
1557.000000	13.732883
1556.000000	13.736939
1555.000000	13.735587
1554.000000	13.724462
1553.000000	13.710512
1552.000000	13.693981
1551.000000	13.676660
1550.000000	13.669830
1549.000000	13.664762
1548.000000	13.653833
1547.000000	13.641647
1546.000000	13.620434
1545.000000	13.588822
1544.000000	13.570501
1543.000000	13.534020
1542.000000	13.518743
1541.000000	13.505091
1540.000000	13.479374
1539.000000	13.444343
1538.000000	13.435083
1537.000000	13.422340
1536.000000	13.405008
1535.000000	13.374942
1534.000000	13.350010
1533.000000	13.321684
1532.000000	13.302141
1531.000000	13.279131
1530.000000	13.274147
1529.000000	13.238094
1528.000000	13.216066
1527.000000	13.207746
1526.000000	13.191749
1525.000000	13.182877
1524.000000	13.167645
1523.000000	13.146048
1522.000000	13.129425
1521.000000	13.116685
1520.000000	13.104805
1519.000000	13.095544
1518.000000	13.090793
1517.000000	13.077306
1516.000000	13.063816
1515.000000	13.048291
1514.000000	13.037759
1513.000000	13.038718
1512.000000	13.033231
1511.000000	13.032004
1510.000000	13.032175
1509.000000	13.005645
1508.000000	13.000851
1507.000000	12.998109
1506.000000	12.985748
1505.000000	12.977850
1504.000000	12.968231
1503.000000	12.993526
1502.000000	12.980348
1501.000000	12.983096
1500.000000	13.003137
1499.000000	13.011524
1498.000000	12.999553
1497.000000	12.987755
1496.000000	12.999315
1495.000000	12.984442
1494.000000	12.972316
1493.000000	12.975242
1492.000000	12.972169
1491.000000	12.972694
1490.000000	12.973665
1489.000000	12.970446
1488.000000	12.981243
1487.000000	12.975676
1486.000000	12.986358
1485.000000	12.993455
1484.000000	12.992886
1483.000000	13.017448
1482.000000	12.987958
1481.000000	13.019751
1480.000000	13.032287
1479.000000	13.020447
1478.000000	13.021652
1477.000000	13.017657
1476.000000	13.031042
1475.000000	13.020891
1474.000000	13.019924
1473.000000	13.037226
1472.000000	13.017274
1471.000000	13.024809
1470.000000	13.024860
1469.000000	13.037079
1468.000000	13.032961
1467.000000	13.038087
1466.000000	13.068111
1465.000000	13.084168
1464.000000	13.080504
1463.000000	13.068021
1462.000000	13.089644
1461.000000	13.106772
1460.000000	13.126636
1459.000000	13.111184
1458.000000	13.105202
1457.000000	13.121035
1456.000000	13.143993
1455.000000	13.141509
1454.000000	13.149409
1453.000000	13.175156
1452.000000	13.197297
1451.000000	13.177483
1450.000000	13.178911
1449.000000	13.183637
1448.000000	13.195625
1447.000000	13.188045
1446.000000	13.219699
1445.000000	13.236535
1444.000000	13.248204
1443.000000	13.249700
1442.000000	13.251994
1441.000000	13.272323
1440.000000	13.276494
1439.000000	13.305656
1438.000000	13.335559
1437.000000	13.367456
1436.000000	13.372272
1435.000000	13.389252
1434.000000	13.402623
1433.000000	13.419975
1432.000000	13.431746
1431.000000	13.464813
1430.000000	13.488814
1429.000000	13.503599
1428.000000	13.522167
1427.000000	13.549892
1426.000000	13.576130
1425.000000	13.607733
1424.000000	13.636524
1423.000000	13.648771
1422.000000	13.680823
1421.000000	13.709708
1420.000000	13.746420
1419.000000	13.767032
1418.000000	13.816773
1417.000000	13.855747
1416.000000	13.889857
1415.000000	13.915730
1414.000000	13.960708
1413.000000	14.004721
1412.000000	14.038811
1411.000000	14.074309
1410.000000	14.123718
1409.000000	14.163685
1408.000000	14.190933
1407.000000	14.236898
1406.000000	14.282342
1405.000000	14.323095
1404.000000	14.357259
1403.000000	14.376227
1402.000000	14.424500
1401.000000	14.472584
1400.000000	14.509983
1399.000000	14.539749
1398.000000	14.574050
1397.000000	14.609830
1396.000000	14.645990
1395.000000	14.676557
1394.000000	14.701263
1393.000000	14.720946
1392.000000	14.745932
1391.000000	14.766443
1390.000000	14.783438
1389.000000	14.802139
1388.000000	14.820334
1387.000000	14.829151
1386.000000	14.836876
1385.000000	14.874244
1384.000000	14.911332
1383.000000	14.910614
1382.000000	14.922863
1381.000000	14.958216
1380.000000	14.967350
1379.000000	14.949553
1378.000000	14.957907
1377.000000	14.975236
1376.000000	14.980685
1375.000000	14.982222
1374.000000	14.995280
1373.000000	15.021210
1372.000000	15.013866
1371.000000	14.994821
1370.000000	14.980783
1369.000000	14.981462
1368.000000	14.977772
1367.000000	14.968897
1366.000000	14.967652
1365.000000	14.973463
1364.000000	14.977303
1363.000000	14.992823
1362.000000	15.014839
1361.000000	15.023617
1360.000000	15.022153
1359.000000	15.017822
1358.000000	15.020684
1357.000000	15.044864
1356.000000	15.059759
1355.000000	15.048001
1354.000000	15.025399
1353.000000	15.017832
1352.000000	15.039153
1351.000000	15.056086
1350.000000	15.042390
1349.000000	15.035709
1348.000000	15.030093
1347.000000	15.019580
1346.000000	15.021799
1345.000000	15.030085
1344.000000	15.018154
1343.000000	15.018046
1342.000000	15.034680
1341.000000	15.030403
1340.000000	15.022108
1339.000000	15.009239
1338.000000	15.001182
1337.000000	15.030379
1336.000000	15.045624
1335.000000	15.054768
1334.000000	15.028179
1333.000000	15.029598
1332.000000	15.024419
1331.000000	15.043284
1330.000000	15.065040
1329.000000	15.052483
1328.000000	15.036522
1327.000000	15.033606
1326.000000	15.051933
1325.000000	15.052208
1324.000000	15.067609
1323.000000	15.060329
1322.000000	15.055910
1321.000000	15.047125
1320.000000	15.047157
1319.000000	15.024999
1318.000000	15.026504
1317.000000	15.039806
1316.000000	15.020148
1315.000000	15.024455
1314.000000	15.016358
1313.000000	15.001859
1312.000000	14.996152
1311.000000	15.009772
1310.000000	14.988777
1309.000000	14.991856
1308.000000	14.980082
1307.000000	14.977230
1306.000000	14.954341
1305.000000	14.951238
1304.000000	14.918620
1303.000000	14.937389
1302.000000	14.949752
1301.000000	14.928256
1300.000000	14.906055
1299.000000	14.899812
1298.000000	14.904805
1297.000000	14.887769
1296.000000	14.905261
1295.000000	14.877224
1294.000000	14.882558
1293.000000	14.870117
1292.000000	14.866633
1291.000000	14.858428
1290.000000	14.866665
1289.000000	14.866851
1288.000000	14.865259
1287.000000	14.858255
1286.000000	14.803712
1285.000000	14.803459
1284.000000	14.808569
1283.000000	14.799882
1282.000000	14.805155
1281.000000	14.802964
1280.000000	14.806428
1279.000000	14.818482
1278.000000	14.807315
1277.000000	14.820082
1276.000000	14.802268
1275.000000	14.789326
1274.000000	14.794913
1273.000000	14.798779
1272.000000	14.793327
1271.000000	14.779385
1270.000000	14.781638
1269.000000	14.773618
1268.000000	14.765558
1267.000000	14.761149
1266.000000	14.758618
1265.000000	14.752570
1264.000000	14.773799
1263.000000	14.787044
1262.000000	14.782739
1261.000000	14.756455
1260.000000	14.749971
1259.000000	14.735353
1258.000000	14.722301
1257.000000	14.745032
1256.000000	14.749883
1255.000000	14.714303
1254.000000	14.719584
1253.000000	14.703254
1252.000000	14.702122
1251.000000	14.696290
1250.000000	14.692772
1249.000000	14.695556
1248.000000	14.680148
1247.000000	14.673923
1246.000000	14.667523
1245.000000	14.661626
1244.000000	14.656025
1243.000000	14.653878
1242.000000	14.654748
1241.000000	14.618696
1240.000000	14.608748
1239.000000	14.615432
1238.000000	14.598987
1237.000000	14.582185
1236.000000	14.578843
1235.000000	14.579707
1234.000000	14.546871
1233.000000	14.537818
1232.000000	14.544700
1231.000000	14.553234
1230.000000	14.561132
1229.000000	14.525749
1228.000000	14.529934
1227.000000	14.522686
1226.000000	14.525875
1225.000000	14.527283
1224.000000	14.515390
1223.000000	14.522207
1222.000000	14.519957
1221.000000	14.523204
1220.000000	14.514571
1219.000000	14.501583
1218.000000	14.478465
1217.000000	14.486544
1216.000000	14.468860
1215.000000	14.479073
1214.000000	14.459456
1213.000000	14.482175
1212.000000	14.487048
1211.000000	14.463884
1210.000000	14.454096
1209.000000	14.463115
1208.000000	14.441402
1207.000000	14.425374
1206.000000	14.417629
1205.000000	14.398472
1204.000000	14.384738
1203.000000	14.384372
1202.000000	14.376756
1201.000000	14.348022
1200.000000	14.334759
1199.000000	14.325484
1198.000000	14.335282
1197.000000	14.330462
1196.000000	14.305575
1195.000000	14.284047
1194.000000	14.270456
1193.000000	14.257755
1192.000000	14.258848
1191.000000	14.247066
1190.000000	14.216988
1189.000000	14.175536
1188.000000	14.174483
1187.000000	14.169892
1186.000000	14.164059
1185.000000	14.171458
1184.000000	14.160039
1183.000000	14.160651
1182.000000	14.174081
1181.000000	14.185986
1180.000000	14.188943
1179.000000	14.192251
1178.000000	14.202376
1177.000000	14.209820
1176.000000	14.220608
1175.000000	14.233721
1174.000000	14.234336
1173.000000	14.241783
1172.000000	14.250857
1171.000000	14.250130
1170.000000	14.242887
1169.000000	14.247728
1168.000000	14.262778
1167.000000	14.262993
1166.000000	14.264557
1165.000000	14.269164
1164.000000	14.282301
1163.000000	14.287507
1162.000000	14.285671
1161.000000	14.298815
1160.000000	14.311871
1159.000000	14.309947
1158.000000	14.314158
1157.000000	14.304342
1156.000000	14.290399
1155.000000	14.295727
1154.000000	14.301296
1153.000000	14.314268
1152.000000	14.329359
1151.000000	14.340871
1150.000000	14.346217
1149.000000	14.354421
1148.000000	14.356034
1147.000000	14.349688
1146.000000	14.352152
1145.000000	14.355520
1144.000000	14.361796
1143.000000	14.371416
1142.000000	14.379648
1141.000000	14.387293
1140.000000	14.366691
1139.000000	14.347634
1138.000000	14.346504
1137.000000	14.359227
1136.000000	14.373284
1135.000000	14.374426
1134.000000	14.385503
1133.000000	14.388349
1132.000000	14.385875
1131.000000	14.396651
1130.000000	14.400356
1129.000000	14.386065
1128.000000	14.370431
1127.000000	14.361988
1126.000000	14.363781
1125.000000	14.369170
1124.000000	14.367375
1123.000000	14.373844
1122.000000	14.375602
1121.000000	14.372892
1120.000000	14.374453
1119.000000	14.374157
1118.000000	14.366746
1117.000000	14.368531
1116.000000	14.371014
1115.000000	14.354370
1114.000000	14.360343
1113.000000	14.359068
1112.000000	14.349022
1111.000000	14.354966
1110.000000	14.342083
1109.000000	14.334453
1108.000000	14.332876
1107.000000	14.327361
1106.000000	14.340119
1105.000000	14.344073
1104.000000	14.315227
1103.000000	14.298559
1102.000000	14.296308
1101.000000	14.296804
1100.000000	14.286155
1099.000000	14.290310
1098.000000	14.300070
1097.000000	14.302460
1096.000000	14.305729
1095.000000	14.265818
1094.000000	14.264923
1093.000000	14.267287
1092.000000	14.267634
1091.000000	14.265874
1090.000000	14.275595
1089.000000	14.270724
1088.000000	14.246957
1087.000000	14.245226
1086.000000	14.234061
1085.000000	14.246978
1084.000000	14.240771
1083.000000	14.240176
1082.000000	14.253117
1081.000000	14.225592
1080.000000	14.215746
1079.000000	14.229750
1078.000000	14.220455
1077.000000	14.225359
1076.000000	14.232470
1075.000000	14.190224
1074.000000	14.178355
1073.000000	14.185921
1072.000000	14.194334
1071.000000	14.197405
1070.000000	14.220602
1069.000000	14.201606
1068.000000	14.193098
1067.000000	14.172351
1066.000000	14.154297
1065.000000	14.156783
1064.000000	14.184677
1063.000000	14.167171
1062.000000	14.171510
1061.000000	14.139691
1060.000000	14.138105
1059.000000	14.152459
1058.000000	14.156273
1057.000000	14.162335
1056.000000	14.173709
1055.000000	14.121607
1054.000000	14.121241
1053.000000	14.121934
1052.000000	14.127810
1051.000000	14.126252
1050.000000	14.105424
1049.000000	14.113104
1048.000000	14.085418
1047.000000	14.121692
1046.000000	14.134314
1045.000000	14.083594
1044.000000	14.085365
1043.000000	14.088677
1042.000000	14.109975
1041.000000	14.071735
1040.000000	14.061776
1039.000000	14.077882
1038.000000	14.085530
1037.000000	14.054679
1036.000000	14.049195
1035.000000	14.059517
1034.000000	14.085176
1033.000000	14.039178
1032.000000	14.056562
1031.000000	14.056406
1030.000000	14.053832
1029.000000	14.047087
1028.000000	14.048987
1027.000000	14.039534
1026.000000	14.025403
1025.000000	14.038006
1024.000000	14.039412
1023.000000	14.046365
1022.000000	14.019428
1021.000000	14.012173
1020.000000	14.014381
1019.000000	13.992874
1018.000000	14.011520
1017.000000	14.016435
1016.000000	13.995409
1015.000000	13.980808
1014.000000	14.002004
1013.000000	13.983757
1012.000000	13.978805
1011.000000	13.989208
1010.000000	14.002768
1009.000000	13.981468
1008.000000	13.981320
1007.000000	13.992713
1006.000000	14.006366
1005.000000	14.025249
1004.000000	14.006815
1003.000000	14.001095
1002.000000	14.005022
1001.000000	14.003723
1000.000000	14.016057
999.000000	14.008906
998.000000	14.021564
997.000000	14.019348
996.000000	14.018411
995.000000	14.005730
994.000000	14.006604
993.000000	14.006293
992.000000	14.007171
991.000000	14.006560
990.000000	14.015301
989.000000	14.000994
988.000000	13.999122
987.000000	13.985736
986.000000	13.966961
985.000000	13.964400
984.000000	13.971750
983.000000	13.984015
982.000000	13.977387
981.000000	13.961299
980.000000	13.957685
979.000000	13.960907
978.000000	13.959650
977.000000	13.943311
976.000000	13.927420
975.000000	13.920755
974.000000	13.936762
973.000000	13.930844
972.000000	13.921604
971.000000	13.915673
970.000000	13.909338
969.000000	13.904853
968.000000	13.905542
967.000000	13.915888
966.000000	13.908509
965.000000	13.899237
964.000000	13.883641
963.000000	13.882777
962.000000	13.890052
961.000000	13.884423
960.000000	13.876591
959.000000	13.899625
958.000000	13.895939
957.000000	13.867354
956.000000	13.849451
955.000000	13.844383
954.000000	13.831163
953.000000	13.834589
952.000000	13.849109
951.000000	13.837380
950.000000	13.829630
949.000000	13.832095
948.000000	13.829528
947.000000	13.830688
946.000000	13.833889
945.000000	13.817700
944.000000	13.805420
943.000000	13.797376
942.000000	13.806877
941.000000	13.814093
940.000000	13.796842
939.000000	13.776540
938.000000	13.787081
937.000000	13.794210
936.000000	13.761250
935.000000	13.756037
934.000000	13.753937
933.000000	13.741982
932.000000	13.736923
931.000000	13.714599
930.000000	13.708458
929.000000	13.734869
928.000000	13.729269
927.000000	13.714659
926.000000	13.703444
925.000000	13.692685
924.000000	13.699957
923.000000	13.686665
922.000000	13.682654
921.000000	13.693901
920.000000	13.657915
919.000000	13.621220
918.000000	13.640370
917.000000	13.655442
916.000000	13.659114
915.000000	13.657349
914.000000	13.628544
913.000000	13.638715
912.000000	13.608944
911.000000	13.610181
910.000000	13.645778
909.000000	13.627589
908.000000	13.619979
907.000000	13.619121
906.000000	13.586564
905.000000	13.602423
904.000000	13.595606
903.000000	13.613443
902.000000	13.595104
901.000000	13.582364
900.000000	13.622582
899.000000	13.606368
898.000000	13.579351
897.000000	13.576050
896.000000	13.519083
895.000000	13.516664
894.000000	13.498489
893.000000	13.536369
892.000000	13.557872
891.000000	13.526421
890.000000	13.535546
889.000000	13.532848
888.000000	13.531832
887.000000	13.538551
886.000000	13.495678
885.000000	13.528328
884.000000	13.495807
883.000000	13.478515
882.000000	13.498809
881.000000	13.478992
880.000000	13.473818
879.000000	13.551228
878.000000	13.543783
877.000000	13.546945
876.000000	13.469332
875.000000	13.434983
874.000000	13.445779
873.000000	13.439397
872.000000	13.480341
871.000000	13.384007
870.000000	13.373227
869.000000	13.475412
868.000000	13.442535
867.000000	13.467469
866.000000	13.492441
865.000000	13.503160
864.000000	13.349932
863.000000	13.430864
862.000000	13.377433
861.000000	13.392208
860.000000	13.313140
859.000000	14.134693
858.000000	14.056660
857.000000	14.238194
856.000000	14.150865
855.000000	14.139010
854.000000	13.868952
853.000000	14.083397
852.000000	13.995243
851.000000	13.978874
850.000000	14.042299
849.000000	13.890618
848.000000	13.915823
847.000000	13.963325
846.000000	13.983153
845.000000	14.005013
844.000000	13.975076
843.000000	13.928763
842.000000	13.966592
841.000000	13.845103
840.000000	13.978929
839.000000	13.848473
838.000000	13.862653
837.000000	13.860619
836.000000	13.905547
835.000000	13.833904
834.000000	13.804650
833.000000	13.816175
832.000000	13.792958
831.000000	13.818673
830.000000	13.798617
829.000000	13.710864
828.000000	13.748116
827.000000	13.721912
826.000000	13.708784
825.000000	13.745873
824.000000	13.732504
823.000000	13.698131
822.000000	13.644348
821.000000	13.620597
820.000000	13.681385
819.000000	13.604900
818.000000	13.646779
817.000000	13.602022
816.000000	13.592426
815.000000	13.610710
814.000000	13.582700
813.000000	13.590791
812.000000	13.559537
811.000000	13.516832
810.000000	13.521460
809.000000	13.612743
808.000000	13.545384
807.000000	13.534093
806.000000	13.584451
805.000000	13.540533
804.000000	13.519181
803.000000	13.494908
802.000000	13.474838
801.000000	13.470012
800.000000	13.484515
799.000000	13.483189
798.000000	13.444362
797.000000	13.471745
796.000000	13.468791
795.000000	13.405390
794.000000	13.414091
793.000000	13.417141
792.000000	13.379240
791.000000	13.353512
790.000000	13.330579
789.000000	13.332710
788.000000	13.322242
787.000000	13.306509
786.000000	13.313469
785.000000	13.256099
784.000000	13.301218
783.000000	13.256112
782.000000	13.244053
781.000000	13.254826
780.000000	13.236072
779.000000	13.216138
778.000000	13.166207
777.000000	13.174581
776.000000	13.171042
775.000000	13.171904
774.000000	13.137434
773.000000	13.132898
772.000000	13.109486
771.000000	13.138883
770.000000	13.108950
769.000000	13.117119
768.000000	13.067864
767.000000	13.043734
766.000000	13.022220
765.000000	12.998308
764.000000	13.012549
763.000000	12.987434
762.000000	12.959102
761.000000	12.960001
760.000000	12.962718
759.000000	12.918497
758.000000	12.900842
757.000000	12.902721
756.000000	12.874678
755.000000	12.877936
754.000000	12.865538
753.000000	12.851061
752.000000	12.831746
751.000000	12.819825
750.000000	12.791435
749.000000	12.764728
748.000000	12.747729
747.000000	12.764209
746.000000	12.737872
745.000000	12.727953
744.000000	12.717025
743.000000	12.700497
742.000000	12.691427
741.000000	12.701012
740.000000	12.675975
739.000000	12.628907
738.000000	12.598248
737.000000	12.582160
736.000000	12.579504
735.000000	12.569790
734.000000	12.534637
733.000000	12.503780
732.000000	12.509128
731.000000	12.505883
730.000000	12.484367
729.000000	12.458466
728.000000	12.427109
727.000000	12.409749
726.000000	12.391325
725.000000	12.364364
724.000000	12.354656
723.000000	12.343667
722.000000	12.324845
721.000000	12.317467
720.000000	12.306182
719.000000	12.284459
718.000000	12.270921
717.000000	12.253594
716.000000	12.225609
715.000000	12.203729
714.000000	12.197772
713.000000	12.169260
712.000000	12.138184
711.000000	12.113656
710.000000	12.087349
709.000000	12.089411
708.000000	12.086625
707.000000	12.049379
706.000000	12.023876
705.000000	12.011926
704.000000	11.989863
703.000000	11.970088
702.000000	11.943353
701.000000	11.906150
700.000000	11.893692
699.000000	11.885920
698.000000	11.872981
697.000000	11.847209
696.000000	11.823085
695.000000	11.797115
694.000000	11.763534
693.000000	11.727744
692.000000	11.719404
691.000000	11.709906
690.000000	11.682392
689.000000	11.631960
688.000000	11.603081
687.000000	11.582990
686.000000	11.552976
685.000000	11.524479
684.000000	11.512969
683.000000	11.486976
682.000000	11.444956
681.000000	11.429270
680.000000	11.418414
679.000000	11.401595
678.000000	11.365490
677.000000	11.332413
676.000000	11.326770
675.000000	11.305312
674.000000	11.271330
673.000000	11.244538
672.000000	11.237569
671.000000	11.195971
670.000000	11.148746
669.000000	11.142260
668.000000	11.123545
667.000000	11.091286
666.000000	11.066301
665.000000	11.047309
664.000000	11.025766
663.000000	10.983139
662.000000	10.944880
661.000000	10.930703
660.000000	10.910702
659.000000	10.886809
658.000000	10.872580
657.000000	10.831017
656.000000	10.801110
655.000000	10.779370
654.000000	10.739919
653.000000	10.714917
652.000000	10.697097
651.000000	10.657493
650.000000	10.631380
649.000000	10.612154
648.000000	10.587956
647.000000	10.565356
646.000000	10.535119
645.000000	10.484781
644.000000	10.469382
643.000000	10.455145
642.000000	10.414430
641.000000	10.387064
640.000000	10.353190
639.000000	10.329211
638.000000	10.273992
637.000000	10.268612
636.000000	10.236801
635.000000	10.202310
634.000000	10.170165
633.000000	10.151032
632.000000	10.120283
631.000000	10.083005
630.000000	10.046954
629.000000	10.019790
628.000000	9.977572
627.000000	9.954173
626.000000	9.901730
625.000000	9.889401
624.000000	9.849368
623.000000	9.824382
622.000000	9.809574
621.000000	9.776287
620.000000	9.734554
619.000000	9.691319
618.000000	9.659317
617.000000	9.625633
616.000000	9.599302
615.000000	9.574413
614.000000	9.524633
613.000000	9.496165
612.000000	9.461218
611.000000	9.441887
610.000000	9.396154
609.000000	9.367184
608.000000	9.330697
607.000000	9.285264
606.000000	9.255818
605.000000	9.233025
604.000000	9.199605
603.000000	9.146916
602.000000	9.089488
601.000000	9.077954
600.000000	9.036857
599.000000	9.001707
598.000000	8.965130
597.000000	8.933574
596.000000	8.898761
595.000000	8.853418
594.000000	8.821783
593.000000	8.782528
592.000000	8.749032
591.000000	8.713970
590.000000	8.672421
589.000000	8.634770
588.000000	8.587627
587.000000	8.550764
586.000000	8.503841
585.000000	8.471121
584.000000	8.431278
583.000000	8.390086
582.000000	8.369800
581.000000	8.328380
580.000000	8.290154
579.000000	8.239091
578.000000	8.186578
577.000000	8.164110
576.000000	8.120886
575.000000	8.070930
574.000000	8.041309
573.000000	7.981282
572.000000	7.938419
571.000000	7.907531
570.000000	7.854238
569.000000	7.821205
568.000000	7.781244
567.000000	7.741555
566.000000	7.690845
565.000000	7.651807
564.000000	7.611024
563.000000	7.569036
562.000000	7.521639
561.000000	7.505694
560.000000	7.458304
559.000000	7.421787
558.000000	7.373810
557.000000	7.326418
556.000000	7.291070
555.000000	7.238563
554.000000	7.200607
553.000000	7.161510
552.000000	7.110369
551.000000	7.056084
550.000000	7.009839
549.000000	6.972350
548.000000	6.915481
547.000000	6.872796
546.000000	6.835201
545.000000	6.789619
544.000000	6.733255
543.000000	6.687903
542.000000	6.648023
541.000000	6.608321
540.000000	6.555781
539.000000	6.510096
538.000000	6.457506
537.000000	6.413347
536.000000	6.365694
535.000000	6.318344
534.000000	6.264373
533.000000	6.218051
532.000000	6.177998
531.000000	6.134233
530.000000	6.083723
529.000000	6.034348
528.000000	5.983759
527.000000	5.935684
526.000000	5.884025
525.000000	5.837709
524.000000	5.793159
523.000000	5.739694
522.000000	5.694257
521.000000	5.653019
520.000000	5.597688
519.000000	5.552711
518.000000	5.504053
517.000000	5.456762
516.000000	5.413344
515.000000	5.370645
514.000000	5.320672
513.000000	5.272500
512.000000	5.225721
511.000000	5.183116
510.000000	5.140239
509.000000	5.092008
508.000000	5.048569
507.000000	4.998830
506.000000	4.948588
505.000000	4.906870
504.000000	4.864418
503.000000	4.820493
502.000000	4.772457
501.000000	4.722987
500.000000	4.679614
499.000000	4.637855
498.000000	4.593845
497.000000	4.537627
496.000000	4.493738
495.000000	4.452191
494.000000	4.405434
493.000000	4.359941
492.000000	4.312231
491.000000	4.268739
490.000000	4.222537
489.000000	4.181616
488.000000	4.138590
487.000000	4.095985
486.000000	4.051933
485.000000	4.008691
484.000000	3.963882
483.000000	3.923211
482.000000	3.889510
481.000000	3.838410
480.000000	3.781699
479.000000	3.737291
478.000000	3.687827
477.000000	3.635434
476.000000	3.587380
475.000000	3.548788
474.000000	3.504203
473.000000	3.458067
472.000000	3.415076
471.000000	3.368854
470.000000	3.319652
469.000000	3.271657
468.000000	3.229820
467.000000	3.191282
466.000000	3.148970
465.000000	3.097412
464.000000	3.049451
463.000000	3.007825
462.000000	2.962688
461.000000	2.913978
460.000000	2.869640
459.000000	2.824546
458.000000	2.777949
457.000000	2.730741
456.000000	2.683194
455.000000	2.642239
454.000000	2.594967
453.000000	2.538152
452.000000	2.489658
451.000000	2.449013
450.000000	2.406789
449.000000	2.354973
448.000000	2.303678
447.000000	2.257845
446.000000	2.215657
445.000000	2.178560
444.000000	2.139780
443.000000	2.103686
442.000000	2.069945
441.000000	2.025454
440.000000	1.983851
439.000000	1.947915
438.000000	1.913458
437.000000	1.877767
436.000000	1.848277
435.000000	1.813402
434.000000	1.774532
433.000000	1.738604
432.000000	1.708632
431.000000	1.676550
430.000000	1.648493
429.000000	1.616021
428.000000	1.583365
427.000000	1.553972
426.000000	1.528052
425.000000	1.489682
424.000000	1.451603
423.000000	1.423936
422.000000	1.391557
421.000000	1.358846
420.000000	1.340672
419.000000	1.304553
418.000000	1.271029
417.000000	1.238374
416.000000	1.206293
415.000000	1.176171
414.000000	1.149900
413.000000	1.122427
412.000000	1.091346
411.000000	1.060223
410.000000	1.031067
409.000000	1.004039
408.000000	0.973344
407.000000	0.947818
406.000000	0.925695
405.000000	0.890171
404.000000	0.867776
403.000000	0.843370
402.000000	0.818197
401.000000	0.791308
400.000000	0.761679
399.000000	0.736157
398.000000	0.714020
397.000000	0.699840
396.000000	0.673913
395.000000	0.645078
394.000000	0.624814
393.000000	0.599778
392.000000	0.582432
391.000000	0.562511
390.000000	0.545472
389.000000	0.525297
388.000000	0.503208
387.000000	0.483684
386.000000	0.459685
385.000000	0.442884
384.000000	0.426499
383.000000	0.415470
382.000000	0.396734
381.000000	0.379225
380.000000	0.360816
379.000000	0.347927
378.000000	0.337785
377.000000	0.342019
376.000000	0.339750
375.000000	0.320669
374.000000	0.305257
373.000000	0.291197
372.000000	0.277689
371.000000	0.265246
370.000000	0.247376
369.000000	0.238977
368.000000	0.232556
367.000000	0.214424
366.000000	0.205321
365.000000	0.197456
364.000000	0.181296
363.000000	0.173138
362.000000	0.171335
361.000000	0.160283
360.000000	0.152684
359.000000	0.148821
358.000000	0.142407
357.000000	0.138974
356.000000	0.126784
355.000000	0.115012
354.000000	0.114735
353.000000	0.114542
352.000000	0.104782
351.000000	0.104170
350.000000	0.094420
349.000000	0.095577
348.000000	0.094904
347.000000	0.083953
346.000000	0.076670
345.000000	0.080692
344.000000	0.075704
343.000000	0.066739
342.000000	0.073197
341.000000	0.066155
340.000000	0.063550
339.000000	0.063804
338.000000	0.070775
337.000000	0.060989
336.000000	0.056853
335.000000	0.051694
334.000000	0.047710
333.000000	0.052740
332.000000	0.055140
331.000000	0.045276
330.000000	0.046893
329.000000	0.047109
328.000000	0.035090
327.000000	0.032767
326.000000	0.042445
325.000000	0.034454
324.000000	0.034067
323.000000	0.034029
322.000000	0.029403
321.000000	0.036021
320.000000	0.034785
319.000000	0.031990
318.000000	0.047324
317.000000	0.046879
316.000000	0.049879
315.000000	0.048810
314.000000	0.049175
313.000000	0.044439
312.000000	0.046910
311.000000	0.047416
310.000000	0.047863
309.000000	0.046911
308.000000	0.053397
307.000000	0.043971
306.000000	0.041677
305.000000	0.039228
304.000000	0.039177
303.000000	0.041097
302.000000	0.041794
301.000000	0.045898
300.000000	0.040893
299.000000	0.041432
298.000000	0.044829
297.000000	0.047622
296.000000	0.048315
295.000000	0.043333
294.000000	0.044861
293.000000	0.038459
292.000000	0.042235
291.000000	0.044691
290.000000	0.048732
289.000000	0.041633
288.000000	0.042105
287.000000	0.042989
286.000000	0.042661
285.000000	0.039534
284.000000	0.046077
283.000000	0.044936
282.000000	0.046822
281.000000	0.043668
280.000000	0.046543
279.000000	0.047852
278.000000	0.047161
277.000000	0.050430
276.000000	0.051134
275.000000	0.055516
274.000000	0.050837
273.000000	0.051134
272.000000	0.053750
271.000000	0.052449
270.000000	0.054236
269.000000	0.050732
268.000000	0.059069
267.000000	0.063339
266.000000	0.067840
265.000000	0.066984
264.000000	0.057628
263.000000	0.059317
262.000000	0.064346
261.000000	0.063136
260.000000	0.067204
259.000000	0.065876
258.000000	0.066066
257.000000	0.065998
256.000000	0.067964
255.000000	0.073947
254.000000	0.075587
253.000000	0.067398
252.000000	0.064947
251.000000	0.067702
250.000000	0.070378
249.000000	0.071360
248.000000	0.070379
247.000000	0.074512
246.000000	0.072724
245.000000	0.071337
244.000000	0.068328
243.000000	0.068534
242.000000	0.070096
241.000000	0.068137
240.000000	0.066494
239.000000	0.063815
238.000000	0.063049
237.000000	0.062522
236.000000	0.064387
235.000000	0.062095
234.000000	0.066817
233.000000	0.064777
232.000000	0.052773
231.000000	0.048855
230.000000	0.052505
229.000000	0.046067
228.000000	0.044734
227.000000	0.043518
226.000000	0.040510
225.000000	0.043126
224.000000	0.043240
223.000000	0.039506
222.000000	0.034391
221.000000	0.032748
220.000000	0.029885
219.000000	0.030839
218.000000	0.033515
217.000000	0.027001
216.000000	0.024745
215.000000	0.032559
214.000000	0.026274
213.000000	0.013396
212.000000	0.026623
211.000000	0.042318
210.000000	0.026688
209.000000	0.008357
208.000000	0.010303
207.000000	0.013345
206.000000	0.004498
205.000000	-0.000215
204.000000	0.004658
203.000000	0.001305
202.000000	-0.001958
201.000000	0.019313
200.000000	0.015058
