PE IR       SUBTECH     SPECTRUM    ASCII       PEDS        4.00        
   -1
AG10-F009_1.ASC
23/09/08
10:40:55.00
23/09/08
11:14:38.00
uco
Sample 009 By uco Date Friday, September 08 2023
450.000000
#HDR
-1
-1
#GR
cm-1
%T
1.0
0.0
4000.000000
-1.000000
3551
8
100.175070
95.503687
#DATA
4000.000000	99.994110
3999.000000	99.995687
3998.000000	99.995782
3997.000000	99.999102
3996.000000	99.996160
3995.000000	99.993182
3994.000000	99.992684
3993.000000	99.995129
3992.000000	99.998452
3991.000000	100.000116
3990.000000	99.999391
3989.000000	99.997573
3988.000000	99.996266
3987.000000	99.995856
3986.000000	99.995679
3985.000000	99.995187
3984.000000	99.994517
3983.000000	99.993991
3982.000000	99.993557
3981.000000	99.992984
3980.000000	99.992414
3979.000000	99.992367
3978.000000	99.993089
3977.000000	99.994178
3976.000000	99.994973
3975.000000	99.995083
3974.000000	99.994333
3973.000000	99.992415
3972.000000	99.988896
3971.000000	99.983795
3970.000000	99.977913
3969.000000	99.972664
3968.000000	99.969489
3967.000000	99.969283
3966.000000	99.972029
3965.000000	99.976456
3964.000000	99.980263
3963.000000	99.981320
3962.000000	99.979247
3961.000000	99.975740
3960.000000	99.972917
3959.000000	99.971661
3958.000000	99.971560
3957.000000	99.972170
3956.000000	99.973519
3955.000000	99.975340
3954.000000	99.976616
3953.000000	99.976157
3952.000000	99.973749
3951.000000	99.970470
3950.000000	99.967876
3949.000000	99.967078
3948.000000	99.968480
3947.000000	99.972199
3946.000000	99.978203
3945.000000	99.985094
3944.000000	99.989676
3943.000000	99.989265
3942.000000	99.984058
3941.000000	99.976643
3940.000000	99.969619
3939.000000	99.964485
3938.000000	99.961801
3937.000000	99.961707
3936.000000	99.963442
3935.000000	99.964802
3934.000000	99.963535
3933.000000	99.959908
3932.000000	99.957285
3931.000000	99.958809
3930.000000	99.963902
3929.000000	99.969328
3928.000000	99.972415
3927.000000	99.972085
3926.000000	99.968466
3925.000000	99.963411
3924.000000	99.960035
3923.000000	99.959713
3922.000000	99.960866
3921.000000	99.961267
3920.000000	99.960619
3919.000000	99.960385
3918.000000	99.961462
3917.000000	99.963120
3916.000000	99.964062
3915.000000	99.963651
3914.000000	99.961344
3913.000000	99.957122
3912.000000	99.952474
3911.000000	99.950622
3910.000000	99.953800
3909.000000	99.961428
3908.000000	99.970492
3907.000000	99.976809
3906.000000	99.976353
3905.000000	99.967649
3904.000000	99.955078
3903.000000	99.946399
3902.000000	99.945413
3901.000000	99.949547
3900.000000	99.954268
3899.000000	99.957644
3898.000000	99.960011
3897.000000	99.960896
3896.000000	99.958266
3895.000000	99.951213
3894.000000	99.941035
3893.000000	99.931536
3892.000000	99.927314
3891.000000	99.930847
3890.000000	99.939582
3889.000000	99.949586
3888.000000	99.957211
3887.000000	99.957618
3886.000000	99.950592
3885.000000	99.944635
3884.000000	99.947202
3883.000000	99.956418
3882.000000	99.963893
3881.000000	99.963435
3880.000000	99.957381
3879.000000	99.952157
3878.000000	99.951486
3877.000000	99.955576
3876.000000	99.961480
3875.000000	99.965618
3874.000000	99.968090
3873.000000	99.972042
3872.000000	99.977577
3871.000000	99.979899
3870.000000	99.976910
3869.000000	99.973541
3868.000000	99.974082
3867.000000	99.976864
3866.000000	99.975845
3865.000000	99.967871
3864.000000	99.957005
3863.000000	99.948420
3862.000000	99.942784
3861.000000	99.940036
3860.000000	99.940639
3859.000000	99.943848
3858.000000	99.948015
3857.000000	99.952427
3856.000000	99.956236
3855.000000	99.954181
3854.000000	99.943547
3853.000000	99.938378
3852.000000	99.944413
3851.000000	99.952007
3850.000000	99.956148
3849.000000	99.957703
3848.000000	99.958797
3847.000000	99.961083
3846.000000	99.964162
3845.000000	99.966760
3844.000000	99.967592
3843.000000	99.966099
3842.000000	99.962814
3841.000000	99.959364
3840.000000	99.956514
3839.000000	99.955335
3838.000000	99.957284
3837.000000	99.961337
3836.000000	99.965088
3835.000000	99.968085
3834.000000	99.971572
3833.000000	99.975937
3832.000000	99.980354
3831.000000	99.983808
3830.000000	99.985681
3829.000000	99.985536
3828.000000	99.982439
3827.000000	99.975986
3826.000000	99.967971
3825.000000	99.962350
3824.000000	99.961402
3823.000000	99.962798
3822.000000	99.962450
3821.000000	99.963573
3820.000000	99.970792
3819.000000	99.979814
3818.000000	99.983485
3817.000000	99.975944
3816.000000	99.960911
3815.000000	99.950484
3814.000000	99.949776
3813.000000	99.953674
3812.000000	99.956141
3811.000000	99.957201
3810.000000	99.961120
3809.000000	99.969125
3808.000000	99.975549
3807.000000	99.975226
3806.000000	99.970831
3805.000000	99.969656
3804.000000	99.975170
3803.000000	99.983151
3802.000000	99.987130
3801.000000	99.988271
3800.000000	99.989319
3799.000000	99.989639
3798.000000	99.987109
3797.000000	99.980300
3796.000000	99.971857
3795.000000	99.966115
3794.000000	99.964312
3793.000000	99.964062
3792.000000	99.963315
3791.000000	99.962557
3790.000000	99.963360
3789.000000	99.965875
3788.000000	99.968661
3787.000000	99.970111
3786.000000	99.969993
3785.000000	99.969986
3784.000000	99.972323
3783.000000	99.977420
3782.000000	99.982378
3781.000000	99.982322
3780.000000	99.974784
3779.000000	99.964067
3778.000000	99.956855
3777.000000	99.955536
3776.000000	99.957455
3775.000000	99.958987
3774.000000	99.958808
3773.000000	99.957625
3772.000000	99.955419
3771.000000	99.951750
3770.000000	99.949227
3769.000000	99.951671
3768.000000	99.958728
3767.000000	99.966204
3766.000000	99.970444
3765.000000	99.971184
3764.000000	99.970873
3763.000000	99.971750
3762.000000	99.973381
3761.000000	99.974124
3760.000000	99.974112
3759.000000	99.974938
3758.000000	99.975050
3757.000000	99.972247
3756.000000	99.968666
3755.000000	99.968156
3754.000000	99.970168
3753.000000	99.968846
3752.000000	99.959922
3751.000000	99.947472
3750.000000	99.937952
3749.000000	99.932071
3748.000000	99.930982
3747.000000	99.937129
3746.000000	99.946326
3745.000000	99.952006
3744.000000	99.959110
3743.000000	99.972271
3742.000000	99.986406
3741.000000	99.995695
3740.000000	99.998760
3739.000000	99.998871
3738.000000	99.998655
3737.000000	99.996155
3736.000000	99.992531
3735.000000	99.994431
3734.000000	100.001742
3733.000000	100.004926
3732.000000	99.998441
3731.000000	99.986680
3730.000000	99.977333
3729.000000	99.973850
3728.000000	99.973934
3727.000000	99.973570
3726.000000	99.971970
3725.000000	99.970366
3724.000000	99.968744
3723.000000	99.966698
3722.000000	99.965243
3721.000000	99.966053
3720.000000	99.968698
3719.000000	99.970592
3718.000000	99.969174
3717.000000	99.965449
3716.000000	99.964535
3715.000000	99.970324
3714.000000	99.980011
3713.000000	99.985309
3712.000000	99.981512
3711.000000	99.974386
3710.000000	99.971722
3709.000000	99.974285
3708.000000	99.978257
3707.000000	99.980486
3706.000000	99.980933
3705.000000	99.981676
3704.000000	99.984103
3703.000000	99.987467
3702.000000	99.990180
3701.000000	99.991097
3700.000000	99.989740
3699.000000	99.986711
3698.000000	99.982842
3697.000000	99.978141
3696.000000	99.972458
3695.000000	99.965135
3694.000000	99.955102
3693.000000	99.943687
3692.000000	99.936143
3691.000000	99.939178
3690.000000	99.954563
3689.000000	99.974981
3688.000000	99.987834
3687.000000	99.987787
3686.000000	99.980965
3685.000000	99.974160
3684.000000	99.969198
3683.000000	99.965710
3682.000000	99.963496
3681.000000	99.961614
3680.000000	99.959708
3679.000000	99.960121
3678.000000	99.965161
3677.000000	99.971105
3676.000000	99.973025
3675.000000	99.974355
3674.000000	99.976184
3673.000000	99.976486
3672.000000	99.972785
3671.000000	99.962161
3670.000000	99.950611
3669.000000	99.949520
3668.000000	99.957991
3667.000000	99.967675
3666.000000	99.973683
3665.000000	99.975379
3664.000000	99.974461
3663.000000	99.972903
3662.000000	99.971378
3661.000000	99.969796
3660.000000	99.969269
3659.000000	99.971080
3658.000000	99.974443
3657.000000	99.976464
3656.000000	99.976352
3655.000000	99.975930
3654.000000	99.977416
3653.000000	99.981505
3652.000000	99.985165
3651.000000	99.983777
3650.000000	99.978716
3649.000000	99.977431
3648.000000	99.979654
3647.000000	99.978241
3646.000000	99.970957
3645.000000	99.960495
3644.000000	99.949098
3643.000000	99.938090
3642.000000	99.929456
3641.000000	99.925635
3640.000000	99.927212
3639.000000	99.932102
3638.000000	99.938193
3637.000000	99.944884
3636.000000	99.951340
3635.000000	99.954893
3634.000000	99.953985
3633.000000	99.951526
3632.000000	99.951933
3631.000000	99.954453
3630.000000	99.952471
3629.000000	99.947153
3628.000000	99.948004
3627.000000	99.954517
3626.000000	99.961690
3625.000000	99.968239
3624.000000	99.975664
3623.000000	99.985869
3622.000000	99.998047
3621.000000	100.007367
3620.000000	100.009291
3619.000000	100.005296
3618.000000	100.000042
3617.000000	99.995340
3616.000000	99.990796
3615.000000	99.985024
3614.000000	99.977023
3613.000000	99.967980
3612.000000	99.960121
3611.000000	99.954124
3610.000000	99.948725
3609.000000	99.943494
3608.000000	99.940794
3607.000000	99.942382
3606.000000	99.946199
3605.000000	99.948727
3604.000000	99.948376
3603.000000	99.945511
3602.000000	99.941822
3601.000000	99.939604
3600.000000	99.940889
3599.000000	99.945307
3598.000000	99.949569
3597.000000	99.949489
3596.000000	99.943479
3595.000000	99.934195
3594.000000	99.927212
3593.000000	99.926296
3592.000000	99.930483
3591.000000	99.936366
3590.000000	99.940406
3589.000000	99.940522
3588.000000	99.938977
3587.000000	99.941141
3586.000000	99.946971
3585.000000	99.951150
3584.000000	99.949860
3583.000000	99.942212
3582.000000	99.929711
3581.000000	99.915890
3580.000000	99.905134
3579.000000	99.900316
3578.000000	99.901067
3577.000000	99.904410
3576.000000	99.906871
3575.000000	99.906925
3574.000000	99.905595
3573.000000	99.905301
3572.000000	99.907853
3571.000000	99.913686
3570.000000	99.921737
3569.000000	99.929192
3568.000000	99.933498
3567.000000	99.935006
3566.000000	99.934441
3565.000000	99.930687
3564.000000	99.924295
3563.000000	99.917607
3562.000000	99.912710
3561.000000	99.911061
3560.000000	99.913338
3559.000000	99.918615
3558.000000	99.924173
3557.000000	99.927008
3556.000000	99.925813
3555.000000	99.921589
3554.000000	99.916555
3553.000000	99.912755
3552.000000	99.911090
3551.000000	99.910779
3550.000000	99.910254
3549.000000	99.908587
3548.000000	99.906157
3547.000000	99.904644
3546.000000	99.905928
3545.000000	99.910272
3544.000000	99.915945
3543.000000	99.920557
3542.000000	99.922005
3541.000000	99.919426
3540.000000	99.914007
3539.000000	99.908464
3538.000000	99.904992
3537.000000	99.903444
3536.000000	99.901998
3535.000000	99.899237
3534.000000	99.895833
3533.000000	99.893955
3532.000000	99.895417
3531.000000	99.899980
3530.000000	99.905094
3529.000000	99.907606
3528.000000	99.906345
3527.000000	99.902983
3526.000000	99.900245
3525.000000	99.899774
3524.000000	99.901477
3523.000000	99.904064
3522.000000	99.905937
3521.000000	99.906296
3520.000000	99.905615
3519.000000	99.904551
3518.000000	99.902743
3517.000000	99.899083
3516.000000	99.893497
3515.000000	99.887774
3514.000000	99.884245
3513.000000	99.883746
3512.000000	99.885436
3511.000000	99.888348
3510.000000	99.892265
3509.000000	99.896472
3508.000000	99.898792
3507.000000	99.897204
3506.000000	99.892341
3505.000000	99.887553
3504.000000	99.886746
3503.000000	99.891201
3502.000000	99.898012
3501.000000	99.902239
3500.000000	99.900752
3499.000000	99.894174
3498.000000	99.886236
3497.000000	99.881653
3496.000000	99.882849
3495.000000	99.887978
3494.000000	99.892686
3493.000000	99.894280
3492.000000	99.893532
3491.000000	99.892325
3490.000000	99.890746
3489.000000	99.887416
3488.000000	99.882300
3487.000000	99.877734
3486.000000	99.876030
3485.000000	99.876840
3484.000000	99.877742
3483.000000	99.877079
3482.000000	99.875873
3481.000000	99.876633
3480.000000	99.880521
3479.000000	99.886075
3478.000000	99.890650
3477.000000	99.892552
3476.000000	99.891685
3475.000000	99.888698
3474.000000	99.884214
3473.000000	99.879338
3472.000000	99.876304
3471.000000	99.877492
3470.000000	99.883254
3469.000000	99.891005
3468.000000	99.896784
3467.000000	99.898072
3466.000000	99.895468
3465.000000	99.891854
3464.000000	99.890019
3463.000000	99.890699
3462.000000	99.892592
3461.000000	99.894145
3460.000000	99.895184
3459.000000	99.896621
3458.000000	99.898694
3457.000000	99.899966
3456.000000	99.898497
3455.000000	99.893787
3454.000000	99.887487
3453.000000	99.882112
3452.000000	99.879207
3451.000000	99.878441
3450.000000	99.878291
3449.000000	99.878011
3448.000000	99.879203
3447.000000	99.884492
3446.000000	99.893395
3445.000000	99.900880
3444.000000	99.901671
3443.000000	99.895693
3442.000000	99.888479
3441.000000	99.885845
3440.000000	99.888618
3439.000000	99.892710
3438.000000	99.893476
3437.000000	99.889404
3436.000000	99.882543
3435.000000	99.876202
3434.000000	99.872266
3433.000000	99.870097
3432.000000	99.867986
3431.000000	99.865491
3430.000000	99.863878
3429.000000	99.864419
3428.000000	99.866914
3427.000000	99.870179
3426.000000	99.873197
3425.000000	99.875255
3424.000000	99.875537
3423.000000	99.873591
3422.000000	99.870389
3421.000000	99.868167
3420.000000	99.868423
3419.000000	99.870141
3418.000000	99.870580
3417.000000	99.867845
3416.000000	99.862425
3415.000000	99.856327
3414.000000	99.851124
3413.000000	99.847219
3412.000000	99.844887
3411.000000	99.845121
3410.000000	99.848695
3409.000000	99.854490
3408.000000	99.859455
3407.000000	99.860695
3406.000000	99.857690
3405.000000	99.852491
3404.000000	99.847896
3403.000000	99.845351
3402.000000	99.844473
3401.000000	99.844148
3400.000000	99.843630
3399.000000	99.842709
3398.000000	99.841539
3397.000000	99.840846
3396.000000	99.841854
3395.000000	99.845288
3394.000000	99.850223
3393.000000	99.854280
3392.000000	99.855321
3391.000000	99.853162
3390.000000	99.849789
3389.000000	99.847803
3388.000000	99.848128
3387.000000	99.848710
3386.000000	99.845897
3385.000000	99.838025
3384.000000	99.827568
3383.000000	99.819009
3382.000000	99.814685
3381.000000	99.813430
3380.000000	99.812999
3379.000000	99.812451
3378.000000	99.811734
3377.000000	99.810379
3376.000000	99.807943
3375.000000	99.805402
3374.000000	99.804900
3373.000000	99.807793
3372.000000	99.813349
3371.000000	99.819254
3370.000000	99.822795
3369.000000	99.821842
3368.000000	99.815982
3367.000000	99.807340
3366.000000	99.799507
3365.000000	99.794743
3364.000000	99.792466
3363.000000	99.790930
3362.000000	99.789812
3361.000000	99.790262
3360.000000	99.792548
3359.000000	99.794703
3358.000000	99.794079
3357.000000	99.789846
3356.000000	99.783576
3355.000000	99.777664
3354.000000	99.773710
3353.000000	99.772306
3352.000000	99.773534
3351.000000	99.776909
3350.000000	99.780884
3349.000000	99.783141
3348.000000	99.782061
3347.000000	99.778077
3346.000000	99.773418
3345.000000	99.770297
3344.000000	99.769300
3343.000000	99.769326
3342.000000	99.768707
3341.000000	99.766178
3340.000000	99.761387
3339.000000	99.755331
3338.000000	99.750392
3337.000000	99.748957
3336.000000	99.751068
3335.000000	99.753598
3334.000000	99.752708
3333.000000	99.747507
3332.000000	99.740988
3331.000000	99.737290
3330.000000	99.738316
3329.000000	99.742852
3328.000000	99.748107
3327.000000	99.751425
3326.000000	99.751088
3325.000000	99.746748
3324.000000	99.739737
3323.000000	99.732506
3322.000000	99.727223
3321.000000	99.724825
3320.000000	99.725208
3319.000000	99.727566
3318.000000	99.730092
3317.000000	99.730033
3316.000000	99.725419
3315.000000	99.717368
3314.000000	99.709973
3313.000000	99.706776
3312.000000	99.707150
3311.000000	99.706852
3310.000000	99.702625
3309.000000	99.695981
3308.000000	99.691785
3307.000000	99.693162
3306.000000	99.698422
3305.000000	99.702913
3304.000000	99.703067
3303.000000	99.698423
3302.000000	99.690694
3301.000000	99.682067
3300.000000	99.674579
3299.000000	99.670137
3298.000000	99.670012
3297.000000	99.673962
3296.000000	99.680093
3295.000000	99.685998
3294.000000	99.690314
3293.000000	99.693261
3292.000000	99.695580
3291.000000	99.697068
3290.000000	99.696411
3289.000000	99.692486
3288.000000	99.685585
3287.000000	99.677394
3286.000000	99.670335
3285.000000	99.666940
3284.000000	99.668643
3283.000000	99.674027
3282.000000	99.678766
3281.000000	99.678897
3280.000000	99.674716
3279.000000	99.670578
3278.000000	99.670532
3277.000000	99.674449
3276.000000	99.678466
3275.000000	99.678561
3274.000000	99.673406
3273.000000	99.664901
3272.000000	99.656955
3271.000000	99.653171
3270.000000	99.654399
3269.000000	99.658194
3268.000000	99.661161
3267.000000	99.661992
3266.000000	99.662104
3265.000000	99.663606
3264.000000	99.667247
3263.000000	99.672318
3262.000000	99.677599
3261.000000	99.681811
3260.000000	99.683482
3259.000000	99.681365
3258.000000	99.675662
3257.000000	99.668710
3256.000000	99.663842
3255.000000	99.662933
3254.000000	99.665085
3253.000000	99.668214
3252.000000	99.671774
3251.000000	99.677043
3250.000000	99.684430
3249.000000	99.691472
3248.000000	99.694630
3247.000000	99.692853
3246.000000	99.688532
3245.000000	99.684821
3244.000000	99.682691
3243.000000	99.680924
3242.000000	99.678180
3241.000000	99.674553
3240.000000	99.671511
3239.000000	99.670770
3238.000000	99.672935
3237.000000	99.676783
3236.000000	99.680098
3235.000000	99.681526
3234.000000	99.681335
3233.000000	99.680276
3232.000000	99.678477
3231.000000	99.676119
3230.000000	99.674635
3229.000000	99.675989
3228.000000	99.680508
3227.000000	99.686135
3226.000000	99.690244
3225.000000	99.691700
3224.000000	99.690983
3223.000000	99.688958
3222.000000	99.686160
3221.000000	99.683172
3220.000000	99.680977
3219.000000	99.680553
3218.000000	99.682164
3217.000000	99.685191
3216.000000	99.688668
3215.000000	99.691929
3214.000000	99.694603
3213.000000	99.696079
3212.000000	99.695505
3211.000000	99.692733
3210.000000	99.688970
3209.000000	99.685865
3208.000000	99.683980
3207.000000	99.682540
3206.000000	99.680732
3205.000000	99.678723
3204.000000	99.677217
3203.000000	99.676453
3202.000000	99.675909
3201.000000	99.674978
3200.000000	99.673964
3199.000000	99.674495
3198.000000	99.678315
3197.000000	99.685027
3196.000000	99.691351
3195.000000	99.693782
3194.000000	99.692082
3193.000000	99.689254
3192.000000	99.687951
3191.000000	99.687761
3190.000000	99.686496
3189.000000	99.683124
3188.000000	99.678788
3187.000000	99.675654
3186.000000	99.675478
3185.000000	99.678441
3184.000000	99.682469
3183.000000	99.684481
3182.000000	99.683493
3181.000000	99.682057
3180.000000	99.683364
3179.000000	99.687228
3178.000000	99.690057
3177.000000	99.688996
3176.000000	99.684932
3175.000000	99.681229
3174.000000	99.680699
3173.000000	99.684186
3172.000000	99.690660
3171.000000	99.697601
3170.000000	99.702022
3169.000000	99.702341
3168.000000	99.699605
3167.000000	99.696500
3166.000000	99.695028
3165.000000	99.695049
3164.000000	99.694851
3163.000000	99.693094
3162.000000	99.690362
3161.000000	99.688539
3160.000000	99.688356
3159.000000	99.687935
3158.000000	99.684709
3157.000000	99.678871
3156.000000	99.674101
3155.000000	99.674377
3154.000000	99.680635
3153.000000	99.690593
3152.000000	99.700905
3151.000000	99.708973
3150.000000	99.713538
3149.000000	99.714723
3148.000000	99.713535
3147.000000	99.710906
3146.000000	99.707295
3145.000000	99.703367
3144.000000	99.700292
3143.000000	99.698663
3142.000000	99.697738
3141.000000	99.696791
3140.000000	99.697020
3139.000000	99.700897
3138.000000	99.709253
3137.000000	99.719556
3136.000000	99.727241
3135.000000	99.728563
3134.000000	99.722742
3133.000000	99.712623
3132.000000	99.703631
3131.000000	99.700898
3130.000000	99.705994
3129.000000	99.715717
3128.000000	99.724251
3127.000000	99.727202
3126.000000	99.724508
3125.000000	99.719960
3124.000000	99.717940
3123.000000	99.720006
3122.000000	99.724045
3121.000000	99.726392
3120.000000	99.724865
3119.000000	99.720027
3118.000000	99.714218
3117.000000	99.709815
3116.000000	99.708074
3115.000000	99.708865
3114.000000	99.711156
3113.000000	99.713696
3112.000000	99.715291
3111.000000	99.714742
3110.000000	99.711336
3109.000000	99.705975
3108.000000	99.701440
3107.000000	99.700524
3106.000000	99.703590
3105.000000	99.708359
3104.000000	99.712068
3103.000000	99.713236
3102.000000	99.711585
3101.000000	99.707624
3100.000000	99.702848
3099.000000	99.699200
3098.000000	99.697444
3097.000000	99.696697
3096.000000	99.696208
3095.000000	99.696764
3094.000000	99.699319
3093.000000	99.702838
3092.000000	99.704792
3091.000000	99.703624
3090.000000	99.699747
3089.000000	99.694393
3088.000000	99.688742
3087.000000	99.684223
3086.000000	99.682240
3085.000000	99.682911
3084.000000	99.684942
3083.000000	99.687234
3082.000000	99.689729
3081.000000	99.692103
3080.000000	99.692824
3079.000000	99.690836
3078.000000	99.687679
3077.000000	99.686388
3076.000000	99.688132
3075.000000	99.690925
3074.000000	99.691860
3073.000000	99.689836
3072.000000	99.685989
3071.000000	99.682399
3070.000000	99.680770
3069.000000	99.681469
3068.000000	99.682994
3067.000000	99.682838
3066.000000	99.679839
3065.000000	99.675710
3064.000000	99.673548
3063.000000	99.674790
3062.000000	99.678108
3061.000000	99.681123
3060.000000	99.682465
3059.000000	99.682168
3058.000000	99.681112
3057.000000	99.680618
3056.000000	99.681915
3055.000000	99.685176
3054.000000	99.689200
3053.000000	99.692481
3052.000000	99.694299
3051.000000	99.694467
3050.000000	99.692699
3049.000000	99.689295
3048.000000	99.686234
3047.000000	99.686214
3046.000000	99.689857
3045.000000	99.694403
3044.000000	99.695900
3043.000000	99.692828
3042.000000	99.687442
3041.000000	99.683705
3040.000000	99.684012
3039.000000	99.687620
3038.000000	99.691775
3037.000000	99.694172
3036.000000	99.694489
3035.000000	99.693900
3034.000000	99.693462
3033.000000	99.693062
3032.000000	99.691654
3031.000000	99.688344
3030.000000	99.683583
3029.000000	99.679581
3028.000000	99.679091
3027.000000	99.682901
3026.000000	99.688317
3025.000000	99.690810
3024.000000	99.687793
3023.000000	99.680814
3022.000000	99.674023
3021.000000	99.670931
3020.000000	99.672516
3019.000000	99.677347
3018.000000	99.682547
3017.000000	99.684991
3016.000000	99.682838
3015.000000	99.676693
3014.000000	99.669258
3013.000000	99.663503
3012.000000	99.660724
3011.000000	99.659752
3010.000000	99.657940
3009.000000	99.653468
3008.000000	99.647164
3007.000000	99.641817
3006.000000	99.639214
3005.000000	99.638025
3004.000000	99.635253
3003.000000	99.629747
3002.000000	99.623575
3001.000000	99.619728
3000.000000	99.619055
2999.000000	99.619819
2998.000000	99.619731
2997.000000	99.617801
2996.000000	99.614426
2995.000000	99.610402
2994.000000	99.606037
2993.000000	99.600761
2992.000000	99.593276
2991.000000	99.582379
2990.000000	99.568093
2989.000000	99.552116
2988.000000	99.537030
2987.000000	99.524815
2986.000000	99.515754
2985.000000	99.508138
2984.000000	99.498759
2983.000000	99.484427
2982.000000	99.464221
2981.000000	99.440802
2980.000000	99.418947
2979.000000	99.402007
2978.000000	99.389351
2977.000000	99.377209
2976.000000	99.361796
2975.000000	99.341884
2974.000000	99.318952
2973.000000	99.295340
2972.000000	99.272058
2971.000000	99.247879
2970.000000	99.220589
2969.000000	99.189321
2968.000000	99.155708
2967.000000	99.122645
2966.000000	99.091994
2965.000000	99.063552
2964.000000	99.035745
2963.000000	99.006901
2962.000000	98.976264
2961.000000	98.944635
2960.000000	98.914234
2959.000000	98.887392
2958.000000	98.865035
2957.000000	98.846475
2956.000000	98.830621
2955.000000	98.817057
2954.000000	98.806056
2953.000000	98.798033
2952.000000	98.793074
2951.000000	98.790562
2950.000000	98.788870
2949.000000	98.785788
2948.000000	98.779518
2947.000000	98.769157
2946.000000	98.754070
2945.000000	98.733127
2944.000000	98.705182
2943.000000	98.670175
2942.000000	98.629447
2941.000000	98.584710
2940.000000	98.536818
2939.000000	98.485429
2938.000000	98.429488
2937.000000	98.368050
2936.000000	98.300854
2935.000000	98.228508
2934.000000	98.152201
2933.000000	98.073106
2932.000000	97.991994
2931.000000	97.909344
2930.000000	97.825896
2929.000000	97.743006
2928.000000	97.662565
2927.000000	97.586771
2926.000000	97.518145
2925.000000	97.459797
2924.000000	97.414964
2923.000000	97.385848
2922.000000	97.372637
2921.000000	97.374100
2920.000000	97.389720
2919.000000	97.421104
2918.000000	97.471133
2917.000000	97.541280
2916.000000	97.629796
2915.000000	97.732351
2914.000000	97.843684
2913.000000	97.958340
2912.000000	98.070263
2911.000000	98.173401
2910.000000	98.263607
2909.000000	98.340168
2908.000000	98.405265
2907.000000	98.461787
2906.000000	98.511749
2905.000000	98.556183
2904.000000	98.595939
2903.000000	98.631856
2902.000000	98.664552
2901.000000	98.693934
2900.000000	98.719874
2899.000000	98.743454
2898.000000	98.767253
2897.000000	98.794073
2896.000000	98.824646
2895.000000	98.856401
2894.000000	98.884840
2893.000000	98.906892
2892.000000	98.923511
2891.000000	98.939108
2890.000000	98.958034
2889.000000	98.981187
2888.000000	99.005685
2887.000000	99.027597
2886.000000	99.044986
2885.000000	99.058495
2884.000000	99.069667
2883.000000	99.079258
2882.000000	99.087024
2881.000000	99.092319
2880.000000	99.094318
2879.000000	99.092065
2878.000000	99.085184
2877.000000	99.074787
2876.000000	99.063055
2875.000000	99.051495
2874.000000	99.039914
2873.000000	99.027453
2872.000000	99.014415
2871.000000	99.002546
2870.000000	98.993434
2869.000000	98.986800
2868.000000	98.980345
2867.000000	98.971076
2866.000000	98.956950
2865.000000	98.937620
2864.000000	98.913572
2863.000000	98.884473
2862.000000	98.848313
2861.000000	98.802355
2860.000000	98.744843
2859.000000	98.675883
2858.000000	98.597438
2857.000000	98.513466
2856.000000	98.429971
2855.000000	98.353741
2854.000000	98.290518
2853.000000	98.244325
2852.000000	98.218749
2851.000000	98.218284
2850.000000	98.247305
2849.000000	98.307278
2848.000000	98.394617
2847.000000	98.501152
2846.000000	98.616915
2845.000000	98.733284
2844.000000	98.844089
2843.000000	98.944914
2842.000000	99.032365
2841.000000	99.104827
2840.000000	99.163935
2839.000000	99.213860
2838.000000	99.258343
2837.000000	99.298619
2836.000000	99.334271
2835.000000	99.365279
2834.000000	99.392426
2833.000000	99.416193
2832.000000	99.436290
2831.000000	99.452229
2830.000000	99.463704
2829.000000	99.470757
2828.000000	99.474398
2827.000000	99.476929
2826.000000	99.480581
2825.000000	99.485640
2824.000000	99.490960
2823.000000	99.496592
2822.000000	99.504662
2821.000000	99.516630
2820.000000	99.530451
2819.000000	99.541878
2818.000000	99.548700
2817.000000	99.552729
2816.000000	99.557344
2815.000000	99.563848
2814.000000	99.570685
2813.000000	99.575580
2812.000000	99.577557
2811.000000	99.576944
2810.000000	99.574381
2809.000000	99.570603
2808.000000	99.567040
2807.000000	99.565716
2806.000000	99.567862
2805.000000	99.572711
2804.000000	99.578166
2803.000000	99.582882
2802.000000	99.587410
2801.000000	99.593154
2800.000000	99.600459
2799.000000	99.607866
2798.000000	99.613067
2797.000000	99.614556
2796.000000	99.612667
2795.000000	99.609289
2794.000000	99.606501
2793.000000	99.605331
2792.000000	99.605798
2791.000000	99.607912
2790.000000	99.612012
2789.000000	99.617884
2788.000000	99.624166
2787.000000	99.629220
2786.000000	99.632360
2785.000000	99.633729
2784.000000	99.633325
2783.000000	99.630987
2782.000000	99.627326
2781.000000	99.623796
2780.000000	99.621427
2779.000000	99.620109
2778.000000	99.619458
2777.000000	99.619773
2776.000000	99.621551
2775.000000	99.624456
2774.000000	99.627505
2773.000000	99.630264
2772.000000	99.633322
2771.000000	99.637446
2770.000000	99.642571
2769.000000	99.647687
2768.000000	99.651450
2767.000000	99.652961
2766.000000	99.652311
2765.000000	99.650569
2764.000000	99.649100
2763.000000	99.648700
2762.000000	99.649168
2761.000000	99.649521
2760.000000	99.648686
2759.000000	99.646485
2758.000000	99.644235
2757.000000	99.643914
2756.000000	99.646197
2755.000000	99.649629
2754.000000	99.652308
2753.000000	99.654088
2752.000000	99.656330
2751.000000	99.659585
2750.000000	99.662501
2749.000000	99.663364
2748.000000	99.661963
2747.000000	99.659531
2746.000000	99.657465
2745.000000	99.656541
2744.000000	99.656712
2743.000000	99.657005
2742.000000	99.656061
2741.000000	99.653517
2740.000000	99.650627
2739.000000	99.648943
2738.000000	99.648705
2737.000000	99.649225
2736.000000	99.650494
2735.000000	99.653272
2734.000000	99.657456
2733.000000	99.661382
2732.000000	99.663409
2731.000000	99.663614
2730.000000	99.663208
2729.000000	99.662594
2728.000000	99.660831
2727.000000	99.657263
2726.000000	99.653163
2725.000000	99.651225
2724.000000	99.653238
2723.000000	99.658391
2722.000000	99.663921
2721.000000	99.667304
2720.000000	99.667808
2719.000000	99.666373
2718.000000	99.664716
2717.000000	99.664600
2716.000000	99.666988
2715.000000	99.671004
2714.000000	99.674129
2713.000000	99.674353
2712.000000	99.672186
2711.000000	99.669839
2710.000000	99.668514
2709.000000	99.667557
2708.000000	99.666567
2707.000000	99.667150
2706.000000	99.671344
2705.000000	99.678535
2704.000000	99.685047
2703.000000	99.687296
2702.000000	99.685090
2701.000000	99.681658
2700.000000	99.680549
2699.000000	99.682447
2698.000000	99.684840
2697.000000	99.684667
2696.000000	99.681379
2695.000000	99.677380
2694.000000	99.675552
2693.000000	99.676664
2692.000000	99.679278
2691.000000	99.681546
2690.000000	99.682446
2689.000000	99.681573
2688.000000	99.678876
2687.000000	99.675257
2686.000000	99.672793
2685.000000	99.673342
2684.000000	99.676705
2683.000000	99.680628
2682.000000	99.682903
2681.000000	99.683186
2680.000000	99.682535
2679.000000	99.681494
2678.000000	99.679280
2677.000000	99.675101
2676.000000	99.669889
2675.000000	99.666184
2674.000000	99.666111
2673.000000	99.669615
2672.000000	99.674683
2671.000000	99.679042
2670.000000	99.681454
2669.000000	99.681773
2668.000000	99.680496
2667.000000	99.678473
2666.000000	99.676438
2665.000000	99.674171
2664.000000	99.670349
2663.000000	99.664011
2662.000000	99.656404
2661.000000	99.650712
2660.000000	99.649387
2659.000000	99.651995
2658.000000	99.656078
2657.000000	99.659697
2656.000000	99.662521
2655.000000	99.664789
2654.000000	99.666471
2653.000000	99.667922
2652.000000	99.670332
2651.000000	99.674457
2650.000000	99.679178
2649.000000	99.682226
2648.000000	99.682500
2647.000000	99.681019
2646.000000	99.679374
2645.000000	99.677903
2644.000000	99.676058
2643.000000	99.674215
2642.000000	99.674152
2641.000000	99.677233
2640.000000	99.682549
2639.000000	99.687570
2638.000000	99.690710
2637.000000	99.692667
2636.000000	99.695034
2635.000000	99.698269
2634.000000	99.701615
2633.000000	99.704478
2632.000000	99.706870
2631.000000	99.708572
2630.000000	99.708967
2629.000000	99.708245
2628.000000	99.707996
2627.000000	99.709902
2626.000000	99.714034
2625.000000	99.718840
2624.000000	99.722610
2623.000000	99.724673
2622.000000	99.725430
2621.000000	99.725445
2620.000000	99.724365
2619.000000	99.720899
2618.000000	99.714382
2617.000000	99.706289
2616.000000	99.699477
2615.000000	99.695941
2614.000000	99.696234
2613.000000	99.700820
2612.000000	99.710001
2611.000000	99.721462
2610.000000	99.729816
2609.000000	99.730802
2608.000000	99.725550
2607.000000	99.719108
2606.000000	99.715059
2605.000000	99.713435
2604.000000	99.713575
2603.000000	99.716516
2602.000000	99.723217
2601.000000	99.731722
2600.000000	99.737790
2599.000000	99.738428
2598.000000	99.734379
2597.000000	99.729374
2596.000000	99.727213
2595.000000	99.729239
2594.000000	99.733950
2593.000000	99.738615
2592.000000	99.741101
2591.000000	99.740674
2590.000000	99.738164
2589.000000	99.735901
2588.000000	99.736523
2587.000000	99.740616
2586.000000	99.745737
2585.000000	99.748630
2584.000000	99.748421
2583.000000	99.747266
2582.000000	99.748233
2581.000000	99.752977
2580.000000	99.760468
2579.000000	99.767054
2578.000000	99.768791
2577.000000	99.765287
2576.000000	99.760802
2575.000000	99.760090
2574.000000	99.763537
2573.000000	99.767747
2572.000000	99.769905
2571.000000	99.769411
2570.000000	99.765976
2569.000000	99.759475
2568.000000	99.752724
2567.000000	99.751515
2566.000000	99.759594
2565.000000	99.774410
2564.000000	99.788836
2563.000000	99.796367
2562.000000	99.794614
2561.000000	99.786113
2560.000000	99.777189
2559.000000	99.774012
2558.000000	99.777421
2557.000000	99.781991
2556.000000	99.781544
2555.000000	99.774957
2554.000000	99.765758
2553.000000	99.757787
2552.000000	99.753386
2551.000000	99.754450
2550.000000	99.761847
2549.000000	99.772826
2548.000000	99.781125
2547.000000	99.781459
2546.000000	99.773969
2545.000000	99.764236
2544.000000	99.759575
2543.000000	99.764719
2542.000000	99.779072
2541.000000	99.796600
2540.000000	99.808879
2539.000000	99.809862
2538.000000	99.799149
2537.000000	99.781614
2536.000000	99.764049
2535.000000	99.751318
2534.000000	99.744393
2533.000000	99.741406
2532.000000	99.740380
2531.000000	99.740874
2530.000000	99.743028
2529.000000	99.745866
2528.000000	99.747443
2527.000000	99.746613
2526.000000	99.743942
2525.000000	99.740768
2524.000000	99.738130
2523.000000	99.736848
2522.000000	99.737883
2521.000000	99.741644
2520.000000	99.746743
2519.000000	99.749871
2518.000000	99.747516
2517.000000	99.738561
2516.000000	99.725933
2515.000000	99.715694
2514.000000	99.713389
2513.000000	99.719885
2512.000000	99.730381
2511.000000	99.738231
2510.000000	99.740117
2509.000000	99.737476
2508.000000	99.733482
2507.000000	99.730226
2506.000000	99.729356
2505.000000	99.733179
2504.000000	99.742483
2503.000000	99.753608
2502.000000	99.760544
2501.000000	99.761042
2500.000000	99.758737
2499.000000	99.757929
2498.000000	99.757932
2497.000000	99.754739
2496.000000	99.747478
2495.000000	99.740911
2494.000000	99.741172
2493.000000	99.749942
2492.000000	99.762742
2491.000000	99.772161
2490.000000	99.773317
2489.000000	99.767882
2488.000000	99.762687
2487.000000	99.762950
2486.000000	99.766810
2485.000000	99.767706
2484.000000	99.762325
2483.000000	99.754581
2482.000000	99.751305
2481.000000	99.755715
2480.000000	99.765682
2479.000000	99.776862
2478.000000	99.785942
2477.000000	99.791626
2476.000000	99.794474
2475.000000	99.796222
2474.000000	99.798489
2473.000000	99.801658
2472.000000	99.805057
2471.000000	99.807792
2470.000000	99.808906
2469.000000	99.807043
2468.000000	99.801092
2467.000000	99.791942
2466.000000	99.783156
2465.000000	99.778965
2464.000000	99.780994
2463.000000	99.787259
2462.000000	99.794588
2461.000000	99.801351
2460.000000	99.807216
2459.000000	99.810997
2458.000000	99.810583
2457.000000	99.805696
2456.000000	99.799643
2455.000000	99.797139
2454.000000	99.800224
2453.000000	99.806179
2452.000000	99.808943
2451.000000	99.803037
2450.000000	99.788223
2449.000000	99.771378
2448.000000	99.762439
2447.000000	99.766783
2446.000000	99.781364
2445.000000	99.798304
2444.000000	99.811029
2443.000000	99.816640
2442.000000	99.815078
2441.000000	99.808845
2440.000000	99.802751
2439.000000	99.800997
2438.000000	99.803776
2437.000000	99.807957
2436.000000	99.811102
2435.000000	99.813450
2434.000000	99.816087
2433.000000	99.818957
2432.000000	99.821263
2431.000000	99.822684
2430.000000	99.823550
2429.000000	99.824435
2428.000000	99.825842
2427.000000	99.827891
2426.000000	99.830384
2425.000000	99.833331
2424.000000	99.836663
2423.000000	99.838802
2422.000000	99.836685
2421.000000	99.828849
2420.000000	99.818139
2419.000000	99.809891
2418.000000	99.807145
2417.000000	99.808141
2416.000000	99.808165
2415.000000	99.803334
2414.000000	99.793635
2413.000000	99.783543
2412.000000	99.778979
2411.000000	99.782308
2410.000000	99.790696
2409.000000	99.799875
2408.000000	99.808305
2407.000000	99.816283
2406.000000	99.822450
2405.000000	99.823847
2404.000000	99.819443
2403.000000	99.811885
2402.000000	99.805614
2401.000000	99.804198
2400.000000	99.808607
2399.000000	99.816293
2398.000000	99.822529
2397.000000	99.824437
2396.000000	99.823514
2395.000000	99.823021
2394.000000	99.823807
2393.000000	99.824675
2392.000000	99.825640
2391.000000	99.828142
2390.000000	99.832038
2389.000000	99.835152
2388.000000	99.836617
2387.000000	99.837829
2386.000000	99.840078
2385.000000	99.842758
2384.000000	99.844996
2383.000000	99.847863
2382.000000	99.852978
2381.000000	99.860871
2380.000000	99.870221
2379.000000	99.877732
2378.000000	99.879321
2377.000000	99.872812
2376.000000	99.860379
2375.000000	99.847440
2374.000000	99.840074
2373.000000	99.842745
2372.000000	99.855876
2371.000000	99.873170
2370.000000	99.885041
2369.000000	99.887840
2368.000000	99.884889
2367.000000	99.878642
2366.000000	99.867372
2365.000000	99.852604
2364.000000	99.842848
2363.000000	99.842392
2362.000000	99.845342
2361.000000	99.846396
2360.000000	99.847415
2359.000000	99.854859
2358.000000	99.869891
2357.000000	99.884743
2356.000000	99.886584
2355.000000	99.866706
2354.000000	99.838334
2353.000000	99.825745
2352.000000	99.834755
2351.000000	99.847741
2350.000000	99.847757
2349.000000	99.835390
2348.000000	99.821993
2347.000000	99.820009
2346.000000	99.827895
2345.000000	99.827808
2344.000000	99.809661
2343.000000	99.785001
2342.000000	99.775024
2341.000000	99.786382
2340.000000	99.805219
2339.000000	99.814443
2338.000000	99.811966
2337.000000	99.806716
2336.000000	99.805157
2335.000000	99.808101
2334.000000	99.817676
2333.000000	99.834833
2332.000000	99.851631
2331.000000	99.856705
2330.000000	99.845758
2329.000000	99.825739
2328.000000	99.802894
2327.000000	99.780606
2326.000000	99.762320
2325.000000	99.752129
2324.000000	99.753186
2323.000000	99.762801
2322.000000	99.773792
2321.000000	99.775930
2320.000000	99.764381
2319.000000	99.744240
2318.000000	99.725197
2317.000000	99.713520
2316.000000	99.709512
2315.000000	99.712767
2314.000000	99.722103
2313.000000	99.733531
2312.000000	99.741210
2311.000000	99.743896
2310.000000	99.745519
2309.000000	99.749309
2308.000000	99.754231
2307.000000	99.757810
2306.000000	99.759548
2305.000000	99.759537
2304.000000	99.757998
2303.000000	99.755911
2302.000000	99.755481
2301.000000	99.758182
2300.000000	99.764231
2299.000000	99.773527
2298.000000	99.783548
2297.000000	99.788080
2296.000000	99.780025
2295.000000	99.759402
2294.000000	99.735391
2293.000000	99.719740
2292.000000	99.717825
2291.000000	99.725976
2290.000000	99.735638
2289.000000	99.739209
2288.000000	99.734807
2287.000000	99.726641
2286.000000	99.720885
2285.000000	99.720104
2284.000000	99.722940
2283.000000	99.727550
2282.000000	99.733864
2281.000000	99.741990
2280.000000	99.751260
2279.000000	99.760849
2278.000000	99.769177
2277.000000	99.772436
2276.000000	99.766636
2275.000000	99.753708
2274.000000	99.743273
2273.000000	99.745425
2272.000000	99.760642
2271.000000	99.778591
2270.000000	99.787764
2269.000000	99.785913
2268.000000	99.780530
2267.000000	99.779309
2266.000000	99.781649
2265.000000	99.781098
2264.000000	99.775258
2263.000000	99.770715
2262.000000	99.776742
2261.000000	99.795377
2260.000000	99.818691
2259.000000	99.834737
2258.000000	99.836585
2257.000000	99.827389
2256.000000	99.817702
2255.000000	99.815428
2254.000000	99.817927
2253.000000	99.816861
2252.000000	99.810832
2251.000000	99.808737
2250.000000	99.818208
2249.000000	99.834826
2248.000000	99.846219
2247.000000	99.844608
2246.000000	99.832231
2245.000000	99.817167
2244.000000	99.807397
2243.000000	99.806912
2242.000000	99.813590
2241.000000	99.820928
2240.000000	99.824057
2239.000000	99.823761
2238.000000	99.824039
2237.000000	99.827889
2236.000000	99.836292
2235.000000	99.848014
2234.000000	99.858920
2233.000000	99.864895
2232.000000	99.866822
2231.000000	99.868060
2230.000000	99.865391
2229.000000	99.849547
2228.000000	99.819735
2227.000000	99.792011
2226.000000	99.786639
2225.000000	99.809228
2224.000000	99.847556
2223.000000	99.882858
2222.000000	99.900140
2221.000000	99.893619
2220.000000	99.870074
2219.000000	99.843857
2218.000000	99.823355
2217.000000	99.806484
2216.000000	99.793614
2215.000000	99.796531
2214.000000	99.824160
2213.000000	99.864244
2212.000000	99.891397
2211.000000	99.892873
2210.000000	99.875528
2209.000000	99.848484
2208.000000	99.812272
2207.000000	99.768687
2206.000000	99.731077
2205.000000	99.716648
2204.000000	99.730949
2203.000000	99.763533
2202.000000	99.797048
2201.000000	99.819883
2200.000000	99.833295
2199.000000	99.846642
2198.000000	99.863558
2197.000000	99.875032
2196.000000	99.870468
2195.000000	99.852775
2194.000000	99.836294
2193.000000	99.831237
2192.000000	99.835430
2191.000000	99.839985
2190.000000	99.836757
2189.000000	99.821103
2188.000000	99.794580
2187.000000	99.765700
2186.000000	99.743606
2185.000000	99.731350
2184.000000	99.728068
2183.000000	99.734317
2182.000000	99.749273
2181.000000	99.765834
2180.000000	99.776641
2179.000000	99.782666
2178.000000	99.787512
2177.000000	99.786279
2176.000000	99.771260
2175.000000	99.748636
2174.000000	99.738978
2173.000000	99.756658
2172.000000	99.793554
2171.000000	99.824507
2170.000000	99.825014
2169.000000	99.788092
2168.000000	99.733567
2167.000000	99.698465
2166.000000	99.708138
2165.000000	99.753371
2164.000000	99.800651
2163.000000	99.826550
2162.000000	99.834408
2161.000000	99.840245
2160.000000	99.855580
2159.000000	99.883911
2158.000000	99.920349
2157.000000	99.950915
2156.000000	99.963028
2155.000000	99.957932
2154.000000	99.947148
2153.000000	99.940359
2152.000000	99.940216
2151.000000	99.943962
2150.000000	99.945406
2149.000000	99.939843
2148.000000	99.932956
2147.000000	99.939580
2146.000000	99.966247
2145.000000	99.998771
2144.000000	100.014954
2143.000000	100.006485
2142.000000	99.981640
2141.000000	99.952802
2140.000000	99.930489
2139.000000	99.924536
2138.000000	99.938763
2137.000000	99.962948
2136.000000	99.979078
2135.000000	99.978798
2134.000000	99.968738
2133.000000	99.958552
2132.000000	99.950924
2131.000000	99.943477
2130.000000	99.933502
2129.000000	99.919176
2128.000000	99.901538
2127.000000	99.886525
2126.000000	99.880543
2125.000000	99.882807
2124.000000	99.886092
2123.000000	99.885857
2122.000000	99.883989
2121.000000	99.882262
2120.000000	99.877325
2119.000000	99.865266
2118.000000	99.847511
2117.000000	99.829684
2116.000000	99.817396
2115.000000	99.814587
2114.000000	99.821864
2113.000000	99.833124
2112.000000	99.837662
2111.000000	99.830794
2110.000000	99.820595
2109.000000	99.819508
2108.000000	99.830058
2107.000000	99.843022
2106.000000	99.849846
2105.000000	99.852178
2104.000000	99.857400
2103.000000	99.868265
2102.000000	99.879927
2101.000000	99.886243
2100.000000	99.885835
2099.000000	99.881430
2098.000000	99.876169
2097.000000	99.872997
2096.000000	99.875816
2095.000000	99.886530
2094.000000	99.899520
2093.000000	99.902890
2092.000000	99.889408
2091.000000	99.865614
2090.000000	99.847580
2089.000000	99.846698
2088.000000	99.859455
2087.000000	99.871423
2086.000000	99.871001
2085.000000	99.859178
2084.000000	99.846328
2083.000000	99.839675
2082.000000	99.835709
2081.000000	99.826887
2080.000000	99.813546
2079.000000	99.804729
2078.000000	99.807178
2077.000000	99.818728
2076.000000	99.834004
2075.000000	99.850541
2074.000000	99.865463
2073.000000	99.872180
2072.000000	99.867462
2071.000000	99.857963
2070.000000	99.852454
2069.000000	99.849294
2068.000000	99.838732
2067.000000	99.817647
2066.000000	99.795617
2065.000000	99.785140
2064.000000	99.789570
2063.000000	99.802137
2062.000000	99.813439
2061.000000	99.817623
2060.000000	99.814120
2059.000000	99.805040
2058.000000	99.790920
2057.000000	99.772199
2056.000000	99.755898
2055.000000	99.753954
2054.000000	99.767985
2053.000000	99.780557
2052.000000	99.772035
2051.000000	99.744923
2050.000000	99.723285
2049.000000	99.727056
2048.000000	99.752453
2047.000000	99.781474
2046.000000	99.803006
2045.000000	99.816799
2044.000000	99.826056
2043.000000	99.834932
2042.000000	99.846114
2041.000000	99.853557
2040.000000	99.844336
2039.000000	99.815088
2038.000000	99.781206
2037.000000	99.765145
2036.000000	99.778820
2035.000000	99.819387
2034.000000	99.874802
2033.000000	99.924621
2032.000000	99.944094
2031.000000	99.922099
2030.000000	99.874278
2029.000000	99.832548
2028.000000	99.820100
2027.000000	99.836829
2026.000000	99.866329
2025.000000	99.889783
2024.000000	99.895332
2023.000000	99.883982
2022.000000	99.869807
2021.000000	99.870543
2020.000000	99.892395
2019.000000	99.923956
2018.000000	99.946388
2017.000000	99.949024
2016.000000	99.935757
2015.000000	99.916966
2014.000000	99.899189
2013.000000	99.884938
2012.000000	99.876564
2011.000000	99.874805
2010.000000	99.876359
2009.000000	99.878416
2008.000000	99.885017
2007.000000	99.902568
2006.000000	99.926748
2005.000000	99.940285
2004.000000	99.928989
2003.000000	99.896510
2002.000000	99.860390
2001.000000	99.836658
2000.000000	99.829100
1999.000000	99.831375
1998.000000	99.837053
1997.000000	99.845230
1996.000000	99.855999
1995.000000	99.863509
1994.000000	99.858896
1993.000000	99.843007
1992.000000	99.830776
1991.000000	99.833708
1990.000000	99.843045
1989.000000	99.841729
1988.000000	99.828520
1987.000000	99.818152
1986.000000	99.818082
1985.000000	99.817751
1984.000000	99.806045
1983.000000	99.788856
1982.000000	99.780882
1981.000000	99.787354
1980.000000	99.803587
1979.000000	99.828285
1978.000000	99.865717
1977.000000	99.912459
1976.000000	99.951128
1975.000000	99.962713
1974.000000	99.942026
1973.000000	99.903245
1972.000000	99.873309
1971.000000	99.873540
1970.000000	99.903946
1969.000000	99.946683
1968.000000	99.983484
1967.000000	100.006985
1966.000000	100.017576
1965.000000	100.018441
1964.000000	100.015705
1963.000000	100.014195
1962.000000	100.009630
1961.000000	99.992414
1960.000000	99.961885
1959.000000	99.928595
1958.000000	99.900649
1957.000000	99.878212
1956.000000	99.864186
1955.000000	99.868523
1954.000000	99.894503
1953.000000	99.927468
1952.000000	99.945151
1951.000000	99.937509
1950.000000	99.912906
1949.000000	99.888949
1948.000000	99.880868
1947.000000	99.893389
1946.000000	99.917797
1945.000000	99.938922
1944.000000	99.948183
1943.000000	99.947704
1942.000000	99.941071
1941.000000	99.927661
1940.000000	99.910597
1939.000000	99.901078
1938.000000	99.908075
1937.000000	99.926988
1936.000000	99.943432
1935.000000	99.947878
1934.000000	99.941759
1933.000000	99.931445
1932.000000	99.921831
1931.000000	99.915216
1930.000000	99.912369
1929.000000	99.913374
1928.000000	99.919366
1927.000000	99.932050
1926.000000	99.948993
1925.000000	99.961318
1924.000000	99.960187
1923.000000	99.946730
1922.000000	99.931471
1921.000000	99.922161
1920.000000	99.917025
1919.000000	99.910439
1918.000000	99.900812
1917.000000	99.892840
1916.000000	99.893159
1915.000000	99.903790
1914.000000	99.918747
1913.000000	99.926296
1912.000000	99.917484
1911.000000	99.894377
1910.000000	99.869152
1909.000000	99.855126
1908.000000	99.858144
1907.000000	99.874838
1906.000000	99.896055
1905.000000	99.911433
1904.000000	99.916139
1903.000000	99.915325
1902.000000	99.918127
1901.000000	99.927167
1900.000000	99.937374
1899.000000	99.943645
1898.000000	99.945096
1897.000000	99.942380
1896.000000	99.935747
1895.000000	99.927654
1894.000000	99.923523
1893.000000	99.926863
1892.000000	99.935812
1891.000000	99.945362
1890.000000	99.950569
1889.000000	99.948480
1888.000000	99.940035
1887.000000	99.929476
1886.000000	99.920614
1885.000000	99.914784
1884.000000	99.911578
1883.000000	99.910335
1882.000000	99.910972
1881.000000	99.913649
1880.000000	99.918626
1879.000000	99.925755
1878.000000	99.933664
1877.000000	99.940492
1876.000000	99.945207
1875.000000	99.947285
1874.000000	99.945790
1873.000000	99.940718
1872.000000	99.935292
1871.000000	99.934323
1870.000000	99.939035
1869.000000	99.944658
1868.000000	99.946505
1867.000000	99.947044
1866.000000	99.950722
1865.000000	99.956160
1864.000000	99.959057
1863.000000	99.957777
1862.000000	99.952998
1861.000000	99.945656
1860.000000	99.938660
1859.000000	99.937668
1858.000000	99.945620
1857.000000	99.957611
1856.000000	99.965718
1855.000000	99.968383
1854.000000	99.970166
1853.000000	99.973566
1852.000000	99.976474
1851.000000	99.976684
1850.000000	99.974508
1849.000000	99.971400
1848.000000	99.968729
1847.000000	99.968414
1846.000000	99.972356
1845.000000	99.980107
1844.000000	99.987043
1843.000000	99.989575
1842.000000	99.990450
1841.000000	99.992328
1840.000000	99.993813
1839.000000	99.993072
1838.000000	99.990117
1837.000000	99.986742
1836.000000	99.984975
1835.000000	99.985583
1834.000000	99.987623
1833.000000	99.990848
1832.000000	99.997623
1831.000000	100.008703
1830.000000	100.016322
1829.000000	100.009705
1828.000000	99.990746
1827.000000	99.972070
1826.000000	99.963500
1825.000000	99.966866
1824.000000	99.976419
1823.000000	99.984916
1822.000000	99.988511
1821.000000	99.985851
1820.000000	99.978693
1819.000000	99.972437
1818.000000	99.972880
1817.000000	99.980937
1816.000000	99.991418
1815.000000	99.998954
1814.000000	100.002736
1813.000000	100.004726
1812.000000	100.005419
1811.000000	100.002202
1810.000000	99.993194
1809.000000	99.980791
1808.000000	99.969533
1807.000000	99.962222
1806.000000	99.957420
1805.000000	99.949992
1804.000000	99.936122
1803.000000	99.918011
1802.000000	99.901808
1801.000000	99.891343
1800.000000	99.884535
1799.000000	99.877334
1798.000000	99.870138
1797.000000	99.866333
1796.000000	99.866685
1795.000000	99.867963
1794.000000	99.865513
1793.000000	99.858471
1792.000000	99.853063
1791.000000	99.857157
1790.000000	99.871590
1789.000000	99.888669
1788.000000	99.899307
1787.000000	99.901723
1786.000000	99.902728
1785.000000	99.909462
1784.000000	99.921659
1783.000000	99.934030
1782.000000	99.941847
1781.000000	99.943353
1780.000000	99.940107
1779.000000	99.935942
1778.000000	99.934833
1777.000000	99.938482
1776.000000	99.946131
1775.000000	99.955583
1774.000000	99.963616
1773.000000	99.967699
1772.000000	99.967497
1771.000000	99.962975
1770.000000	99.953964
1769.000000	99.941751
1768.000000	99.929836
1767.000000	99.922627
1766.000000	99.920772
1765.000000	99.919465
1764.000000	99.913049
1763.000000	99.900366
1762.000000	99.885250
1761.000000	99.873012
1760.000000	99.865547
1759.000000	99.859134
1758.000000	99.848071
1757.000000	99.830629
1756.000000	99.811892
1755.000000	99.795896
1754.000000	99.778046
1753.000000	99.751612
1752.000000	99.718664
1751.000000	99.689694
1750.000000	99.668834
1749.000000	99.647722
1748.000000	99.620442
1747.000000	99.590677
1746.000000	99.561844
1745.000000	99.533764
1744.000000	99.508746
1743.000000	99.491365
1742.000000	99.480226
1741.000000	99.466725
1740.000000	99.446142
1739.000000	99.425868
1738.000000	99.412506
1737.000000	99.402998
1736.000000	99.392964
1735.000000	99.393226
1734.000000	99.420329
1733.000000	99.461381
1732.000000	99.496433
1731.000000	99.527553
1730.000000	99.560276
1729.000000	99.593134
1728.000000	99.622355
1727.000000	99.646818
1726.000000	99.667511
1725.000000	99.684664
1724.000000	99.698850
1723.000000	99.711877
1722.000000	99.725390
1721.000000	99.737860
1720.000000	99.747152
1719.000000	99.753236
1718.000000	99.757275
1717.000000	99.759163
1716.000000	99.756611
1715.000000	99.751331
1714.000000	99.747566
1713.000000	99.744877
1712.000000	99.741504
1711.000000	99.739716
1710.000000	99.743485
1709.000000	99.752328
1708.000000	99.761142
1707.000000	99.766242
1706.000000	99.770715
1705.000000	99.779094
1704.000000	99.787019
1703.000000	99.786948
1702.000000	99.775064
1701.000000	99.755555
1700.000000	99.737790
1699.000000	99.727855
1698.000000	99.725134
1697.000000	99.721804
1696.000000	99.712958
1695.000000	99.700268
1694.000000	99.690337
1693.000000	99.684854
1692.000000	99.676578
1691.000000	99.661564
1690.000000	99.641638
1689.000000	99.620939
1688.000000	99.601964
1687.000000	99.583515
1686.000000	99.561188
1685.000000	99.534743
1684.000000	99.513144
1683.000000	99.499174
1682.000000	99.487125
1681.000000	99.473026
1680.000000	99.456979
1679.000000	99.441423
1678.000000	99.425395
1677.000000	99.404243
1676.000000	99.381691
1675.000000	99.370649
1674.000000	99.375305
1673.000000	99.385711
1672.000000	99.392408
1671.000000	99.392908
1670.000000	99.389424
1669.000000	99.382974
1668.000000	99.375506
1667.000000	99.371795
1666.000000	99.371172
1665.000000	99.368463
1664.000000	99.360811
1663.000000	99.349617
1662.000000	99.336747
1661.000000	99.321616
1660.000000	99.305735
1659.000000	99.291477
1658.000000	99.281680
1657.000000	99.274672
1656.000000	99.270546
1655.000000	99.269436
1654.000000	99.280645
1653.000000	99.298407
1652.000000	99.296674
1651.000000	99.289277
1650.000000	99.288250
1649.000000	99.283544
1648.000000	99.273472
1647.000000	99.267614
1646.000000	99.269062
1645.000000	99.268921
1644.000000	99.265828
1643.000000	99.262777
1642.000000	99.260422
1641.000000	99.261902
1640.000000	99.269412
1639.000000	99.281453
1638.000000	99.294493
1637.000000	99.307567
1636.000000	99.323287
1635.000000	99.336690
1634.000000	99.340478
1633.000000	99.340319
1632.000000	99.341173
1631.000000	99.343872
1630.000000	99.350627
1629.000000	99.361665
1628.000000	99.375456
1627.000000	99.389219
1626.000000	99.400143
1625.000000	99.407084
1624.000000	99.412490
1623.000000	99.420083
1622.000000	99.429416
1621.000000	99.438445
1620.000000	99.449229
1619.000000	99.464077
1618.000000	99.482385
1617.000000	99.500699
1616.000000	99.515644
1615.000000	99.528634
1614.000000	99.540772
1613.000000	99.548963
1612.000000	99.553301
1611.000000	99.559661
1610.000000	99.571076
1609.000000	99.583223
1608.000000	99.591982
1607.000000	99.598886
1606.000000	99.605220
1605.000000	99.609327
1604.000000	99.611440
1603.000000	99.614111
1602.000000	99.617382
1601.000000	99.618183
1600.000000	99.615601
1599.000000	99.612264
1598.000000	99.609795
1597.000000	99.607806
1596.000000	99.606857
1595.000000	99.608172
1594.000000	99.609948
1593.000000	99.608065
1592.000000	99.601662
1591.000000	99.593509
1590.000000	99.584307
1589.000000	99.571541
1588.000000	99.554501
1587.000000	99.535171
1586.000000	99.512919
1585.000000	99.484395
1584.000000	99.451270
1583.000000	99.420859
1582.000000	99.397055
1581.000000	99.377236
1580.000000	99.358788
1579.000000	99.343218
1578.000000	99.332645
1577.000000	99.327749
1576.000000	99.329013
1575.000000	99.336243
1574.000000	99.346518
1573.000000	99.355883
1572.000000	99.363541
1571.000000	99.373792
1570.000000	99.390184
1569.000000	99.405419
1568.000000	99.413522
1567.000000	99.419566
1566.000000	99.426568
1565.000000	99.430526
1564.000000	99.429729
1563.000000	99.426878
1562.000000	99.424184
1561.000000	99.422435
1560.000000	99.419340
1559.000000	99.405610
1558.000000	99.377547
1557.000000	99.343280
1556.000000	99.315916
1555.000000	99.299014
1554.000000	99.285800
1553.000000	99.269730
1552.000000	99.242318
1551.000000	99.204827
1550.000000	99.166392
1549.000000	99.134965
1548.000000	99.104613
1547.000000	99.062808
1546.000000	99.003765
1545.000000	98.937270
1544.000000	98.882581
1543.000000	98.849079
1542.000000	98.828272
1541.000000	98.811378
1540.000000	98.804012
1539.000000	98.803924
1538.000000	98.801052
1537.000000	98.797736
1536.000000	98.795995
1535.000000	98.798199
1534.000000	98.812734
1533.000000	98.837599
1532.000000	98.857654
1531.000000	98.864375
1530.000000	98.860042
1529.000000	98.846395
1528.000000	98.826944
1527.000000	98.809032
1526.000000	98.798524
1525.000000	98.794286
1524.000000	98.789332
1523.000000	98.774406
1522.000000	98.743526
1521.000000	98.703055
1520.000000	98.667774
1519.000000	98.642547
1518.000000	98.618099
1517.000000	98.588364
1516.000000	98.558193
1515.000000	98.530170
1514.000000	98.498782
1513.000000	98.460072
1512.000000	98.419802
1511.000000	98.385680
1510.000000	98.357202
1509.000000	98.329988
1508.000000	98.309728
1507.000000	98.309177
1506.000000	98.305966
1505.000000	98.275253
1504.000000	98.236238
1503.000000	98.199335
1502.000000	98.159389
1501.000000	98.117807
1500.000000	98.079769
1499.000000	98.048629
1498.000000	98.015937
1497.000000	97.973953
1496.000000	97.929064
1495.000000	97.892340
1494.000000	97.860834
1493.000000	97.822595
1492.000000	97.773318
1491.000000	97.722924
1490.000000	97.685694
1489.000000	97.662806
1488.000000	97.642032
1487.000000	97.614925
1486.000000	97.581153
1485.000000	97.540531
1484.000000	97.493582
1483.000000	97.443119
1482.000000	97.392967
1481.000000	97.346644
1480.000000	97.304144
1479.000000	97.261016
1478.000000	97.211898
1477.000000	97.155214
1476.000000	97.092924
1475.000000	97.026206
1474.000000	96.952965
1473.000000	96.876986
1472.000000	96.811103
1471.000000	96.757881
1470.000000	96.708608
1469.000000	96.658821
1468.000000	96.611195
1467.000000	96.570674
1466.000000	96.539587
1465.000000	96.518284
1464.000000	96.504851
1463.000000	96.492618
1462.000000	96.475609
1461.000000	96.451553
1460.000000	96.420459
1459.000000	96.382430
1458.000000	96.341510
1457.000000	96.313266
1456.000000	96.304576
1455.000000	96.301517
1454.000000	96.290554
1453.000000	96.270828
1452.000000	96.250435
1451.000000	96.233105
1450.000000	96.212784
1449.000000	96.188322
1448.000000	96.169943
1447.000000	96.162669
1446.000000	96.154856
1445.000000	96.136853
1444.000000	96.112808
1443.000000	96.090843
1442.000000	96.072726
1441.000000	96.053528
1440.000000	96.027028
1439.000000	95.989579
1438.000000	95.945435
1437.000000	95.913179
1436.000000	95.908273
1435.000000	95.916037
1434.000000	95.911595
1433.000000	95.889911
1432.000000	95.862830
1431.000000	95.842628
1430.000000	95.828437
1429.000000	95.812664
1428.000000	95.793742
1427.000000	95.772975
1426.000000	95.749022
1425.000000	95.724402
1424.000000	95.707555
1423.000000	95.695989
1422.000000	95.673122
1421.000000	95.630592
1420.000000	95.584816
1419.000000	95.563432
1418.000000	95.566117
1417.000000	95.569952
1416.000000	95.565888
1415.000000	95.555408
1414.000000	95.538279
1413.000000	95.517513
1412.000000	95.503687
1411.000000	95.505348
1410.000000	95.516669
1409.000000	95.525575
1408.000000	95.528581
1407.000000	95.530583
1406.000000	95.536265
1405.000000	95.548043
1404.000000	95.565983
1403.000000	95.582917
1402.000000	95.588674
1401.000000	95.582329
1400.000000	95.575911
1399.000000	95.579790
1398.000000	95.586582
1397.000000	95.585005
1396.000000	95.580663
1395.000000	95.587882
1394.000000	95.606417
1393.000000	95.623902
1392.000000	95.635206
1391.000000	95.640610
1390.000000	95.638901
1389.000000	95.633024
1388.000000	95.635559
1387.000000	95.657172
1386.000000	95.689917
1385.000000	95.719110
1384.000000	95.743587
1383.000000	95.770483
1382.000000	95.801456
1381.000000	95.832291
1380.000000	95.862986
1379.000000	95.899040
1378.000000	95.941597
1377.000000	95.986170
1376.000000	96.032402
1375.000000	96.086809
1374.000000	96.150904
1373.000000	96.214634
1372.000000	96.268680
1371.000000	96.313928
1370.000000	96.356955
1369.000000	96.404383
1368.000000	96.457948
1367.000000	96.510922
1366.000000	96.554773
1365.000000	96.590603
1364.000000	96.631058
1363.000000	96.688711
1362.000000	96.761201
1361.000000	96.834860
1360.000000	96.901969
1359.000000	96.963391
1358.000000	97.021357
1357.000000	97.077585
1356.000000	97.133414
1355.000000	97.187874
1354.000000	97.238288
1353.000000	97.284923
1352.000000	97.331246
1351.000000	97.378587
1350.000000	97.423999
1349.000000	97.464347
1348.000000	97.499648
1347.000000	97.531056
1346.000000	97.559333
1345.000000	97.586293
1344.000000	97.613604
1343.000000	97.639124
1342.000000	97.659137
1341.000000	97.675428
1340.000000	97.695941
1339.000000	97.725208
1338.000000	97.758697
1337.000000	97.791312
1336.000000	97.823466
1335.000000	97.855496
1334.000000	97.884048
1333.000000	97.906830
1332.000000	97.926516
1331.000000	97.947082
1330.000000	97.969190
1329.000000	97.991558
1328.000000	98.013970
1327.000000	98.036445
1326.000000	98.057620
1325.000000	98.076350
1324.000000	98.093352
1323.000000	98.109348
1322.000000	98.123752
1321.000000	98.136584
1320.000000	98.149539
1319.000000	98.163862
1318.000000	98.178964
1317.000000	98.194073
1316.000000	98.208903
1315.000000	98.222382
1314.000000	98.233988
1313.000000	98.246806
1312.000000	98.265367
1311.000000	98.289344
1310.000000	98.313006
1309.000000	98.332090
1308.000000	98.347739
1307.000000	98.362801
1306.000000	98.377579
1305.000000	98.390979
1304.000000	98.403437
1303.000000	98.416026
1302.000000	98.428390
1301.000000	98.439657
1300.000000	98.450492
1299.000000	98.462870
1298.000000	98.478175
1297.000000	98.495659
1296.000000	98.512026
1295.000000	98.523417
1294.000000	98.529595
1293.000000	98.535223
1292.000000	98.544590
1291.000000	98.555599
1290.000000	98.561905
1289.000000	98.561390
1288.000000	98.559382
1287.000000	98.562538
1286.000000	98.571992
1285.000000	98.583799
1284.000000	98.593874
1283.000000	98.600627
1282.000000	98.604537
1281.000000	98.606826
1280.000000	98.608417
1279.000000	98.610077
1278.000000	98.613433
1277.000000	98.620659
1276.000000	98.631862
1275.000000	98.643620
1274.000000	98.651822
1273.000000	98.655677
1272.000000	98.657810
1271.000000	98.661092
1270.000000	98.666567
1269.000000	98.673295
1268.000000	98.678345
1267.000000	98.678071
1266.000000	98.672021
1265.000000	98.665012
1264.000000	98.662908
1263.000000	98.666615
1262.000000	98.672021
1261.000000	98.675139
1260.000000	98.675357
1259.000000	98.674790
1258.000000	98.676593
1257.000000	98.682659
1256.000000	98.690437
1255.000000	98.693366
1254.000000	98.687616
1253.000000	98.677562
1252.000000	98.671214
1251.000000	98.671033
1250.000000	98.672555
1249.000000	98.671198
1248.000000	98.666439
1247.000000	98.659289
1246.000000	98.650423
1245.000000	98.642433
1244.000000	98.639914
1243.000000	98.644541
1242.000000	98.652341
1241.000000	98.657888
1240.000000	98.659320
1239.000000	98.658084
1238.000000	98.656024
1237.000000	98.654234
1236.000000	98.652934
1235.000000	98.651025
1234.000000	98.647331
1233.000000	98.643330
1232.000000	98.642801
1231.000000	98.647446
1230.000000	98.654560
1229.000000	98.660566
1228.000000	98.665238
1227.000000	98.670809
1226.000000	98.678353
1225.000000	98.686953
1224.000000	98.695716
1223.000000	98.704628
1222.000000	98.713394
1221.000000	98.720836
1220.000000	98.726185
1219.000000	98.730820
1218.000000	98.737948
1217.000000	98.749525
1216.000000	98.763178
1215.000000	98.773443
1214.000000	98.777228
1213.000000	98.777222
1212.000000	98.778535
1211.000000	98.782928
1210.000000	98.787939
1209.000000	98.790736
1208.000000	98.790660
1207.000000	98.788513
1206.000000	98.785800
1205.000000	98.784570
1204.000000	98.785776
1203.000000	98.787701
1202.000000	98.788051
1201.000000	98.787625
1200.000000	98.789486
1199.000000	98.793957
1198.000000	98.796949
1197.000000	98.794654
1196.000000	98.788154
1195.000000	98.781989
1194.000000	98.779322
1193.000000	98.779735
1192.000000	98.780902
1191.000000	98.781015
1190.000000	98.779853
1189.000000	98.778303
1188.000000	98.776935
1187.000000	98.774825
1186.000000	98.769880
1185.000000	98.760612
1184.000000	98.747746
1183.000000	98.734647
1182.000000	98.726133
1181.000000	98.725365
1180.000000	98.730617
1179.000000	98.735778
1178.000000	98.735422
1177.000000	98.729240
1176.000000	98.720978
1175.000000	98.714015
1174.000000	98.708936
1173.000000	98.704623
1172.000000	98.700465
1171.000000	98.697492
1170.000000	98.697780
1169.000000	98.702422
1168.000000	98.709845
1167.000000	98.717019
1166.000000	98.723039
1165.000000	98.730150
1164.000000	98.740246
1163.000000	98.751802
1162.000000	98.761775
1161.000000	98.769308
1160.000000	98.775725
1159.000000	98.781968
1158.000000	98.788047
1157.000000	98.794243
1156.000000	98.800818
1155.000000	98.807026
1154.000000	98.812214
1153.000000	98.817639
1152.000000	98.825698
1151.000000	98.837824
1150.000000	98.854163
1149.000000	98.874187
1148.000000	98.896045
1147.000000	98.916556
1146.000000	98.934151
1145.000000	98.951017
1144.000000	98.970204
1143.000000	98.991316
1142.000000	99.010913
1141.000000	99.026159
1140.000000	99.036099
1139.000000	99.040753
1138.000000	99.041586
1137.000000	99.042287
1136.000000	99.046535
1135.000000	99.055025
1134.000000	99.066107
1133.000000	99.078327
1132.000000	99.090572
1131.000000	99.100854
1130.000000	99.107281
1129.000000	99.109762
1128.000000	99.109252
1127.000000	99.106811
1126.000000	99.104896
1125.000000	99.106989
1124.000000	99.113191
1123.000000	99.118172
1122.000000	99.117113
1121.000000	99.112373
1120.000000	99.110555
1119.000000	99.113864
1118.000000	99.118001
1117.000000	99.118153
1116.000000	99.113586
1115.000000	99.106600
1114.000000	99.100313
1113.000000	99.097358
1112.000000	99.097674
1111.000000	99.097820
1110.000000	99.095327
1109.000000	99.092975
1108.000000	99.095472
1107.000000	99.102565
1106.000000	99.109587
1105.000000	99.114220
1104.000000	99.117752
1103.000000	99.119427
1102.000000	99.115173
1101.000000	99.104388
1100.000000	99.093377
1099.000000	99.088819
1098.000000	99.090825
1097.000000	99.093960
1096.000000	99.093076
1095.000000	99.086193
1094.000000	99.074745
1093.000000	99.063419
1092.000000	99.057503
1091.000000	99.057736
1090.000000	99.058784
1089.000000	99.054498
1088.000000	99.043298
1087.000000	99.027526
1086.000000	99.010454
1085.000000	98.996410
1084.000000	98.991229
1083.000000	98.997999
1082.000000	99.011562
1081.000000	99.020348
1080.000000	99.015768
1079.000000	98.999762
1078.000000	98.982835
1077.000000	98.975281
1076.000000	98.980185
1075.000000	98.993603
1074.000000	99.009676
1073.000000	99.024503
1072.000000	99.035729
1071.000000	99.041163
1070.000000	99.040294
1069.000000	99.036289
1068.000000	99.033842
1067.000000	99.034622
1066.000000	99.036467
1065.000000	99.037209
1064.000000	99.037542
1063.000000	99.039571
1062.000000	99.044097
1061.000000	99.050049
1060.000000	99.055554
1059.000000	99.059014
1058.000000	99.060096
1057.000000	99.060071
1056.000000	99.060379
1055.000000	99.060891
1054.000000	99.060549
1053.000000	99.059568
1052.000000	99.059759
1051.000000	99.062425
1050.000000	99.066908
1049.000000	99.071385
1048.000000	99.074200
1047.000000	99.074510
1046.000000	99.072683
1045.000000	99.069913
1044.000000	99.066757
1043.000000	99.062636
1042.000000	99.057577
1041.000000	99.053445
1040.000000	99.051949
1039.000000	99.052395
1038.000000	99.053111
1037.000000	99.054278
1036.000000	99.056993
1035.000000	99.059971
1034.000000	99.060143
1033.000000	99.057086
1032.000000	99.054443
1031.000000	99.055734
1030.000000	99.060586
1029.000000	99.066080
1028.000000	99.070015
1027.000000	99.071352
1026.000000	99.068869
1025.000000	99.061487
1024.000000	99.050216
1023.000000	99.039095
1022.000000	99.033791
1021.000000	99.038468
1020.000000	99.052686
1019.000000	99.070760
1018.000000	99.085052
1017.000000	99.090984
1016.000000	99.089325
1015.000000	99.084597
1014.000000	99.082411
1013.000000	99.087218
1012.000000	99.099976
1011.000000	99.116709
1010.000000	99.130731
1009.000000	99.137944
1008.000000	99.139951
1007.000000	99.141474
1006.000000	99.145498
1005.000000	99.151613
1004.000000	99.158420
1003.000000	99.165995
1002.000000	99.175348
1001.000000	99.186320
1000.000000	99.197129
999.000000	99.206425
998.000000	99.215351
997.000000	99.226720
996.000000	99.241717
995.000000	99.257566
994.000000	99.269134
993.000000	99.273750
992.000000	99.274588
991.000000	99.278547
990.000000	99.289620
989.000000	99.304652
988.000000	99.317346
987.000000	99.326178
986.000000	99.335785
985.000000	99.349516
984.000000	99.363521
983.000000	99.371283
982.000000	99.372041
981.000000	99.371380
980.000000	99.374543
979.000000	99.382528
978.000000	99.393847
977.000000	99.405927
976.000000	99.414918
975.000000	99.418540
974.000000	99.419812
973.000000	99.423705
972.000000	99.429479
971.000000	99.431093
970.000000	99.426964
969.000000	99.424048
968.000000	99.429260
967.000000	99.441412
966.000000	99.455211
965.000000	99.469223
964.000000	99.484902
963.000000	99.500812
962.000000	99.513181
961.000000	99.521111
960.000000	99.527057
959.000000	99.533443
958.000000	99.542637
957.000000	99.558081
956.000000	99.580280
955.000000	99.602518
954.000000	99.616128
953.000000	99.620427
952.000000	99.622998
951.000000	99.629372
950.000000	99.637209
949.000000	99.642384
948.000000	99.646201
947.000000	99.653302
946.000000	99.664440
945.000000	99.674717
944.000000	99.678913
943.000000	99.677298
942.000000	99.676276
941.000000	99.682980
940.000000	99.698212
939.000000	99.714855
938.000000	99.724651
937.000000	99.727076
936.000000	99.729878
935.000000	99.740199
934.000000	99.756377
933.000000	99.769455
932.000000	99.772787
931.000000	99.769170
930.000000	99.767730
929.000000	99.773862
928.000000	99.783457
927.000000	99.788712
926.000000	99.788421
925.000000	99.789149
924.000000	99.796065
923.000000	99.806229
922.000000	99.813087
921.000000	99.814478
920.000000	99.813330
919.000000	99.813097
918.000000	99.816067
917.000000	99.824544
916.000000	99.839341
915.000000	99.856775
914.000000	99.870121
913.000000	99.875133
912.000000	99.872761
911.000000	99.866896
910.000000	99.861277
909.000000	99.858171
908.000000	99.858369
907.000000	99.862278
906.000000	99.871166
905.000000	99.885867
904.000000	99.903456
903.000000	99.917883
902.000000	99.926213
901.000000	99.932102
900.000000	99.940568
899.000000	99.951424
898.000000	99.961328
897.000000	99.969790
896.000000	99.978704
895.000000	99.986851
894.000000	99.990255
893.000000	99.989188
892.000000	99.990582
891.000000	100.001279
890.000000	100.020167
889.000000	100.037547
888.000000	100.040826
887.000000	100.020383
886.000000	99.972962
885.000000	99.899795
884.000000	99.799956
883.000000	99.666452
882.000000	99.488202
881.000000	99.255379
880.000000	98.961554
879.000000	98.605504
878.000000	98.196598
877.000000	97.755222
876.000000	97.303069
875.000000	96.855065
874.000000	96.435616
873.000000	96.109084
872.000000	95.982724
871.000000	96.146548
870.000000	96.590964
869.000000	97.192440
868.000000	97.788370
867.000000	98.271246
866.000000	98.621699
865.000000	98.872075
864.000000	99.056044
863.000000	99.191111
862.000000	99.288417
861.000000	99.361039
860.000000	99.420693
859.000000	99.473631
858.000000	99.523151
857.000000	99.570566
856.000000	99.612860
855.000000	99.644765
854.000000	99.665586
853.000000	99.679945
852.000000	99.688504
851.000000	99.683428
850.000000	99.659629
849.000000	99.628238
848.000000	99.612217
847.000000	99.626472
846.000000	99.665371
845.000000	99.710680
844.000000	99.748021
843.000000	99.774516
842.000000	99.794514
841.000000	99.811800
840.000000	99.825770
839.000000	99.833168
838.000000	99.833210
837.000000	99.830989
836.000000	99.834717
835.000000	99.848486
834.000000	99.867608
833.000000	99.882191
832.000000	99.886266
831.000000	99.883501
830.000000	99.883676
829.000000	99.893140
828.000000	99.908987
827.000000	99.923195
826.000000	99.931055
825.000000	99.933475
824.000000	99.931869
823.000000	99.924929
822.000000	99.912541
821.000000	99.900036
820.000000	99.895321
819.000000	99.901714
818.000000	99.914543
817.000000	99.924725
816.000000	99.926036
815.000000	99.920836
814.000000	99.919276
813.000000	99.930217
812.000000	99.951073
811.000000	99.967910
810.000000	99.967910
809.000000	99.951981
808.000000	99.933996
807.000000	99.928179
806.000000	99.937976
805.000000	99.955396
804.000000	99.968767
803.000000	99.970869
802.000000	99.961690
801.000000	99.946210
800.000000	99.930863
799.000000	99.921145
798.000000	99.919483
797.000000	99.923003
796.000000	99.924435
795.000000	99.918452
794.000000	99.907794
793.000000	99.901256
792.000000	99.905185
791.000000	99.918650
790.000000	99.936942
789.000000	99.956973
788.000000	99.977118
787.000000	99.993563
786.000000	99.999974
785.000000	99.992028
784.000000	99.971911
783.000000	99.948055
782.000000	99.930158
781.000000	99.923546
780.000000	99.927153
779.000000	99.935497
778.000000	99.941628
777.000000	99.939748
776.000000	99.928854
775.000000	99.915363
774.000000	99.909028
773.000000	99.913581
772.000000	99.923182
771.000000	99.929996
770.000000	99.932747
769.000000	99.934826
768.000000	99.937103
767.000000	99.937718
766.000000	99.937391
765.000000	99.939213
764.000000	99.942956
763.000000	99.944511
762.000000	99.941929
761.000000	99.938097
760.000000	99.936808
759.000000	99.939581
758.000000	99.946505
757.000000	99.956074
756.000000	99.964023
755.000000	99.967189
754.000000	99.969154
753.000000	99.977303
752.000000	99.993127
751.000000	100.009679
750.000000	100.019380
749.000000	100.019915
748.000000	100.011736
747.000000	99.995727
746.000000	99.976133
745.000000	99.960851
744.000000	99.954884
743.000000	99.956227
742.000000	99.959969
741.000000	99.962908
740.000000	99.963204
739.000000	99.960082
738.000000	99.955439
737.000000	99.951296
736.000000	99.944814
735.000000	99.931505
734.000000	99.914843
733.000000	99.905259
732.000000	99.906053
731.000000	99.907261
730.000000	99.898681
729.000000	99.882875
728.000000	99.871759
727.000000	99.873284
726.000000	99.882873
725.000000	99.887396
724.000000	99.875441
723.000000	99.845296
722.000000	99.805364
721.000000	99.766462
720.000000	99.731774
719.000000	99.692961
718.000000	99.635100
717.000000	99.543216
716.000000	99.408262
715.000000	99.240001
714.000000	99.078727
713.000000	98.981273
712.000000	98.982407
711.000000	99.068892
710.000000	99.195130
709.000000	99.319299
708.000000	99.422017
707.000000	99.500651
706.000000	99.556160
705.000000	99.591136
704.000000	99.614255
703.000000	99.636309
702.000000	99.662381
701.000000	99.689519
700.000000	99.710253
699.000000	99.721050
698.000000	99.724558
697.000000	99.725498
696.000000	99.728442
695.000000	99.737640
694.000000	99.759303
693.000000	99.795719
692.000000	99.835571
691.000000	99.862872
690.000000	99.873430
689.000000	99.878252
688.000000	99.889464
687.000000	99.906793
686.000000	99.924784
685.000000	99.940184
684.000000	99.946234
683.000000	99.934689
682.000000	99.908060
681.000000	99.880104
680.000000	99.858864
679.000000	99.841579
678.000000	99.828404
677.000000	99.822269
676.000000	99.823063
675.000000	99.827576
674.000000	99.836143
673.000000	99.852306
672.000000	99.877509
671.000000	99.918852
670.000000	99.992516
669.000000	100.104462
668.000000	100.175070
667.000000	100.110433
666.000000	99.993345
665.000000	99.890313
664.000000	99.813900
663.000000	99.776677
662.000000	99.776918
661.000000	99.799467
660.000000	99.827301
659.000000	99.850396
658.000000	99.860791
657.000000	99.850688
656.000000	99.829850
655.000000	99.821526
654.000000	99.830426
653.000000	99.834931
652.000000	99.821498
651.000000	99.803625
650.000000	99.800557
649.000000	99.812173
648.000000	99.825979
647.000000	99.832512
646.000000	99.825806
645.000000	99.807991
644.000000	99.794473
643.000000	99.800665
642.000000	99.824700
641.000000	99.850334
640.000000	99.866912
639.000000	99.875598
638.000000	99.876391
637.000000	99.867243
636.000000	99.857837
635.000000	99.862186
634.000000	99.874785
633.000000	99.873025
632.000000	99.847790
631.000000	99.818190
630.000000	99.809267
629.000000	99.825020
628.000000	99.850556
627.000000	99.868935
626.000000	99.869575
625.000000	99.855297
624.000000	99.842322
623.000000	99.843728
622.000000	99.852355
621.000000	99.849425
620.000000	99.830507
619.000000	99.811751
618.000000	99.809882
617.000000	99.825571
616.000000	99.847899
615.000000	99.864756
614.000000	99.865946
613.000000	99.849030
612.000000	99.828396
611.000000	99.826257
610.000000	99.846467
609.000000	99.867103
608.000000	99.866559
607.000000	99.848301
606.000000	99.830932
605.000000	99.825755
604.000000	99.831308
603.000000	99.841249
602.000000	99.849620
601.000000	99.851980
600.000000	99.849312
599.000000	99.849786
598.000000	99.860656
597.000000	99.879555
596.000000	99.896855
595.000000	99.902904
594.000000	99.891188
593.000000	99.861323
592.000000	99.825658
591.000000	99.808049
590.000000	99.825152
589.000000	99.868425
588.000000	99.909589
587.000000	99.921871
586.000000	99.897998
585.000000	99.855070
584.000000	99.822735
583.000000	99.820148
582.000000	99.840524
581.000000	99.859912
580.000000	99.862372
579.000000	99.854438
578.000000	99.852881
577.000000	99.866088
576.000000	99.890911
575.000000	99.917989
574.000000	99.935666
573.000000	99.935314
572.000000	99.919498
571.000000	99.902411
570.000000	99.895455
569.000000	99.891194
568.000000	99.869682
567.000000	99.822034
566.000000	99.762125
565.000000	99.715219
564.000000	99.700251
563.000000	99.719499
562.000000	99.756378
561.000000	99.785484
560.000000	99.792005
559.000000	99.781430
558.000000	99.768101
557.000000	99.757516
556.000000	99.744445
555.000000	99.726908
554.000000	99.713749
553.000000	99.714533
552.000000	99.727651
551.000000	99.741786
550.000000	99.747682
549.000000	99.747029
548.000000	99.748834
547.000000	99.757750
546.000000	99.766990
545.000000	99.764608
544.000000	99.748267
543.000000	99.730343
542.000000	99.727937
541.000000	99.748468
540.000000	99.784252
539.000000	99.820186
538.000000	99.844906
537.000000	99.854202
536.000000	99.844863
535.000000	99.811959
534.000000	99.758750
533.000000	99.704991
532.000000	99.675541
531.000000	99.677990
530.000000	99.696582
529.000000	99.711768
528.000000	99.717329
527.000000	99.714911
526.000000	99.704228
525.000000	99.689082
524.000000	99.681373
523.000000	99.684389
522.000000	99.682944
521.000000	99.663566
520.000000	99.638230
519.000000	99.634314
518.000000	99.660954
517.000000	99.701433
516.000000	99.740930
515.000000	99.776084
514.000000	99.797677
513.000000	99.792574
512.000000	99.770291
511.000000	99.764532
510.000000	99.793660
509.000000	99.835455
508.000000	99.855492
507.000000	99.849647
506.000000	99.840368
505.000000	99.837550
504.000000	99.825547
503.000000	99.788105
502.000000	99.733438
501.000000	99.688638
500.000000	99.672269
499.000000	99.683900
498.000000	99.712527
497.000000	99.743106
496.000000	99.759996
495.000000	99.752811
494.000000	99.725145
493.000000	99.696708
492.000000	99.688244
491.000000	99.699256
490.000000	99.710520
489.000000	99.716589
488.000000	99.739318
487.000000	99.794736
486.000000	99.856411
485.000000	99.876638
484.000000	99.850160
483.000000	99.823192
482.000000	99.822495
481.000000	99.814459
480.000000	99.757093
479.000000	99.661861
478.000000	99.580807
477.000000	99.548155
476.000000	99.556251
475.000000	99.582511
474.000000	99.612322
473.000000	99.633951
472.000000	99.635075
471.000000	99.615027
470.000000	99.589258
469.000000	99.575467
468.000000	99.585141
467.000000	99.620864
466.000000	99.670425
465.000000	99.715057
464.000000	99.745004
463.000000	99.757093
462.000000	99.744789
461.000000	99.710422
460.000000	99.685301
459.000000	99.712722
458.000000	99.791066
457.000000	99.851310
456.000000	99.849917
455.000000	99.829688
454.000000	99.848027
453.000000	99.911740
452.000000	99.983114
451.000000	100.021813
450.000000	100.019911
