PE UV       SUBTECH     SPECTRUM    ASCII       PEDS        4.00        
   -1
RDms1240122.Sample.asc
18/03/20
18:01:27.00
18/03/20
18:01:27.00
Administrator

200.000000
1
Lambda 750
750N8071901
PerkinElmer UV WinLab 6.0.4.0738 / 1.61.00 Lambda 900

0
0
3350/servo 860.8/2
0
0
UV/VIS
1
1
1
CommonBeamDepol,150mm sphere / downward view
0
0
0
0
Program
Program
3350/servo 860.8/2
3350/0.2 860.8/0.2
3350/0.2 860.8/0.2
0
1
 
 
 
0
 
860.8
319.2
860.8
Front
100
on
 
 
0
0
0
 
0
 
 
 
0
 
 
0
0
0
0
0
 
 
 
 
0
0


0
0
#HDR
-1
-1
#GR
nm
%R
1.0
0.0
2350.000000
-1.000000
2151
8
53.737470
9.999471
#DATA
2350.000000	29.337291
2349.000000	29.486830
2348.000000	29.368031
2347.000000	29.716184
2346.000000	29.447135
2345.000000	29.049298
2344.000000	29.048261
2343.000000	28.986427
2342.000000	29.096500
2341.000000	29.123341
2340.000000	29.054394
2339.000000	28.922571
2338.000000	29.429252
2337.000000	29.537209
2336.000000	30.114605
2335.000000	30.217209
2334.000000	29.944786
2333.000000	29.944730
2332.000000	29.958723
2331.000000	29.960293
2330.000000	29.670922
2329.000000	29.680691
2328.000000	29.529379
2327.000000	29.455147
2326.000000	29.604458
2325.000000	29.897574
2324.000000	29.832236
2323.000000	29.637640
2322.000000	29.621350
2321.000000	29.575181
2320.000000	29.501977
2319.000000	29.648436
2318.000000	29.281256
2317.000000	29.228637
2316.000000	29.224935
2315.000000	29.281414
2314.000000	29.101248
2313.000000	28.974543
2312.000000	28.990817
2311.000000	28.948865
2310.000000	29.060692
2309.000000	29.151450
2308.000000	29.041245
2307.000000	28.787492
2306.000000	28.571761
2305.000000	28.553073
2304.000000	28.825896
2303.000000	28.924949
2302.000000	28.665047
2301.000000	28.701669
2300.000000	28.563566
2299.000000	28.457552
2298.000000	28.130670
2297.000000	28.313336
2296.000000	28.265565
2295.000000	28.399615
2294.000000	28.205126
2293.000000	28.368511
2292.000000	28.355941
2291.000000	28.042807
2290.000000	27.897061
2289.000000	27.967460
2288.000000	27.992402
2287.000000	28.007285
2286.000000	27.825168
2285.000000	27.817696
2284.000000	27.731479
2283.000000	27.683612
2282.000000	27.792095
2281.000000	27.797659
2280.000000	27.944297
2279.000000	28.004218
2278.000000	28.191222
2277.000000	28.326187
2276.000000	28.185710
2275.000000	28.172092
2274.000000	28.180336
2273.000000	28.190382
2272.000000	28.169630
2271.000000	28.141395
2270.000000	28.155622
2269.000000	28.303976
2268.000000	28.322905
2267.000000	28.508015
2266.000000	28.522903
2265.000000	28.575999
2264.000000	28.762555
2263.000000	28.766954
2262.000000	28.891803
2261.000000	29.005944
2260.000000	29.008926
2259.000000	29.183528
2258.000000	29.462757
2257.000000	29.678207
2256.000000	29.683206
2255.000000	29.711696
2254.000000	30.009637
2253.000000	30.159720
2252.000000	30.199174
2251.000000	30.361964
2250.000000	30.494737
2249.000000	30.774422
2248.000000	30.843065
2247.000000	30.973152
2246.000000	31.348627
2245.000000	31.428039
2244.000000	31.404321
2243.000000	31.652265
2242.000000	31.836907
2241.000000	31.877870
2240.000000	32.049867
2239.000000	32.172994
2238.000000	32.244680
2237.000000	32.322621
2236.000000	32.310365
2235.000000	32.405043
2234.000000	32.613222
2233.000000	32.633025
2232.000000	32.608951
2231.000000	32.635701
2230.000000	32.563096
2229.000000	32.628689
2228.000000	32.615587
2227.000000	32.553501
2226.000000	32.576493
2225.000000	32.551720
2224.000000	32.505503
2223.000000	32.474858
2222.000000	32.570393
2221.000000	32.588103
2220.000000	32.597836
2219.000000	32.599476
2218.000000	32.615111
2217.000000	32.614281
2216.000000	32.562478
2215.000000	32.496219
2214.000000	32.567539
2213.000000	32.615419
2212.000000	32.478726
2211.000000	32.419315
2210.000000	32.385404
2209.000000	32.362094
2208.000000	32.236866
2207.000000	32.156801
2206.000000	32.201029
2205.000000	32.284291
2204.000000	32.229913
2203.000000	32.013682
2202.000000	31.920797
2201.000000	31.968210
2200.000000	31.900734
2199.000000	31.885105
2198.000000	31.835762
2197.000000	31.610743
2196.000000	31.742053
2195.000000	31.792290
2194.000000	31.643380
2193.000000	31.473948
2192.000000	31.468396
2191.000000	31.501098
2190.000000	31.507038
2189.000000	31.467950
2188.000000	31.360766
2187.000000	31.203316
2186.000000	31.127099
2185.000000	31.108222
2184.000000	31.269526
2183.000000	31.343312
2182.000000	31.324392
2181.000000	31.171189
2180.000000	31.302086
2179.000000	31.192300
2178.000000	31.093291
2177.000000	31.252172
2176.000000	31.249261
2175.000000	31.225106
2174.000000	31.172884
2173.000000	31.147706
2172.000000	31.290901
2171.000000	31.328770
2170.000000	31.358482
2169.000000	31.473144
2168.000000	31.516991
2167.000000	31.532250
2166.000000	31.598117
2165.000000	31.695708
2164.000000	31.774574
2163.000000	31.769371
2162.000000	31.984796
2161.000000	32.084801
2160.000000	32.210076
2159.000000	32.344069
2158.000000	32.245082
2157.000000	32.424922
2156.000000	32.477030
2155.000000	32.587664
2154.000000	32.787563
2153.000000	32.983363
2152.000000	33.046486
2151.000000	33.048912
2150.000000	33.156267
2149.000000	33.225409
2148.000000	33.285288
2147.000000	33.466002
2146.000000	33.487522
2145.000000	33.744256
2144.000000	33.851648
2143.000000	33.852329
2142.000000	34.024806
2141.000000	34.157461
2140.000000	34.046331
2139.000000	33.983797
2138.000000	34.440532
2137.000000	34.295697
2136.000000	34.356805
2135.000000	34.599102
2134.000000	34.715580
2133.000000	34.751326
2132.000000	34.879450
2131.000000	34.766056
2130.000000	34.964852
2129.000000	34.834826
2128.000000	34.993356
2127.000000	35.078985
2126.000000	35.140682
2125.000000	34.958291
2124.000000	35.240170
2123.000000	35.108639
2122.000000	35.153383
2121.000000	35.232111
2120.000000	35.203769
2119.000000	35.162209
2118.000000	35.357056
2117.000000	35.344810
2116.000000	35.353675
2115.000000	35.677401
2114.000000	35.401701
2113.000000	35.213731
2112.000000	35.381617
2111.000000	35.327217
2110.000000	35.508202
2109.000000	35.581737
2108.000000	35.451115
2107.000000	35.578012
2106.000000	35.514531
2105.000000	35.449121
2104.000000	35.601832
2103.000000	35.491266
2102.000000	35.574149
2101.000000	35.645335
2100.000000	35.646936
2099.000000	35.461321
2098.000000	35.491080
2097.000000	35.527061
2096.000000	35.582136
2095.000000	35.654330
2094.000000	35.677393
2093.000000	35.641534
2092.000000	35.659747
2091.000000	35.493887
2090.000000	35.523327
2089.000000	35.552010
2088.000000	35.494663
2087.000000	35.619465
2086.000000	35.671230
2085.000000	35.485769
2084.000000	35.430743
2083.000000	35.351246
2082.000000	35.419671
2081.000000	35.303721
2080.000000	35.227798
2079.000000	35.184670
2078.000000	35.127603
2077.000000	35.096970
2076.000000	34.979429
2075.000000	34.900950
2074.000000	34.786605
2073.000000	34.790031
2072.000000	34.729584
2071.000000	34.727319
2070.000000	34.595459
2069.000000	34.519106
2068.000000	34.434786
2067.000000	34.340539
2066.000000	34.265577
2065.000000	34.115174
2064.000000	33.989036
2063.000000	33.947505
2062.000000	33.849560
2061.000000	33.681779
2060.000000	33.553929
2059.000000	33.529413
2058.000000	33.450925
2057.000000	33.293003
2056.000000	33.206733
2055.000000	33.222703
2054.000000	33.087942
2053.000000	32.939956
2052.000000	32.880717
2051.000000	32.776965
2050.000000	32.656004
2049.000000	32.660310
2048.000000	32.624629
2047.000000	32.590619
2046.000000	32.545489
2045.000000	32.459204
2044.000000	32.433526
2043.000000	32.456862
2042.000000	32.457467
2041.000000	32.477236
2040.000000	32.539257
2039.000000	32.540407
2038.000000	32.553332
2037.000000	32.597668
2036.000000	32.642786
2035.000000	32.651880
2034.000000	32.702015
2033.000000	32.826158
2032.000000	32.975475
2031.000000	32.970280
2030.000000	33.032153
2029.000000	33.158088
2028.000000	33.209048
2027.000000	33.257954
2026.000000	33.348665
2025.000000	33.395814
2024.000000	33.392736
2023.000000	33.449053
2022.000000	33.505124
2021.000000	33.545404
2020.000000	33.568261
2019.000000	33.611411
2018.000000	33.659138
2017.000000	33.638086
2016.000000	33.629789
2015.000000	33.650499
2014.000000	33.623927
2013.000000	33.605986
2012.000000	33.620963
2011.000000	33.599440
2010.000000	33.533211
2009.000000	33.443086
2008.000000	33.416274
2007.000000	33.350615
2006.000000	33.288178
2005.000000	33.234960
2004.000000	33.132544
2003.000000	33.065561
2002.000000	33.058845
2001.000000	32.996652
2000.000000	32.898936
1999.000000	32.802574
1998.000000	32.756995
1997.000000	32.700019
1996.000000	32.615194
1995.000000	32.555968
1994.000000	32.451617
1993.000000	32.368978
1992.000000	32.264183
1991.000000	32.197708
1990.000000	32.147709
1989.000000	32.072550
1988.000000	31.969513
1987.000000	31.910480
1986.000000	31.812647
1985.000000	31.749273
1984.000000	31.709469
1983.000000	31.593896
1982.000000	31.507075
1981.000000	31.464674
1980.000000	31.393457
1979.000000	31.290405
1978.000000	31.188066
1977.000000	31.148553
1976.000000	31.035519
1975.000000	30.904371
1974.000000	30.837081
1973.000000	30.741647
1972.000000	30.717662
1971.000000	30.626212
1970.000000	30.571360
1969.000000	30.504540
1968.000000	30.401647
1967.000000	30.354722
1966.000000	30.328505
1965.000000	30.267370
1964.000000	30.120123
1963.000000	30.060648
1962.000000	29.964409
1961.000000	29.915837
1960.000000	29.914502
1959.000000	29.794394
1958.000000	29.723118
1957.000000	29.647513
1956.000000	29.591312
1955.000000	29.592123
1954.000000	29.494640
1953.000000	29.456773
1952.000000	29.414971
1951.000000	29.348185
1950.000000	29.386339
1949.000000	29.312804
1948.000000	29.278194
1947.000000	29.262083
1946.000000	29.250471
1945.000000	29.244920
1944.000000	29.249396
1943.000000	29.245562
1942.000000	29.178407
1941.000000	29.244778
1940.000000	29.270177
1939.000000	29.333341
1938.000000	29.395058
1937.000000	29.433372
1936.000000	29.481049
1935.000000	29.494804
1934.000000	29.642758
1933.000000	29.816229
1932.000000	29.887073
1931.000000	29.897360
1930.000000	30.133538
1929.000000	30.218849
1928.000000	30.269581
1927.000000	30.455874
1926.000000	30.643357
1925.000000	30.814280
1924.000000	30.981980
1923.000000	31.184447
1922.000000	31.383550
1921.000000	31.666123
1920.000000	31.772781
1919.000000	32.000588
1918.000000	32.277096
1917.000000	32.574101
1916.000000	32.610804
1915.000000	33.019803
1914.000000	33.305110
1913.000000	33.530629
1912.000000	33.841871
1911.000000	34.118976
1910.000000	34.446179
1909.000000	34.738038
1908.000000	34.996097
1907.000000	35.269337
1906.000000	35.612967
1905.000000	35.948602
1904.000000	36.284153
1903.000000	36.610754
1902.000000	36.898780
1901.000000	37.320472
1900.000000	37.720356
1899.000000	38.020761
1898.000000	38.473434
1897.000000	38.706435
1896.000000	39.090729
1895.000000	39.408576
1894.000000	39.655297
1893.000000	40.044258
1892.000000	40.304914
1891.000000	40.601632
1890.000000	40.895395
1889.000000	41.173547
1888.000000	41.426577
1887.000000	41.686725
1886.000000	41.979620
1885.000000	42.227212
1884.000000	42.501077
1883.000000	42.709453
1882.000000	42.836661
1881.000000	43.053031
1880.000000	43.255633
1879.000000	43.455552
1878.000000	43.657824
1877.000000	43.868176
1876.000000	44.032629
1875.000000	44.131426
1874.000000	44.293180
1873.000000	44.397077
1872.000000	44.576597
1871.000000	44.670241
1870.000000	44.775532
1869.000000	44.882233
1868.000000	45.002500
1867.000000	45.047835
1866.000000	45.105648
1865.000000	45.147187
1864.000000	45.199018
1863.000000	45.227015
1862.000000	45.253057
1861.000000	45.286212
1860.000000	45.342841
1859.000000	45.384427
1858.000000	45.385208
1857.000000	45.364522
1856.000000	45.415536
1855.000000	45.434749
1854.000000	45.455043
1853.000000	45.525792
1852.000000	45.523123
1851.000000	45.520198
1850.000000	45.566964
1849.000000	45.536176
1848.000000	45.551466
1847.000000	45.545540
1846.000000	45.568983
1845.000000	45.601785
1844.000000	45.528492
1843.000000	45.519155
1842.000000	45.536306
1841.000000	45.546362
1840.000000	45.530887
1839.000000	45.522417
1838.000000	45.559780
1837.000000	45.493002
1836.000000	45.443713
1835.000000	45.443730
1834.000000	45.426554
1833.000000	45.434179
1832.000000	45.406986
1831.000000	45.376108
1830.000000	45.405050
1829.000000	45.364124
1828.000000	45.324445
1827.000000	45.311896
1826.000000	45.280631
1825.000000	45.261752
1824.000000	45.252266
1823.000000	45.231640
1822.000000	45.218398
1821.000000	45.189989
1820.000000	45.163454
1819.000000	45.151547
1818.000000	45.144489
1817.000000	45.113648
1816.000000	45.102693
1815.000000	45.110957
1814.000000	45.090815
1813.000000	45.073242
1812.000000	45.065869
1811.000000	45.040420
1810.000000	45.049384
1809.000000	45.045628
1808.000000	45.022487
1807.000000	44.992415
1806.000000	44.960146
1805.000000	44.961302
1804.000000	44.949043
1803.000000	44.937210
1802.000000	44.917179
1801.000000	44.927676
1800.000000	44.925200
1799.000000	44.886952
1798.000000	44.884071
1797.000000	44.876427
1796.000000	44.864472
1795.000000	44.869729
1794.000000	44.890646
1793.000000	44.857983
1792.000000	44.829208
1791.000000	44.850637
1790.000000	44.858730
1789.000000	44.831801
1788.000000	44.823469
1787.000000	44.821843
1786.000000	44.789349
1785.000000	44.782866
1784.000000	44.791147
1783.000000	44.788171
1782.000000	44.768133
1781.000000	44.738604
1780.000000	44.714610
1779.000000	44.712625
1778.000000	44.699924
1777.000000	44.642013
1776.000000	44.630505
1775.000000	44.592777
1774.000000	44.565433
1773.000000	44.540077
1772.000000	44.498697
1771.000000	44.465721
1770.000000	44.482505
1769.000000	44.459257
1768.000000	44.401562
1767.000000	44.372540
1766.000000	44.345374
1765.000000	44.345279
1764.000000	44.346369
1763.000000	44.305202
1762.000000	44.250394
1761.000000	44.236994
1760.000000	44.192477
1759.000000	44.136248
1758.000000	44.104307
1757.000000	44.100295
1756.000000	44.070864
1755.000000	44.060226
1754.000000	44.012024
1753.000000	44.012621
1752.000000	43.976437
1751.000000	43.943900
1750.000000	43.944879
1749.000000	43.906818
1748.000000	43.858300
1747.000000	43.846135
1746.000000	43.837621
1745.000000	43.779411
1744.000000	43.752489
1743.000000	43.752153
1742.000000	43.721667
1741.000000	43.695763
1740.000000	43.616282
1739.000000	43.600186
1738.000000	43.613839
1737.000000	43.620841
1736.000000	43.573796
1735.000000	43.574309
1734.000000	43.575196
1733.000000	43.583609
1732.000000	43.554337
1731.000000	43.570780
1730.000000	43.595024
1729.000000	43.608036
1728.000000	43.679384
1727.000000	43.671265
1726.000000	43.690789
1725.000000	43.778359
1724.000000	43.816911
1723.000000	43.844683
1722.000000	43.925480
1721.000000	44.016959
1720.000000	44.050980
1719.000000	44.152184
1718.000000	44.206077
1717.000000	44.242732
1716.000000	44.290784
1715.000000	44.321911
1714.000000	44.380878
1713.000000	44.447198
1712.000000	44.490174
1711.000000	44.559513
1710.000000	44.578988
1709.000000	44.624229
1708.000000	44.646121
1707.000000	44.650292
1706.000000	44.699159
1705.000000	44.746595
1704.000000	44.799208
1703.000000	44.777373
1702.000000	44.801589
1701.000000	44.801526
1700.000000	44.829239
1699.000000	44.817238
1698.000000	44.877084
1697.000000	44.902021
1696.000000	44.960190
1695.000000	44.956178
1694.000000	44.928460
1693.000000	44.968535
1692.000000	45.023868
1691.000000	45.028120
1690.000000	45.079610
1689.000000	45.148474
1688.000000	45.223894
1687.000000	45.286497
1686.000000	45.317768
1685.000000	45.444484
1684.000000	45.484183
1683.000000	45.564571
1682.000000	45.700751
1681.000000	45.773887
1680.000000	45.809924
1679.000000	45.921250
1678.000000	46.018442
1677.000000	46.111441
1676.000000	46.219138
1675.000000	46.317869
1674.000000	46.380196
1673.000000	46.472366
1672.000000	46.541125
1671.000000	46.615282
1670.000000	46.726122
1669.000000	46.842493
1668.000000	46.907492
1667.000000	46.973940
1666.000000	47.007389
1665.000000	47.040317
1664.000000	47.087804
1663.000000	47.129307
1662.000000	47.194479
1661.000000	47.227157
1660.000000	47.259978
1659.000000	47.309083
1658.000000	47.345421
1657.000000	47.390382
1656.000000	47.406089
1655.000000	47.438767
1654.000000	47.463903
1653.000000	47.469096
1652.000000	47.461097
1651.000000	47.469772
1650.000000	47.478519
1649.000000	47.458730
1648.000000	47.442614
1647.000000	47.468786
1646.000000	47.470282
1645.000000	47.496885
1644.000000	47.487095
1643.000000	47.487029
1642.000000	47.445864
1641.000000	47.453633
1640.000000	47.437339
1639.000000	47.445956
1638.000000	47.461933
1637.000000	47.429486
1636.000000	47.393063
1635.000000	47.385117
1634.000000	47.377743
1633.000000	47.348539
1632.000000	47.347576
1631.000000	47.326392
1630.000000	47.273827
1629.000000	47.270744
1628.000000	47.265798
1627.000000	47.252868
1626.000000	47.255088
1625.000000	47.243905
1624.000000	47.224712
1623.000000	47.211922
1622.000000	47.186513
1621.000000	47.163233
1620.000000	47.137739
1619.000000	47.110415
1618.000000	47.079412
1617.000000	47.056107
1616.000000	47.030682
1615.000000	46.999945
1614.000000	46.987141
1613.000000	46.962227
1612.000000	46.930607
1611.000000	46.894105
1610.000000	46.878434
1609.000000	46.848275
1608.000000	46.820802
1607.000000	46.796739
1606.000000	46.763250
1605.000000	46.743308
1604.000000	46.716675
1603.000000	46.686167
1602.000000	46.661456
1601.000000	46.634924
1600.000000	46.593296
1599.000000	46.558601
1598.000000	46.533349
1597.000000	46.513358
1596.000000	46.501881
1595.000000	46.486337
1594.000000	46.463117
1593.000000	46.440000
1592.000000	46.409236
1591.000000	46.384055
1590.000000	46.366246
1589.000000	46.334911
1588.000000	46.296873
1587.000000	46.276811
1586.000000	46.271161
1585.000000	46.263869
1584.000000	46.236046
1583.000000	46.213896
1582.000000	46.205953
1581.000000	46.190221
1580.000000	46.171400
1579.000000	46.142605
1578.000000	46.137170
1577.000000	46.115165
1576.000000	46.083581
1575.000000	46.073492
1574.000000	46.048714
1573.000000	46.031860
1572.000000	46.025716
1571.000000	45.992687
1570.000000	45.964001
1569.000000	45.948691
1568.000000	45.945433
1567.000000	45.918327
1566.000000	45.890945
1565.000000	45.907138
1564.000000	45.898268
1563.000000	45.898943
1562.000000	45.886868
1561.000000	45.861674
1560.000000	45.841357
1559.000000	45.822567
1558.000000	45.827994
1557.000000	45.825279
1556.000000	45.811552
1555.000000	45.813288
1554.000000	45.781778
1553.000000	45.770738
1552.000000	45.775881
1551.000000	45.757774
1550.000000	45.729531
1549.000000	45.721024
1548.000000	45.698014
1547.000000	45.675154
1546.000000	45.652405
1545.000000	45.629013
1544.000000	45.569661
1543.000000	45.540653
1542.000000	45.523235
1541.000000	45.466589
1540.000000	45.417013
1539.000000	45.369614
1538.000000	45.337531
1537.000000	45.291238
1536.000000	45.228789
1535.000000	45.192672
1534.000000	45.168966
1533.000000	45.116998
1532.000000	45.083308
1531.000000	45.030903
1530.000000	44.988902
1529.000000	44.959642
1528.000000	44.921367
1527.000000	44.877889
1526.000000	44.850450
1525.000000	44.825417
1524.000000	44.791185
1523.000000	44.766420
1522.000000	44.736906
1521.000000	44.688321
1520.000000	44.669224
1519.000000	44.657523
1518.000000	44.648088
1517.000000	44.632995
1516.000000	44.600992
1515.000000	44.566886
1514.000000	44.574139
1513.000000	44.570080
1512.000000	44.545753
1511.000000	44.543145
1510.000000	44.531830
1509.000000	44.531443
1508.000000	44.506223
1507.000000	44.504581
1506.000000	44.501528
1505.000000	44.503243
1504.000000	44.499159
1503.000000	44.507667
1502.000000	44.485017
1501.000000	44.485421
1500.000000	44.499530
1499.000000	44.491714
1498.000000	44.513466
1497.000000	44.527822
1496.000000	44.538589
1495.000000	44.544878
1494.000000	44.546348
1493.000000	44.555108
1492.000000	44.574424
1491.000000	44.605241
1490.000000	44.634232
1489.000000	44.650662
1488.000000	44.691586
1487.000000	44.708267
1486.000000	44.724691
1485.000000	44.747806
1484.000000	44.790434
1483.000000	44.844168
1482.000000	44.832292
1481.000000	44.870632
1480.000000	44.912460
1479.000000	44.934766
1478.000000	44.961985
1477.000000	44.989027
1476.000000	45.012979
1475.000000	45.039734
1474.000000	45.086864
1473.000000	45.097767
1472.000000	45.127447
1471.000000	45.149908
1470.000000	45.192747
1469.000000	45.217225
1468.000000	45.238805
1467.000000	45.268989
1466.000000	45.304990
1465.000000	45.343048
1464.000000	45.345126
1463.000000	45.374716
1462.000000	45.385849
1461.000000	45.416940
1460.000000	45.440828
1459.000000	45.453199
1458.000000	45.509994
1457.000000	45.525591
1456.000000	45.559329
1455.000000	45.596752
1454.000000	45.640603
1453.000000	45.658887
1452.000000	45.706982
1451.000000	45.738834
1450.000000	45.771250
1449.000000	45.810251
1448.000000	45.858117
1447.000000	45.892470
1446.000000	45.929887
1445.000000	45.970666
1444.000000	46.007306
1443.000000	46.052074
1442.000000	46.107072
1441.000000	46.153558
1440.000000	46.212765
1439.000000	46.253817
1438.000000	46.303681
1437.000000	46.351579
1436.000000	46.422578
1435.000000	46.482672
1434.000000	46.524452
1433.000000	46.580096
1432.000000	46.653667
1431.000000	46.714010
1430.000000	46.793801
1429.000000	46.853376
1428.000000	46.908764
1427.000000	46.989153
1426.000000	47.078012
1425.000000	47.164569
1424.000000	47.232074
1423.000000	47.314519
1422.000000	47.388715
1421.000000	47.481954
1420.000000	47.579287
1419.000000	47.656824
1418.000000	47.751712
1417.000000	47.848142
1416.000000	47.926568
1415.000000	48.010261
1414.000000	48.106525
1413.000000	48.224022
1412.000000	48.316384
1411.000000	48.396764
1410.000000	48.486738
1409.000000	48.590460
1408.000000	48.684886
1407.000000	48.777171
1406.000000	48.880397
1405.000000	48.973833
1404.000000	49.039172
1403.000000	49.123290
1402.000000	49.220882
1401.000000	49.300270
1400.000000	49.380902
1399.000000	49.477644
1398.000000	49.548175
1397.000000	49.623336
1396.000000	49.706170
1395.000000	49.776507
1394.000000	49.842648
1393.000000	49.907087
1392.000000	49.969887
1391.000000	50.038496
1390.000000	50.097097
1389.000000	50.141046
1388.000000	50.192301
1387.000000	50.248911
1386.000000	50.312856
1385.000000	50.367405
1384.000000	50.417979
1383.000000	50.481383
1382.000000	50.525506
1381.000000	50.551854
1380.000000	50.591751
1379.000000	50.638947
1378.000000	50.663759
1377.000000	50.695497
1376.000000	50.732792
1375.000000	50.747416
1374.000000	50.771582
1373.000000	50.810590
1372.000000	50.837819
1371.000000	50.854912
1370.000000	50.879690
1369.000000	50.907048
1368.000000	50.934192
1367.000000	50.961561
1366.000000	50.980192
1365.000000	50.991333
1364.000000	51.010094
1363.000000	51.031056
1362.000000	51.070034
1361.000000	51.110633
1360.000000	51.134733
1359.000000	51.157257
1358.000000	51.181212
1357.000000	51.203939
1356.000000	51.242748
1355.000000	51.271685
1354.000000	51.298615
1353.000000	51.326391
1352.000000	51.342899
1351.000000	51.378138
1350.000000	51.405203
1349.000000	51.423104
1348.000000	51.455298
1347.000000	51.479916
1346.000000	51.500431
1345.000000	51.520652
1344.000000	51.550396
1343.000000	51.567233
1342.000000	51.567200
1341.000000	51.595210
1340.000000	51.611359
1339.000000	51.646888
1338.000000	51.688586
1337.000000	51.712588
1336.000000	51.718598
1335.000000	51.727401
1334.000000	51.748415
1333.000000	51.766526
1332.000000	51.783280
1331.000000	51.806553
1330.000000	51.804831
1329.000000	51.807246
1328.000000	51.824852
1327.000000	51.840639
1326.000000	51.887573
1325.000000	51.942553
1324.000000	52.034079
1323.000000	52.084615
1322.000000	52.104544
1321.000000	52.078489
1320.000000	52.093264
1319.000000	52.066227
1318.000000	52.079028
1317.000000	52.084153
1316.000000	52.096749
1315.000000	52.121169
1314.000000	52.136944
1313.000000	52.132589
1312.000000	52.153746
1311.000000	52.178169
1310.000000	52.194866
1309.000000	52.184254
1308.000000	52.222175
1307.000000	52.225118
1306.000000	52.222418
1305.000000	52.224197
1304.000000	52.238593
1303.000000	52.221018
1302.000000	52.259324
1301.000000	52.277967
1300.000000	52.289395
1299.000000	52.272522
1298.000000	52.269708
1297.000000	52.267966
1296.000000	52.262193
1295.000000	52.286658
1294.000000	52.283850
1293.000000	52.284380
1292.000000	52.276245
1291.000000	52.279156
1290.000000	52.288828
1289.000000	52.280648
1288.000000	52.283774
1287.000000	52.299321
1286.000000	52.282348
1285.000000	52.229948
1284.000000	52.236474
1283.000000	52.260965
1282.000000	52.256488
1281.000000	52.262559
1280.000000	52.266318
1279.000000	52.263405
1278.000000	52.283982
1277.000000	52.272587
1276.000000	52.282528
1275.000000	52.290714
1274.000000	52.293211
1273.000000	52.272571
1272.000000	52.283253
1271.000000	52.292165
1270.000000	52.292098
1269.000000	52.283367
1268.000000	52.293933
1267.000000	52.302757
1266.000000	52.299179
1265.000000	52.276375
1264.000000	52.320940
1263.000000	52.383667
1262.000000	52.372692
1261.000000	52.354281
1260.000000	52.380712
1259.000000	52.348862
1258.000000	52.360659
1257.000000	52.378093
1256.000000	52.420679
1255.000000	52.403524
1254.000000	52.415267
1253.000000	52.403196
1252.000000	52.392832
1251.000000	52.387133
1250.000000	52.397822
1249.000000	52.396330
1248.000000	52.399833
1247.000000	52.387272
1246.000000	52.393773
1245.000000	52.395491
1244.000000	52.404486
1243.000000	52.383152
1242.000000	52.352147
1241.000000	52.343567
1240.000000	52.355045
1239.000000	52.366727
1238.000000	52.359863
1237.000000	52.291818
1236.000000	52.302626
1235.000000	52.299253
1234.000000	52.289524
1233.000000	52.251227
1232.000000	52.251037
1231.000000	52.243482
1230.000000	52.229973
1229.000000	52.199401
1228.000000	52.196089
1227.000000	52.197244
1226.000000	52.211029
1225.000000	52.206600
1224.000000	52.185045
1223.000000	52.193902
1222.000000	52.184438
1221.000000	52.182333
1220.000000	52.183958
1219.000000	52.171217
1218.000000	52.162974
1217.000000	52.142512
1216.000000	52.135698
1215.000000	52.132204
1214.000000	52.120292
1213.000000	52.160339
1212.000000	52.167640
1211.000000	52.131017
1210.000000	52.114916
1209.000000	52.125680
1208.000000	52.129470
1207.000000	52.151895
1206.000000	52.145949
1205.000000	52.110107
1204.000000	52.100828
1203.000000	52.097265
1202.000000	52.109394
1201.000000	52.084740
1200.000000	52.073464
1199.000000	52.080429
1198.000000	52.099987
1197.000000	52.084009
1196.000000	52.074807
1195.000000	52.054251
1194.000000	52.050344
1193.000000	52.052170
1192.000000	52.051693
1191.000000	52.041934
1190.000000	52.015865
1189.000000	51.971184
1188.000000	51.973617
1187.000000	51.990756
1186.000000	51.989697
1185.000000	51.985769
1184.000000	51.996381
1183.000000	51.998694
1182.000000	52.015908
1181.000000	52.034428
1180.000000	52.045130
1179.000000	52.054730
1178.000000	52.078927
1177.000000	52.092333
1176.000000	52.104185
1175.000000	52.115503
1174.000000	52.145371
1173.000000	52.183525
1172.000000	52.203187
1171.000000	52.207268
1170.000000	52.237938
1169.000000	52.266263
1168.000000	52.298813
1167.000000	52.336500
1166.000000	52.353107
1165.000000	52.372511
1164.000000	52.400091
1163.000000	52.429736
1162.000000	52.468574
1161.000000	52.494464
1160.000000	52.504598
1159.000000	52.515412
1158.000000	52.540095
1157.000000	52.547340
1156.000000	52.553529
1155.000000	52.588883
1154.000000	52.610220
1153.000000	52.628798
1152.000000	52.653463
1151.000000	52.672699
1150.000000	52.697512
1149.000000	52.724099
1148.000000	52.737235
1147.000000	52.752587
1146.000000	52.782463
1145.000000	52.804526
1144.000000	52.809734
1143.000000	52.824408
1142.000000	52.839405
1141.000000	52.862258
1140.000000	52.852979
1139.000000	52.857902
1138.000000	52.877518
1137.000000	52.888018
1136.000000	52.886414
1135.000000	52.909708
1134.000000	52.941330
1133.000000	52.957521
1132.000000	52.961021
1131.000000	52.969321
1130.000000	52.987676
1129.000000	53.002622
1128.000000	53.012109
1127.000000	53.020470
1126.000000	53.003585
1125.000000	52.988057
1124.000000	53.000605
1123.000000	53.013615
1122.000000	53.027100
1121.000000	53.045824
1120.000000	53.051318
1119.000000	53.046377
1118.000000	53.057605
1117.000000	53.062717
1116.000000	53.061410
1115.000000	53.074340
1114.000000	53.079028
1113.000000	53.085837
1112.000000	53.086814
1111.000000	53.082047
1110.000000	53.048634
1109.000000	53.046503
1108.000000	53.061120
1107.000000	53.069679
1106.000000	53.080014
1105.000000	53.083011
1104.000000	53.077873
1103.000000	53.081000
1102.000000	53.086849
1101.000000	53.089798
1100.000000	53.046513
1099.000000	53.049811
1098.000000	53.063285
1097.000000	53.061555
1096.000000	53.073608
1095.000000	53.083238
1094.000000	53.077885
1093.000000	53.052100
1092.000000	53.035026
1091.000000	53.055554
1090.000000	53.053456
1089.000000	53.050188
1088.000000	53.062201
1087.000000	53.074783
1086.000000	53.047909
1085.000000	53.025502
1084.000000	53.035135
1083.000000	53.035706
1082.000000	53.041730
1081.000000	53.051579
1080.000000	53.006969
1079.000000	53.020733
1078.000000	53.018671
1077.000000	53.020502
1076.000000	53.025160
1075.000000	53.001491
1074.000000	52.997036
1073.000000	52.991143
1072.000000	53.007969
1071.000000	53.004615
1070.000000	52.982040
1069.000000	52.992641
1068.000000	53.006784
1067.000000	52.985635
1066.000000	52.975112
1065.000000	52.984446
1064.000000	52.981449
1063.000000	52.974994
1062.000000	52.976255
1061.000000	52.986186
1060.000000	52.992611
1059.000000	52.990564
1058.000000	52.996991
1057.000000	52.985161
1056.000000	52.999227
1055.000000	53.005422
1054.000000	52.976260
1053.000000	52.986171
1052.000000	52.985375
1051.000000	52.979558
1050.000000	52.990449
1049.000000	52.978530
1048.000000	52.966319
1047.000000	52.956444
1046.000000	52.974212
1045.000000	52.955896
1044.000000	52.967031
1043.000000	52.942292
1042.000000	52.967536
1041.000000	52.957489
1040.000000	52.942976
1039.000000	52.938490
1038.000000	52.930069
1037.000000	52.936078
1036.000000	52.937941
1035.000000	52.912363
1034.000000	52.920987
1033.000000	52.935823
1032.000000	52.931584
1031.000000	52.925751
1030.000000	52.920110
1029.000000	52.932380
1028.000000	52.918768
1027.000000	52.921916
1026.000000	52.928473
1025.000000	52.916577
1024.000000	52.915399
1023.000000	52.914291
1022.000000	52.903287
1021.000000	52.899676
1020.000000	52.908802
1019.000000	52.886466
1018.000000	52.886851
1017.000000	52.894264
1016.000000	52.901738
1015.000000	52.891084
1014.000000	52.904327
1013.000000	52.903905
1012.000000	52.900813
1011.000000	52.899370
1010.000000	52.888793
1009.000000	52.886903
1008.000000	52.887847
1007.000000	52.870501
1006.000000	52.880093
1005.000000	52.889427
1004.000000	52.878305
1003.000000	52.868431
1002.000000	52.873804
1001.000000	52.865874
1000.000000	52.838867
999.000000	52.850960
998.000000	52.864114
997.000000	52.863779
996.000000	52.861251
995.000000	52.865442
994.000000	52.858674
993.000000	52.859111
992.000000	52.835804
991.000000	52.835172
990.000000	52.845094
989.000000	52.846365
988.000000	52.855179
987.000000	52.839975
986.000000	52.842727
985.000000	52.838104
984.000000	52.848365
983.000000	52.865481
982.000000	52.851295
981.000000	52.853226
980.000000	52.842469
979.000000	52.850681
978.000000	52.849774
977.000000	52.841682
976.000000	52.850035
975.000000	52.846208
974.000000	52.856176
973.000000	52.857528
972.000000	52.852545
971.000000	52.841570
970.000000	52.837469
969.000000	52.848629
968.000000	52.869902
967.000000	52.862497
966.000000	52.855808
965.000000	52.848055
964.000000	52.852478
963.000000	52.864709
962.000000	52.849826
961.000000	52.860473
960.000000	52.884630
959.000000	52.875983
958.000000	52.865558
957.000000	52.871569
956.000000	52.862443
955.000000	52.857701
954.000000	52.862145
953.000000	52.872182
952.000000	52.864936
951.000000	52.851290
950.000000	52.838563
949.000000	52.844960
948.000000	52.843569
947.000000	52.866343
946.000000	52.859843
945.000000	52.854870
944.000000	52.860066
943.000000	52.824869
942.000000	52.829102
941.000000	52.829403
940.000000	52.814026
939.000000	52.826525
938.000000	52.833526
937.000000	52.826994
936.000000	52.822217
935.000000	52.791653
934.000000	52.774310
933.000000	52.795230
932.000000	52.802308
931.000000	52.795105
930.000000	52.795143
929.000000	52.777141
928.000000	52.792468
927.000000	52.781040
926.000000	52.750368
925.000000	52.763021
924.000000	52.766693
923.000000	52.747218
922.000000	52.743396
921.000000	52.754221
920.000000	52.750370
919.000000	52.708960
918.000000	52.685853
917.000000	52.715022
916.000000	52.730032
915.000000	52.739133
914.000000	52.698771
913.000000	52.694147
912.000000	52.717265
911.000000	52.699427
910.000000	52.720810
909.000000	52.742476
908.000000	52.714925
907.000000	52.675830
906.000000	52.611836
905.000000	52.635197
904.000000	52.649799
903.000000	52.622190
902.000000	52.637569
901.000000	52.622944
900.000000	52.611159
899.000000	52.622763
898.000000	52.605880
897.000000	52.649455
896.000000	52.621058
895.000000	52.635368
894.000000	52.701314
893.000000	52.664724
892.000000	52.657925
891.000000	52.537594
890.000000	52.564452
889.000000	52.559428
888.000000	52.492311
887.000000	52.528405
886.000000	52.512921
885.000000	52.504935
884.000000	52.511615
883.000000	52.556142
882.000000	52.572731
881.000000	52.458026
880.000000	52.537566
879.000000	52.551014
878.000000	52.529128
877.000000	52.499113
876.000000	52.511553
875.000000	52.467082
874.000000	52.492835
873.000000	52.511073
872.000000	52.508165
871.000000	52.511654
870.000000	52.444754
869.000000	52.480813
868.000000	52.440713
867.000000	52.340241
866.000000	52.514198
865.000000	52.406414
864.000000	52.359286
863.000000	52.354075
862.000000	52.424474
861.000000	52.353295
860.000000	52.300373
859.000000	53.189358
858.000000	53.589846
857.000000	53.665853
856.000000	53.726619
855.000000	53.441389
854.000000	53.529862
853.000000	53.513043
852.000000	53.614721
851.000000	53.737470
850.000000	53.271598
849.000000	53.357203
848.000000	53.165436
847.000000	53.325775
846.000000	53.421633
845.000000	53.050442
844.000000	53.223782
843.000000	53.287156
842.000000	53.441458
841.000000	53.245933
840.000000	53.235798
839.000000	53.249020
838.000000	53.114545
837.000000	53.077305
836.000000	53.039908
835.000000	53.071968
834.000000	53.127515
833.000000	52.985795
832.000000	53.082441
831.000000	53.037216
830.000000	53.060970
829.000000	52.936844
828.000000	53.149482
827.000000	52.886449
826.000000	52.663891
825.000000	52.978118
824.000000	53.034417
823.000000	52.936223
822.000000	52.863273
821.000000	52.832078
820.000000	52.872833
819.000000	52.864559
818.000000	52.938462
817.000000	52.750576
816.000000	52.830988
815.000000	52.616236
814.000000	52.668869
813.000000	52.651432
812.000000	52.653166
811.000000	52.651036
810.000000	52.472978
809.000000	52.643543
808.000000	52.652533
807.000000	52.578709
806.000000	52.597948
805.000000	52.769578
804.000000	52.628446
803.000000	52.490878
802.000000	52.414168
801.000000	52.502079
800.000000	52.515656
799.000000	52.586964
798.000000	52.581761
797.000000	52.446062
796.000000	52.418249
795.000000	52.181365
794.000000	52.257581
793.000000	52.313361
792.000000	52.280225
791.000000	52.374557
790.000000	52.189284
789.000000	52.237220
788.000000	52.163876
787.000000	52.172698
786.000000	52.136833
785.000000	52.074992
784.000000	52.173956
783.000000	51.996635
782.000000	51.931624
781.000000	51.896319
780.000000	52.016635
779.000000	51.972809
778.000000	51.916268
777.000000	51.838989
776.000000	51.858266
775.000000	51.763121
774.000000	51.719315
773.000000	51.761011
772.000000	51.750069
771.000000	51.691492
770.000000	51.642703
769.000000	51.650888
768.000000	51.591742
767.000000	51.493691
766.000000	51.504996
765.000000	51.529298
764.000000	51.496642
763.000000	51.401099
762.000000	51.339255
761.000000	51.324173
760.000000	51.317414
759.000000	51.311388
758.000000	51.264737
757.000000	51.244370
756.000000	51.251799
755.000000	51.172879
754.000000	51.101357
753.000000	51.102512
752.000000	51.070376
751.000000	51.023875
750.000000	50.916919
749.000000	50.934003
748.000000	50.930132
747.000000	50.922196
746.000000	50.869210
745.000000	50.846943
744.000000	50.750811
743.000000	50.656987
742.000000	50.654404
741.000000	50.641820
740.000000	50.629281
739.000000	50.576444
738.000000	50.536697
737.000000	50.444557
736.000000	50.430931
735.000000	50.434568
734.000000	50.360422
733.000000	50.307566
732.000000	50.324652
731.000000	50.295417
730.000000	50.211624
729.000000	50.163395
728.000000	50.094684
727.000000	50.094120
726.000000	50.060095
725.000000	49.960328
724.000000	49.936322
723.000000	49.865763
722.000000	49.827585
721.000000	49.769770
720.000000	49.676229
719.000000	49.630525
718.000000	49.603401
717.000000	49.587735
716.000000	49.560463
715.000000	49.514352
714.000000	49.447736
713.000000	49.353680
712.000000	49.347637
711.000000	49.340165
710.000000	49.261008
709.000000	49.260951
708.000000	49.215800
707.000000	49.131685
706.000000	49.080005
705.000000	49.033411
704.000000	49.003578
703.000000	48.935915
702.000000	48.879352
701.000000	48.818945
700.000000	48.737245
699.000000	48.692151
698.000000	48.618831
697.000000	48.561141
696.000000	48.578973
695.000000	48.546528
694.000000	48.483410
693.000000	48.439934
692.000000	48.360602
691.000000	48.315992
690.000000	48.277342
689.000000	48.150622
688.000000	48.021996
687.000000	47.970757
686.000000	47.931654
685.000000	47.911791
684.000000	47.853507
683.000000	47.790937
682.000000	47.717695
681.000000	47.665705
680.000000	47.602328
679.000000	47.582203
678.000000	47.538809
677.000000	47.462121
676.000000	47.412182
675.000000	47.320733
674.000000	47.250315
673.000000	47.198040
672.000000	47.208689
671.000000	47.159494
670.000000	47.070786
669.000000	46.967755
668.000000	46.892525
667.000000	46.826768
666.000000	46.790433
665.000000	46.736358
664.000000	46.634451
663.000000	46.556822
662.000000	46.494433
661.000000	46.450159
660.000000	46.392859
659.000000	46.323933
658.000000	46.261835
657.000000	46.173777
656.000000	46.141968
655.000000	46.115133
654.000000	46.018401
653.000000	45.927961
652.000000	45.835490
651.000000	45.786418
650.000000	45.704902
649.000000	45.626197
648.000000	45.607531
647.000000	45.566430
646.000000	45.476594
645.000000	45.380441
644.000000	45.347927
643.000000	45.273015
642.000000	45.213066
641.000000	45.157442
640.000000	45.064330
639.000000	44.966121
638.000000	44.880114
637.000000	44.847412
636.000000	44.805079
635.000000	44.719852
634.000000	44.612840
633.000000	44.587351
632.000000	44.494804
631.000000	44.423096
630.000000	44.361880
629.000000	44.262863
628.000000	44.188531
627.000000	44.153084
626.000000	44.072571
625.000000	43.968589
624.000000	43.930975
623.000000	43.846153
622.000000	43.729131
621.000000	43.671194
620.000000	43.629644
619.000000	43.588714
618.000000	43.475909
617.000000	43.385129
616.000000	43.302019
615.000000	43.249717
614.000000	43.164514
613.000000	43.089979
612.000000	43.020118
611.000000	42.916584
610.000000	42.851069
609.000000	42.782173
608.000000	42.712380
607.000000	42.648734
606.000000	42.569818
605.000000	42.473981
604.000000	42.419963
603.000000	42.329345
602.000000	42.239237
601.000000	42.174844
600.000000	42.056440
599.000000	42.014338
598.000000	41.932669
597.000000	41.818405
596.000000	41.735215
595.000000	41.671369
594.000000	41.600255
593.000000	41.518098
592.000000	41.407081
591.000000	41.338186
590.000000	41.225694
589.000000	41.207307
588.000000	41.110703
587.000000	41.007306
586.000000	40.917377
585.000000	40.826413
584.000000	40.770482
583.000000	40.686422
582.000000	40.585095
581.000000	40.504421
580.000000	40.450015
579.000000	40.340963
578.000000	40.234509
577.000000	40.157665
576.000000	40.071165
575.000000	39.968781
574.000000	39.906183
573.000000	39.810950
572.000000	39.700293
571.000000	39.604526
570.000000	39.555510
569.000000	39.470920
568.000000	39.329631
567.000000	39.242102
566.000000	39.144125
565.000000	39.070763
564.000000	38.992104
563.000000	38.913703
562.000000	38.821176
561.000000	38.702683
560.000000	38.573590
559.000000	38.453626
558.000000	38.381403
557.000000	38.279361
556.000000	38.172463
555.000000	38.073278
554.000000	38.010013
553.000000	37.897128
552.000000	37.804253
551.000000	37.715462
550.000000	37.619738
549.000000	37.492977
548.000000	37.375070
547.000000	37.283335
546.000000	37.151056
545.000000	37.067167
544.000000	36.998779
543.000000	36.858163
542.000000	36.804455
541.000000	36.669407
540.000000	36.553171
539.000000	36.459727
538.000000	36.349946
537.000000	36.279880
536.000000	36.151793
535.000000	36.052658
534.000000	35.946661
533.000000	35.826279
532.000000	35.731742
531.000000	35.615288
530.000000	35.483365
529.000000	35.413058
528.000000	35.303859
527.000000	35.198944
526.000000	35.083836
525.000000	34.966499
524.000000	34.835186
523.000000	34.739601
522.000000	34.633097
521.000000	34.542066
520.000000	34.418817
519.000000	34.289183
518.000000	34.187995
517.000000	34.111967
516.000000	33.959678
515.000000	33.857883
514.000000	33.737539
513.000000	33.632976
512.000000	33.487873
511.000000	33.390028
510.000000	33.255019
509.000000	33.138323
508.000000	33.019186
507.000000	32.886213
506.000000	32.730186
505.000000	32.633593
504.000000	32.498899
503.000000	32.393523
502.000000	32.269145
501.000000	32.165798
500.000000	32.055801
499.000000	31.907857
498.000000	31.803934
497.000000	31.686523
496.000000	31.579721
495.000000	31.450752
494.000000	31.331839
493.000000	31.233460
492.000000	31.101659
491.000000	30.977156
490.000000	30.855148
489.000000	30.734046
488.000000	30.610413
487.000000	30.490366
486.000000	30.343607
485.000000	30.222255
484.000000	30.113941
483.000000	30.028709
482.000000	29.955124
481.000000	29.837712
480.000000	29.687204
479.000000	29.545301
478.000000	29.432782
477.000000	29.297328
476.000000	29.173474
475.000000	29.052868
474.000000	28.934160
473.000000	28.819891
472.000000	28.700338
471.000000	28.576540
470.000000	28.433499
469.000000	28.307693
468.000000	28.199791
467.000000	28.068607
466.000000	27.927851
465.000000	27.783479
464.000000	27.661674
463.000000	27.544676
462.000000	27.418588
461.000000	27.279241
460.000000	27.145925
459.000000	27.016552
458.000000	26.864804
457.000000	26.746274
456.000000	26.645349
455.000000	26.513649
454.000000	26.388975
453.000000	26.265220
452.000000	26.120613
451.000000	25.969432
450.000000	25.807874
449.000000	25.645956
448.000000	25.505885
447.000000	25.385611
446.000000	25.257627
445.000000	25.123868
444.000000	25.001411
443.000000	24.861782
442.000000	24.716445
441.000000	24.583984
440.000000	24.414759
439.000000	24.287652
438.000000	24.150246
437.000000	24.002368
436.000000	23.860730
435.000000	23.726267
434.000000	23.580395
433.000000	23.453098
432.000000	23.341185
431.000000	23.201404
430.000000	23.064301
429.000000	22.903853
428.000000	22.772947
427.000000	22.616739
426.000000	22.469046
425.000000	22.335043
424.000000	22.196695
423.000000	22.084802
422.000000	21.960230
421.000000	21.823822
420.000000	21.675230
419.000000	21.541568
418.000000	21.399694
417.000000	21.244231
416.000000	21.107947
415.000000	20.970153
414.000000	20.837930
413.000000	20.736014
412.000000	20.592330
411.000000	20.448723
410.000000	20.294883
409.000000	20.176902
408.000000	20.069306
407.000000	19.912933
406.000000	19.778303
405.000000	19.656704
404.000000	19.486579
403.000000	19.385618
402.000000	19.253080
401.000000	19.120274
400.000000	18.980612
399.000000	18.863135
398.000000	18.720570
397.000000	18.611049
396.000000	18.494901
395.000000	18.344768
394.000000	18.202322
393.000000	18.107468
392.000000	17.960225
391.000000	17.835002
390.000000	17.686800
389.000000	17.584264
388.000000	17.481508
387.000000	17.316286
386.000000	17.187155
385.000000	17.112009
384.000000	16.929395
383.000000	16.795853
382.000000	16.723077
381.000000	16.586896
380.000000	16.468422
379.000000	16.344508
378.000000	16.306245
377.000000	16.160309
376.000000	16.141907
375.000000	15.916529
374.000000	15.890356
373.000000	15.781393
372.000000	15.625917
371.000000	15.534108
370.000000	15.344524
369.000000	15.222961
368.000000	15.144098
367.000000	15.044625
366.000000	14.946032
365.000000	14.898155
364.000000	14.734775
363.000000	14.684723
362.000000	14.594331
361.000000	14.506994
360.000000	14.395113
359.000000	14.287397
358.000000	14.194946
357.000000	14.114002
356.000000	14.058195
355.000000	13.941871
354.000000	13.849374
353.000000	13.810215
352.000000	13.689913
351.000000	13.616458
350.000000	13.480653
349.000000	13.373053
348.000000	13.304727
347.000000	13.249839
346.000000	13.215145
345.000000	13.084726
344.000000	13.014487
343.000000	12.936350
342.000000	12.795852
341.000000	12.757651
340.000000	12.645818
339.000000	12.660920
338.000000	12.532527
337.000000	12.406254
336.000000	12.325669
335.000000	12.285740
334.000000	12.257621
333.000000	12.073064
332.000000	12.116103
331.000000	12.066532
330.000000	11.989563
329.000000	11.782905
328.000000	11.762342
327.000000	11.724979
326.000000	11.692434
325.000000	11.590917
324.000000	11.530890
323.000000	11.436873
322.000000	11.393476
321.000000	11.325813
320.000000	11.402060
319.000000	11.309464
318.000000	11.006739
317.000000	10.941470
316.000000	10.881423
315.000000	10.848559
314.000000	10.807173
313.000000	10.756604
312.000000	10.685014
311.000000	10.635925
310.000000	10.676597
309.000000	10.595951
308.000000	10.626734
307.000000	10.604444
306.000000	10.554850
305.000000	10.499709
304.000000	10.496571
303.000000	10.466668
302.000000	10.343056
301.000000	10.388120
300.000000	10.349195
299.000000	10.307754
298.000000	10.319608
297.000000	10.328181
296.000000	10.287904
295.000000	10.225863
294.000000	10.216490
293.000000	10.166256
292.000000	10.191739
291.000000	10.081471
290.000000	10.091939
289.000000	10.071946
288.000000	10.079914
287.000000	9.999471
286.000000	10.036783
285.000000	10.048014
284.000000	10.001953
283.000000	10.062809
282.000000	10.016569
281.000000	10.031477
280.000000	10.085386
279.000000	10.044045
278.000000	10.056687
277.000000	10.074947
276.000000	10.086045
275.000000	10.140268
274.000000	10.168080
273.000000	10.240289
272.000000	10.271512
271.000000	10.300970
270.000000	10.323214
269.000000	10.379474
268.000000	10.373795
267.000000	10.411991
266.000000	10.496731
265.000000	10.573757
264.000000	10.599005
263.000000	10.684384
262.000000	10.792435
261.000000	10.822094
260.000000	10.871359
259.000000	10.968108
258.000000	11.016156
257.000000	11.116446
256.000000	11.211661
255.000000	11.299476
254.000000	11.384436
253.000000	11.458613
252.000000	11.606697
251.000000	11.787037
250.000000	11.839849
249.000000	11.913310
248.000000	11.999704
247.000000	12.103877
246.000000	12.201330
245.000000	12.279106
244.000000	12.389439
243.000000	12.560472
242.000000	12.659949
241.000000	12.663934
240.000000	12.734324
239.000000	12.811307
238.000000	12.865431
237.000000	12.863444
236.000000	12.920435
235.000000	12.968158
234.000000	13.002972
233.000000	13.058109
232.000000	13.034977
231.000000	13.034829
230.000000	13.011340
229.000000	13.061540
228.000000	13.088744
227.000000	13.106219
226.000000	13.198886
225.000000	13.220719
224.000000	13.263470
223.000000	13.318151
222.000000	13.414845
221.000000	13.474929
220.000000	13.519755
219.000000	13.644074
218.000000	13.713166
217.000000	13.840928
216.000000	14.012118
215.000000	14.182004
214.000000	14.343159
213.000000	14.455699
212.000000	14.659833
211.000000	14.955450
210.000000	15.139998
209.000000	15.402603
208.000000	15.656280
207.000000	16.058700
206.000000	16.527850
205.000000	16.839008
204.000000	17.177873
203.000000	17.720153
202.000000	18.338051
201.000000	18.779467
200.000000	19.390933
