PE UV       SUBTECH     SPECTRUM    ASCII       PEDS        4.00        
   -1
RTms1240122.Sample.asc
18/03/20
17:51:50.00
18/03/20
17:51:50.00
Administrator

200.000000
1
Lambda 750
750N8071901
PerkinElmer UV WinLab 6.0.4.0738 / 1.61.00 Lambda 900

0
0
3350/servo 860.8/2
0
0
UV/VIS
1
1
1
CommonBeamDepol,150mm sphere / downward view
0
0
0
0
Program
Program
3350/servo 860.8/2
3350/0.2 860.8/0.2
3350/0.2 860.8/0.2
0
1
 
 
 
0
 
860.8
319.2
860.8
Front
100
on
 
 
0
0
0
 
0
 
 
 
0
 
 
0
0
0
0
0
 
 
 
 
0
0


0
0
#HDR
-1
-1
#GR
nm
%R
1.0
0.0
2350.000000
-1.000000
2151
8
53.532643
10.169765
#DATA
2350.000000	28.813977
2349.000000	29.067729
2348.000000	29.394938
2347.000000	29.513422
2346.000000	29.137000
2345.000000	29.280081
2344.000000	29.000543
2343.000000	28.879481
2342.000000	28.758165
2341.000000	29.082737
2340.000000	29.275031
2339.000000	29.527807
2338.000000	29.361884
2337.000000	29.436284
2336.000000	29.705748
2335.000000	29.804151
2334.000000	29.915049
2333.000000	29.709126
2332.000000	29.608100
2331.000000	29.768028
2330.000000	29.529574
2329.000000	29.385201
2328.000000	29.483708
2327.000000	29.530793
2326.000000	29.435886
2325.000000	29.787586
2324.000000	29.765507
2323.000000	29.464010
2322.000000	29.394774
2321.000000	29.400326
2320.000000	29.469046
2319.000000	29.484071
2318.000000	29.312200
2317.000000	29.245103
2316.000000	29.122470
2315.000000	29.069114
2314.000000	29.142931
2313.000000	29.026954
2312.000000	28.984132
2311.000000	28.860668
2310.000000	28.736995
2309.000000	28.894958
2308.000000	28.815498
2307.000000	28.631563
2306.000000	28.628772
2305.000000	28.681058
2304.000000	28.657775
2303.000000	28.648672
2302.000000	28.488834
2301.000000	28.309646
2300.000000	28.201982
2299.000000	28.288359
2298.000000	28.216283
2297.000000	28.040986
2296.000000	28.164170
2295.000000	28.099094
2294.000000	28.107933
2293.000000	27.892437
2292.000000	27.953712
2291.000000	27.947892
2290.000000	28.108533
2289.000000	28.026637
2288.000000	27.944254
2287.000000	27.876433
2286.000000	27.829619
2285.000000	27.742866
2284.000000	27.730770
2283.000000	27.726219
2282.000000	27.749565
2281.000000	27.904856
2280.000000	27.979068
2279.000000	27.844187
2278.000000	27.834052
2277.000000	28.022807
2276.000000	27.931076
2275.000000	27.927882
2274.000000	27.970184
2273.000000	27.982538
2272.000000	28.072009
2271.000000	28.062511
2270.000000	28.092801
2269.000000	28.267910
2268.000000	28.309848
2267.000000	28.386401
2266.000000	28.504055
2265.000000	28.460676
2264.000000	28.591761
2263.000000	28.716836
2262.000000	28.693502
2261.000000	28.784867
2260.000000	28.861942
2259.000000	29.088131
2258.000000	29.401033
2257.000000	29.506693
2256.000000	29.480130
2255.000000	29.565375
2254.000000	29.828239
2253.000000	30.052255
2252.000000	30.149657
2251.000000	30.283417
2250.000000	30.372814
2249.000000	30.521003
2248.000000	30.674045
2247.000000	30.895888
2246.000000	31.075141
2245.000000	31.134076
2244.000000	31.242323
2243.000000	31.369184
2242.000000	31.427493
2241.000000	31.655941
2240.000000	31.795120
2239.000000	31.764033
2238.000000	32.005196
2237.000000	32.163328
2236.000000	32.214683
2235.000000	32.238101
2234.000000	32.286148
2233.000000	32.303234
2232.000000	32.321202
2231.000000	32.369080
2230.000000	32.436945
2229.000000	32.529294
2228.000000	32.508432
2227.000000	32.395018
2226.000000	32.459482
2225.000000	32.637893
2224.000000	32.565340
2223.000000	32.320655
2222.000000	32.339891
2221.000000	32.565714
2220.000000	32.640216
2219.000000	32.600895
2218.000000	32.494896
2217.000000	32.503195
2216.000000	32.341915
2215.000000	32.363291
2214.000000	32.338378
2213.000000	32.332176
2212.000000	32.242742
2211.000000	32.131594
2210.000000	32.024447
2209.000000	32.074129
2208.000000	32.185474
2207.000000	32.082787
2206.000000	32.044042
2205.000000	31.987445
2204.000000	31.965947
2203.000000	31.850699
2202.000000	31.830026
2201.000000	31.777840
2200.000000	31.709395
2199.000000	31.664051
2198.000000	31.746663
2197.000000	31.602554
2196.000000	31.489748
2195.000000	31.528658
2194.000000	31.447323
2193.000000	31.190625
2192.000000	31.262734
2191.000000	31.241861
2190.000000	31.212600
2189.000000	31.267516
2188.000000	31.208079
2187.000000	31.225944
2186.000000	31.145472
2185.000000	31.105191
2184.000000	31.012986
2183.000000	31.006895
2182.000000	30.967512
2181.000000	31.135467
2180.000000	30.989848
2179.000000	30.966072
2178.000000	30.948900
2177.000000	31.074044
2176.000000	31.101296
2175.000000	31.003299
2174.000000	31.018980
2173.000000	31.044978
2172.000000	31.137575
2171.000000	31.184780
2170.000000	31.309570
2169.000000	31.304229
2168.000000	31.451974
2167.000000	31.478764
2166.000000	31.458217
2165.000000	31.529059
2164.000000	31.594608
2163.000000	31.705047
2162.000000	31.894261
2161.000000	31.981491
2160.000000	31.968989
2159.000000	32.089684
2158.000000	32.157155
2157.000000	32.241341
2156.000000	32.528595
2155.000000	32.509501
2154.000000	32.651624
2153.000000	32.823583
2152.000000	32.837119
2151.000000	32.881260
2150.000000	32.885173
2149.000000	33.030320
2148.000000	33.202781
2147.000000	33.255417
2146.000000	33.469502
2145.000000	33.560605
2144.000000	33.683470
2143.000000	33.713836
2142.000000	33.784671
2141.000000	33.977073
2140.000000	34.047338
2139.000000	34.047371
2138.000000	34.253214
2137.000000	34.415045
2136.000000	34.188348
2135.000000	34.266143
2134.000000	34.593898
2133.000000	34.374701
2132.000000	34.593207
2131.000000	34.629164
2130.000000	34.787904
2129.000000	34.785861
2128.000000	34.803102
2127.000000	34.757712
2126.000000	34.929500
2125.000000	34.939868
2124.000000	35.208654
2123.000000	35.085017
2122.000000	35.300093
2121.000000	35.122034
2120.000000	35.083994
2119.000000	35.083857
2118.000000	35.267363
2117.000000	35.199330
2116.000000	35.206483
2115.000000	35.247167
2114.000000	35.183744
2113.000000	35.273279
2112.000000	35.099233
2111.000000	35.244514
2110.000000	35.405067
2109.000000	35.295021
2108.000000	35.322608
2107.000000	35.350411
2106.000000	35.354201
2105.000000	35.276345
2104.000000	35.432228
2103.000000	35.432999
2102.000000	35.455110
2101.000000	35.524785
2100.000000	35.574646
2099.000000	35.435161
2098.000000	35.307092
2097.000000	35.392716
2096.000000	35.429224
2095.000000	35.431699
2094.000000	35.460018
2093.000000	35.437709
2092.000000	35.561941
2091.000000	35.450540
2090.000000	35.326373
2089.000000	35.321392
2088.000000	35.323856
2087.000000	35.347182
2086.000000	35.337644
2085.000000	35.314318
2084.000000	35.216435
2083.000000	35.115270
2082.000000	35.148257
2081.000000	35.125100
2080.000000	35.077594
2079.000000	35.057427
2078.000000	34.949733
2077.000000	34.928929
2076.000000	34.885374
2075.000000	34.842142
2074.000000	34.783373
2073.000000	34.636407
2072.000000	34.542728
2071.000000	34.516250
2070.000000	34.424555
2069.000000	34.392164
2068.000000	34.313969
2067.000000	34.131423
2066.000000	34.005656
2065.000000	33.945708
2064.000000	33.901157
2063.000000	33.829833
2062.000000	33.708302
2061.000000	33.526997
2060.000000	33.466870
2059.000000	33.380330
2058.000000	33.303767
2057.000000	33.215980
2056.000000	33.114513
2055.000000	32.949566
2054.000000	32.871336
2053.000000	32.752538
2052.000000	32.659418
2051.000000	32.663411
2050.000000	32.636272
2049.000000	32.522819
2048.000000	32.467154
2047.000000	32.445600
2046.000000	32.329748
2045.000000	32.328135
2044.000000	32.354795
2043.000000	32.321195
2042.000000	32.347199
2041.000000	32.374273
2040.000000	32.354287
2039.000000	32.371753
2038.000000	32.410931
2037.000000	32.436040
2036.000000	32.479107
2035.000000	32.556144
2034.000000	32.598629
2033.000000	32.675443
2032.000000	32.805813
2031.000000	32.871827
2030.000000	32.906374
2029.000000	33.001208
2028.000000	33.105252
2027.000000	33.182709
2026.000000	33.254446
2025.000000	33.304424
2024.000000	33.336508
2023.000000	33.371738
2022.000000	33.367489
2021.000000	33.391671
2020.000000	33.453821
2019.000000	33.467910
2018.000000	33.498838
2017.000000	33.496979
2016.000000	33.504649
2015.000000	33.499286
2014.000000	33.456647
2013.000000	33.459995
2012.000000	33.454590
2011.000000	33.415197
2010.000000	33.383252
2009.000000	33.318219
2008.000000	33.267001
2007.000000	33.198222
2006.000000	33.129577
2005.000000	33.110640
2004.000000	33.044461
2003.000000	32.958641
2002.000000	32.890722
2001.000000	32.801808
2000.000000	32.745207
1999.000000	32.721210
1998.000000	32.650353
1997.000000	32.544634
1996.000000	32.488816
1995.000000	32.380167
1994.000000	32.319741
1993.000000	32.255098
1992.000000	32.178126
1991.000000	32.059472
1990.000000	31.995017
1989.000000	31.901636
1988.000000	31.845341
1987.000000	31.765389
1986.000000	31.692110
1985.000000	31.614529
1984.000000	31.514817
1983.000000	31.471333
1982.000000	31.410396
1981.000000	31.363242
1980.000000	31.217597
1979.000000	31.136632
1978.000000	31.064363
1977.000000	30.973157
1976.000000	30.917101
1975.000000	30.864759
1974.000000	30.768520
1973.000000	30.697470
1972.000000	30.614548
1971.000000	30.554503
1970.000000	30.447597
1969.000000	30.409321
1968.000000	30.301852
1967.000000	30.233486
1966.000000	30.226419
1965.000000	30.139098
1964.000000	30.023346
1963.000000	29.939596
1962.000000	29.846112
1961.000000	29.771453
1960.000000	29.729370
1959.000000	29.637915
1958.000000	29.620152
1957.000000	29.546901
1956.000000	29.513636
1955.000000	29.439463
1954.000000	29.389903
1953.000000	29.341972
1952.000000	29.357415
1951.000000	29.291137
1950.000000	29.239115
1949.000000	29.198167
1948.000000	29.180355
1947.000000	29.192772
1946.000000	29.142808
1945.000000	29.191936
1944.000000	29.084605
1943.000000	29.104928
1942.000000	29.110907
1941.000000	29.162856
1940.000000	29.158349
1939.000000	29.233088
1938.000000	29.273427
1937.000000	29.378639
1936.000000	29.440815
1935.000000	29.484875
1934.000000	29.542206
1933.000000	29.631019
1932.000000	29.702828
1931.000000	29.838825
1930.000000	30.024393
1929.000000	30.087355
1928.000000	30.230673
1927.000000	30.361246
1926.000000	30.502444
1925.000000	30.651598
1924.000000	30.827776
1923.000000	31.055595
1922.000000	31.250804
1921.000000	31.519645
1920.000000	31.686733
1919.000000	31.908438
1918.000000	32.168830
1917.000000	32.453091
1916.000000	32.593071
1915.000000	32.830975
1914.000000	33.105181
1913.000000	33.406154
1912.000000	33.666084
1911.000000	33.960719
1910.000000	34.297806
1909.000000	34.536845
1908.000000	34.797506
1907.000000	35.107254
1906.000000	35.415397
1905.000000	35.804344
1904.000000	36.120403
1903.000000	36.473709
1902.000000	36.772727
1901.000000	37.166736
1900.000000	37.527584
1899.000000	37.924399
1898.000000	38.209705
1897.000000	38.531278
1896.000000	38.890259
1895.000000	39.155300
1894.000000	39.496953
1893.000000	39.820634
1892.000000	40.097539
1891.000000	40.412455
1890.000000	40.672911
1889.000000	40.981421
1888.000000	41.227818
1887.000000	41.497529
1886.000000	41.776486
1885.000000	41.969021
1884.000000	42.245151
1883.000000	42.434279
1882.000000	42.638670
1881.000000	42.808268
1880.000000	43.007731
1879.000000	43.202909
1878.000000	43.387651
1877.000000	43.598913
1876.000000	43.767203
1875.000000	43.888479
1874.000000	44.030501
1873.000000	44.163780
1872.000000	44.293499
1871.000000	44.421356
1870.000000	44.535623
1869.000000	44.653916
1868.000000	44.716978
1867.000000	44.770645
1866.000000	44.838516
1865.000000	44.893588
1864.000000	44.949290
1863.000000	45.013676
1862.000000	45.041763
1861.000000	45.076555
1860.000000	45.118990
1859.000000	45.139417
1858.000000	45.126819
1857.000000	45.166388
1856.000000	45.192277
1855.000000	45.234514
1854.000000	45.264505
1853.000000	45.297577
1852.000000	45.277749
1851.000000	45.276468
1850.000000	45.277005
1849.000000	45.277843
1848.000000	45.296604
1847.000000	45.333462
1846.000000	45.326826
1845.000000	45.318219
1844.000000	45.330886
1843.000000	45.288296
1842.000000	45.304730
1841.000000	45.285715
1840.000000	45.261667
1839.000000	45.254384
1838.000000	45.232169
1837.000000	45.208693
1836.000000	45.208743
1835.000000	45.170322
1834.000000	45.144593
1833.000000	45.161889
1832.000000	45.126757
1831.000000	45.070899
1830.000000	45.071995
1829.000000	45.054173
1828.000000	45.033864
1827.000000	45.027631
1826.000000	45.004527
1825.000000	44.992261
1824.000000	44.996424
1823.000000	44.955853
1822.000000	44.933300
1821.000000	44.926060
1820.000000	44.908701
1819.000000	44.879826
1818.000000	44.863527
1817.000000	44.864130
1816.000000	44.855182
1815.000000	44.856265
1814.000000	44.851937
1813.000000	44.814687
1812.000000	44.789258
1811.000000	44.767267
1810.000000	44.754066
1809.000000	44.749431
1808.000000	44.738566
1807.000000	44.716122
1806.000000	44.699666
1805.000000	44.693090
1804.000000	44.676562
1803.000000	44.655865
1802.000000	44.636389
1801.000000	44.618659
1800.000000	44.610723
1799.000000	44.617879
1798.000000	44.622015
1797.000000	44.611165
1796.000000	44.604567
1795.000000	44.587937
1794.000000	44.596087
1793.000000	44.589038
1792.000000	44.581700
1791.000000	44.589971
1790.000000	44.565530
1789.000000	44.551344
1788.000000	44.559176
1787.000000	44.552539
1786.000000	44.535624
1785.000000	44.514935
1784.000000	44.507250
1783.000000	44.505102
1782.000000	44.494900
1781.000000	44.473769
1780.000000	44.445630
1779.000000	44.414923
1778.000000	44.408394
1777.000000	44.389390
1776.000000	44.361001
1775.000000	44.322832
1774.000000	44.294276
1773.000000	44.275630
1772.000000	44.239219
1771.000000	44.204439
1770.000000	44.208040
1769.000000	44.159911
1768.000000	44.148736
1767.000000	44.124985
1766.000000	44.104456
1765.000000	44.073456
1764.000000	44.068403
1763.000000	44.021456
1762.000000	43.994483
1761.000000	43.941336
1760.000000	43.930494
1759.000000	43.900647
1758.000000	43.870100
1757.000000	43.827660
1756.000000	43.793396
1755.000000	43.810689
1754.000000	43.770146
1753.000000	43.736305
1752.000000	43.737918
1751.000000	43.703120
1750.000000	43.692849
1749.000000	43.653714
1748.000000	43.613327
1747.000000	43.579817
1746.000000	43.579140
1745.000000	43.535485
1744.000000	43.486114
1743.000000	43.466227
1742.000000	43.442309
1741.000000	43.401519
1740.000000	43.391688
1739.000000	43.349878
1738.000000	43.354404
1737.000000	43.325895
1736.000000	43.316640
1735.000000	43.322498
1734.000000	43.317269
1733.000000	43.312275
1732.000000	43.320279
1731.000000	43.325605
1730.000000	43.335358
1729.000000	43.361738
1728.000000	43.409314
1727.000000	43.453317
1726.000000	43.475982
1725.000000	43.499026
1724.000000	43.531444
1723.000000	43.617906
1722.000000	43.671935
1721.000000	43.702564
1720.000000	43.781152
1719.000000	43.843969
1718.000000	43.923273
1717.000000	43.986610
1716.000000	44.035978
1715.000000	44.077928
1714.000000	44.136577
1713.000000	44.201272
1712.000000	44.245489
1711.000000	44.302488
1710.000000	44.332077
1709.000000	44.352114
1708.000000	44.382906
1707.000000	44.393420
1706.000000	44.460533
1705.000000	44.487913
1704.000000	44.506906
1703.000000	44.505762
1702.000000	44.530268
1701.000000	44.536440
1700.000000	44.563023
1699.000000	44.565986
1698.000000	44.587033
1697.000000	44.594431
1696.000000	44.646240
1695.000000	44.652353
1694.000000	44.669535
1693.000000	44.718886
1692.000000	44.741874
1691.000000	44.789676
1690.000000	44.827835
1689.000000	44.884209
1688.000000	44.943703
1687.000000	45.027209
1686.000000	45.058614
1685.000000	45.136203
1684.000000	45.238306
1683.000000	45.303281
1682.000000	45.398276
1681.000000	45.492911
1680.000000	45.591372
1679.000000	45.662806
1678.000000	45.739332
1677.000000	45.841237
1676.000000	45.924663
1675.000000	46.031187
1674.000000	46.101863
1673.000000	46.201041
1672.000000	46.266494
1671.000000	46.371087
1670.000000	46.456155
1669.000000	46.555992
1668.000000	46.599794
1667.000000	46.719362
1666.000000	46.740321
1665.000000	46.789667
1664.000000	46.861212
1663.000000	46.879920
1662.000000	46.910182
1661.000000	46.965233
1660.000000	47.002146
1659.000000	47.048416
1658.000000	47.068154
1657.000000	47.109735
1656.000000	47.122693
1655.000000	47.135582
1654.000000	47.176955
1653.000000	47.193704
1652.000000	47.200356
1651.000000	47.198955
1650.000000	47.201100
1649.000000	47.195094
1648.000000	47.196608
1647.000000	47.204661
1646.000000	47.220762
1645.000000	47.220708
1644.000000	47.215092
1643.000000	47.196592
1642.000000	47.179128
1641.000000	47.180632
1640.000000	47.168184
1639.000000	47.159360
1638.000000	47.163462
1637.000000	47.151582
1636.000000	47.132628
1635.000000	47.118756
1634.000000	47.103479
1633.000000	47.087188
1632.000000	47.058400
1631.000000	47.046332
1630.000000	47.029135
1629.000000	47.006576
1628.000000	46.991150
1627.000000	46.980078
1626.000000	46.965995
1625.000000	46.948801
1624.000000	46.932309
1623.000000	46.915529
1622.000000	46.909412
1621.000000	46.893340
1620.000000	46.864901
1619.000000	46.829972
1618.000000	46.806224
1617.000000	46.792452
1616.000000	46.756366
1615.000000	46.730710
1614.000000	46.725961
1613.000000	46.692105
1612.000000	46.659630
1611.000000	46.626829
1610.000000	46.601007
1609.000000	46.588883
1608.000000	46.568601
1607.000000	46.538326
1606.000000	46.497230
1605.000000	46.474653
1604.000000	46.451175
1603.000000	46.420760
1602.000000	46.393280
1601.000000	46.357830
1600.000000	46.327799
1599.000000	46.301529
1598.000000	46.272316
1597.000000	46.252138
1596.000000	46.228173
1595.000000	46.208983
1594.000000	46.195596
1593.000000	46.173496
1592.000000	46.138280
1591.000000	46.113060
1590.000000	46.100805
1589.000000	46.068084
1588.000000	46.048303
1587.000000	46.039791
1586.000000	46.024507
1585.000000	46.007875
1584.000000	45.987877
1583.000000	45.964743
1582.000000	45.955090
1581.000000	45.923040
1580.000000	45.890742
1579.000000	45.878852
1578.000000	45.878152
1577.000000	45.850797
1576.000000	45.839109
1575.000000	45.831244
1574.000000	45.799279
1573.000000	45.765072
1572.000000	45.754427
1571.000000	45.735522
1570.000000	45.717101
1569.000000	45.697527
1568.000000	45.685649
1567.000000	45.675384
1566.000000	45.650875
1565.000000	45.616451
1564.000000	45.616208
1563.000000	45.632209
1562.000000	45.613647
1561.000000	45.594735
1560.000000	45.583655
1559.000000	45.563357
1558.000000	45.554673
1557.000000	45.555167
1556.000000	45.557080
1555.000000	45.557420
1554.000000	45.535268
1553.000000	45.521910
1552.000000	45.502015
1551.000000	45.494049
1550.000000	45.469888
1549.000000	45.453125
1548.000000	45.440140
1547.000000	45.412003
1546.000000	45.377799
1545.000000	45.355618
1544.000000	45.312836
1543.000000	45.273986
1542.000000	45.255006
1541.000000	45.225968
1540.000000	45.185125
1539.000000	45.134583
1538.000000	45.091257
1537.000000	45.033728
1536.000000	44.989848
1535.000000	44.944720
1534.000000	44.900406
1533.000000	44.868733
1532.000000	44.817598
1531.000000	44.772686
1530.000000	44.736100
1529.000000	44.694918
1528.000000	44.673712
1527.000000	44.626120
1526.000000	44.597142
1525.000000	44.568253
1524.000000	44.538460
1523.000000	44.508695
1522.000000	44.473254
1521.000000	44.446079
1520.000000	44.431640
1519.000000	44.402870
1518.000000	44.389275
1517.000000	44.358438
1516.000000	44.344592
1515.000000	44.318734
1514.000000	44.321122
1513.000000	44.297927
1512.000000	44.311365
1511.000000	44.346793
1510.000000	44.408735
1509.000000	44.424967
1508.000000	44.403322
1507.000000	44.361790
1506.000000	44.333693
1505.000000	44.320184
1504.000000	44.319420
1503.000000	44.308866
1502.000000	44.295440
1501.000000	44.288037
1500.000000	44.290262
1499.000000	44.298587
1498.000000	44.295271
1497.000000	44.309014
1496.000000	44.316844
1495.000000	44.329509
1494.000000	44.322798
1493.000000	44.340330
1492.000000	44.365706
1491.000000	44.401300
1490.000000	44.410485
1489.000000	44.450860
1488.000000	44.453869
1487.000000	44.485356
1486.000000	44.511226
1485.000000	44.532035
1484.000000	44.564809
1483.000000	44.612146
1482.000000	44.619537
1481.000000	44.669880
1480.000000	44.690491
1479.000000	44.708781
1478.000000	44.745262
1477.000000	44.760546
1476.000000	44.814563
1475.000000	44.830793
1474.000000	44.853272
1473.000000	44.882953
1472.000000	44.910497
1471.000000	44.938333
1470.000000	44.960236
1469.000000	45.012523
1468.000000	45.043993
1467.000000	45.111589
1466.000000	45.121525
1465.000000	45.127125
1464.000000	45.153854
1463.000000	45.214226
1462.000000	45.231209
1461.000000	45.247481
1460.000000	45.280706
1459.000000	45.303007
1458.000000	45.368694
1457.000000	45.394174
1456.000000	45.409547
1455.000000	45.442404
1454.000000	45.506704
1453.000000	45.530710
1452.000000	45.564506
1451.000000	45.595754
1450.000000	45.609515
1449.000000	45.657939
1448.000000	45.719985
1447.000000	45.761665
1446.000000	45.790570
1445.000000	45.812884
1444.000000	45.858433
1443.000000	45.895325
1442.000000	45.981221
1441.000000	46.046268
1440.000000	46.076655
1439.000000	46.107792
1438.000000	46.150165
1437.000000	46.207183
1436.000000	46.246335
1435.000000	46.296122
1434.000000	46.352497
1433.000000	46.410664
1432.000000	46.471354
1431.000000	46.535460
1430.000000	46.606507
1429.000000	46.663983
1428.000000	46.703682
1427.000000	46.782683
1426.000000	46.867575
1425.000000	46.962755
1424.000000	47.041407
1423.000000	47.123455
1422.000000	47.205698
1421.000000	47.284470
1420.000000	47.377561
1419.000000	47.453686
1418.000000	47.506861
1417.000000	47.590555
1416.000000	47.686204
1415.000000	47.771760
1414.000000	47.853184
1413.000000	47.944977
1412.000000	48.035276
1411.000000	48.133724
1410.000000	48.225528
1409.000000	48.306285
1408.000000	48.409670
1407.000000	48.518573
1406.000000	48.618252
1405.000000	48.720592
1404.000000	48.766384
1403.000000	48.823249
1402.000000	48.924869
1401.000000	49.014796
1400.000000	49.112635
1399.000000	49.207946
1398.000000	49.296908
1397.000000	49.373204
1396.000000	49.448078
1395.000000	49.519253
1394.000000	49.588480
1393.000000	49.650630
1392.000000	49.704027
1391.000000	49.767811
1390.000000	49.830458
1389.000000	49.886334
1388.000000	49.962974
1387.000000	50.046630
1386.000000	50.105700
1385.000000	50.145941
1384.000000	50.212475
1383.000000	50.286950
1382.000000	50.337840
1381.000000	50.374436
1380.000000	50.432927
1379.000000	50.487358
1378.000000	50.514505
1377.000000	50.548779
1376.000000	50.565458
1375.000000	50.582345
1374.000000	50.618620
1373.000000	50.645582
1372.000000	50.683027
1371.000000	50.706398
1370.000000	50.715816
1369.000000	50.741845
1368.000000	50.766056
1367.000000	50.774957
1366.000000	50.775053
1365.000000	50.798632
1364.000000	50.818407
1363.000000	50.844014
1362.000000	50.888833
1361.000000	50.930326
1360.000000	50.974808
1359.000000	51.018328
1358.000000	51.037925
1357.000000	51.049701
1356.000000	51.086330
1355.000000	51.129510
1354.000000	51.151577
1353.000000	51.165371
1352.000000	51.201796
1351.000000	51.259233
1350.000000	51.282417
1349.000000	51.277170
1348.000000	51.326871
1347.000000	51.391850
1346.000000	51.400419
1345.000000	51.406972
1344.000000	51.434656
1343.000000	51.456467
1342.000000	51.454845
1341.000000	51.491157
1340.000000	51.526953
1339.000000	51.547092
1338.000000	51.565988
1337.000000	51.580695
1336.000000	51.601785
1335.000000	51.615349
1334.000000	51.652872
1333.000000	51.691133
1332.000000	51.695343
1331.000000	51.708587
1330.000000	51.717190
1329.000000	51.718105
1328.000000	51.741886
1327.000000	51.778105
1326.000000	51.801660
1325.000000	51.806271
1324.000000	51.843909
1323.000000	51.846414
1322.000000	51.862814
1321.000000	51.870671
1320.000000	51.882450
1319.000000	51.873067
1318.000000	51.902031
1317.000000	51.943399
1316.000000	51.969458
1315.000000	51.968074
1314.000000	51.967717
1313.000000	51.955190
1312.000000	51.976186
1311.000000	52.015507
1310.000000	52.046069
1309.000000	52.040837
1308.000000	52.038707
1307.000000	52.030133
1306.000000	52.025432
1305.000000	52.051517
1304.000000	52.073795
1303.000000	52.073318
1302.000000	52.104668
1301.000000	52.083357
1300.000000	52.096334
1299.000000	52.081184
1298.000000	52.072989
1297.000000	52.086314
1296.000000	52.092812
1295.000000	52.093884
1294.000000	52.098676
1293.000000	52.108113
1292.000000	52.083002
1291.000000	52.107450
1290.000000	52.098708
1289.000000	52.102399
1288.000000	52.108971
1287.000000	52.121881
1286.000000	52.097258
1285.000000	52.099510
1284.000000	52.115545
1283.000000	52.067475
1282.000000	52.046441
1281.000000	52.070218
1280.000000	52.091064
1279.000000	52.085437
1278.000000	52.082568
1277.000000	52.104858
1276.000000	52.083089
1275.000000	52.083281
1274.000000	52.105089
1273.000000	52.094086
1272.000000	52.099557
1271.000000	52.096420
1270.000000	52.109701
1269.000000	52.105138
1268.000000	52.115894
1267.000000	52.098241
1266.000000	52.162907
1265.000000	52.155300
1264.000000	52.185910
1263.000000	52.170265
1262.000000	52.166665
1261.000000	52.180923
1260.000000	52.201787
1259.000000	52.208970
1258.000000	52.212477
1257.000000	52.205663
1256.000000	52.231704
1255.000000	52.228133
1254.000000	52.217958
1253.000000	52.208910
1252.000000	52.218771
1251.000000	52.212270
1250.000000	52.216597
1249.000000	52.212580
1248.000000	52.213058
1247.000000	52.214337
1246.000000	52.229239
1245.000000	52.215700
1244.000000	52.210037
1243.000000	52.208022
1242.000000	52.208628
1241.000000	52.210293
1240.000000	52.221863
1239.000000	52.181884
1238.000000	52.167371
1237.000000	52.156045
1236.000000	52.112209
1235.000000	52.099968
1234.000000	52.122260
1233.000000	52.102798
1232.000000	52.109476
1231.000000	52.065392
1230.000000	52.067538
1229.000000	52.071898
1228.000000	52.081624
1227.000000	52.075934
1226.000000	52.030183
1225.000000	52.010251
1224.000000	52.011032
1223.000000	52.004273
1222.000000	52.011454
1221.000000	52.018833
1220.000000	52.010706
1219.000000	52.007152
1218.000000	51.995180
1217.000000	51.973753
1216.000000	51.979241
1215.000000	51.980886
1214.000000	51.981906
1213.000000	52.004589
1212.000000	51.992015
1211.000000	51.997158
1210.000000	51.983789
1209.000000	51.968036
1208.000000	51.948676
1207.000000	51.964007
1206.000000	51.975205
1205.000000	51.945761
1204.000000	51.942214
1203.000000	51.945383
1202.000000	51.931183
1201.000000	51.899844
1200.000000	51.929056
1199.000000	51.938015
1198.000000	51.917156
1197.000000	51.893345
1196.000000	51.874164
1195.000000	51.861074
1194.000000	51.865319
1193.000000	51.897455
1192.000000	51.897786
1191.000000	51.883300
1190.000000	51.843508
1189.000000	51.774731
1188.000000	51.784631
1187.000000	51.787266
1186.000000	51.784127
1185.000000	51.783858
1184.000000	51.794969
1183.000000	51.803147
1182.000000	51.825212
1181.000000	51.840630
1180.000000	51.849919
1179.000000	51.864159
1178.000000	51.888176
1177.000000	51.905032
1176.000000	51.910978
1175.000000	51.931078
1174.000000	51.964971
1173.000000	51.996774
1172.000000	52.011636
1171.000000	52.028436
1170.000000	52.058597
1169.000000	52.084294
1168.000000	52.110621
1167.000000	52.128811
1166.000000	52.145444
1165.000000	52.177745
1164.000000	52.210055
1163.000000	52.242729
1162.000000	52.272730
1161.000000	52.297948
1160.000000	52.324610
1159.000000	52.341083
1158.000000	52.357349
1157.000000	52.362200
1156.000000	52.362469
1155.000000	52.391806
1154.000000	52.416100
1153.000000	52.447463
1152.000000	52.471831
1151.000000	52.480543
1150.000000	52.507373
1149.000000	52.540798
1148.000000	52.550347
1147.000000	52.561292
1146.000000	52.597816
1145.000000	52.625429
1144.000000	52.636180
1143.000000	52.646474
1142.000000	52.666213
1141.000000	52.680732
1140.000000	52.694845
1139.000000	52.722868
1138.000000	52.697469
1137.000000	52.682430
1136.000000	52.691801
1135.000000	52.720623
1134.000000	52.742832
1133.000000	52.751128
1132.000000	52.757165
1131.000000	52.779804
1130.000000	52.806086
1129.000000	52.813947
1128.000000	52.828151
1127.000000	52.835128
1126.000000	52.845109
1125.000000	52.846250
1124.000000	52.824163
1123.000000	52.826694
1122.000000	52.843299
1121.000000	52.861717
1120.000000	52.854939
1119.000000	52.852135
1118.000000	52.884675
1117.000000	52.882787
1116.000000	52.879606
1115.000000	52.876554
1114.000000	52.893751
1113.000000	52.893172
1112.000000	52.892072
1111.000000	52.900332
1110.000000	52.888853
1109.000000	52.895932
1108.000000	52.911068
1107.000000	52.910334
1106.000000	52.916288
1105.000000	52.881521
1104.000000	52.879723
1103.000000	52.890177
1102.000000	52.890353
1101.000000	52.896745
1100.000000	52.897727
1099.000000	52.907420
1098.000000	52.920502
1097.000000	52.921306
1096.000000	52.882188
1095.000000	52.875972
1094.000000	52.868603
1093.000000	52.880519
1092.000000	52.886813
1091.000000	52.906467
1090.000000	52.904804
1089.000000	52.893587
1088.000000	52.864762
1087.000000	52.851269
1086.000000	52.874236
1085.000000	52.872307
1084.000000	52.883453
1083.000000	52.878760
1082.000000	52.880038
1081.000000	52.838462
1080.000000	52.839497
1079.000000	52.848777
1078.000000	52.858883
1077.000000	52.860452
1076.000000	52.859375
1075.000000	52.824965
1074.000000	52.820573
1073.000000	52.821595
1072.000000	52.824138
1071.000000	52.842474
1070.000000	52.838297
1069.000000	52.851906
1068.000000	52.802625
1067.000000	52.811998
1066.000000	52.825825
1065.000000	52.827026
1064.000000	52.830410
1063.000000	52.814580
1062.000000	52.821147
1061.000000	52.840412
1060.000000	52.767001
1059.000000	52.775289
1058.000000	52.782570
1057.000000	52.794238
1056.000000	52.799834
1055.000000	52.763059
1054.000000	52.736959
1053.000000	52.757996
1052.000000	52.758536
1051.000000	52.761599
1050.000000	52.726801
1049.000000	52.734321
1048.000000	52.716963
1047.000000	52.734253
1046.000000	52.746430
1045.000000	52.702401
1044.000000	52.706770
1043.000000	52.711564
1042.000000	52.710258
1041.000000	52.672177
1040.000000	52.687318
1039.000000	52.690192
1038.000000	52.681784
1037.000000	52.709979
1036.000000	52.659165
1035.000000	52.661877
1034.000000	52.662782
1033.000000	52.627163
1032.000000	52.633118
1031.000000	52.635661
1030.000000	52.649179
1029.000000	52.621093
1028.000000	52.626744
1027.000000	52.629395
1026.000000	52.632795
1025.000000	52.608333
1024.000000	52.609595
1023.000000	52.591261
1022.000000	52.559431
1021.000000	52.582887
1020.000000	52.598791
1019.000000	52.579908
1018.000000	52.563382
1017.000000	52.564751
1016.000000	52.559948
1015.000000	52.532294
1014.000000	52.540191
1013.000000	52.532823
1012.000000	52.531600
1011.000000	52.538287
1010.000000	52.522928
1009.000000	52.505370
1008.000000	52.509438
1007.000000	52.517603
1006.000000	52.502871
1005.000000	52.521464
1004.000000	52.494290
1003.000000	52.467550
1002.000000	52.490078
1001.000000	52.491528
1000.000000	52.478504
999.000000	52.492569
998.000000	52.501645
997.000000	52.499706
996.000000	52.506099
995.000000	52.514233
994.000000	52.525779
993.000000	52.527140
992.000000	52.519917
991.000000	52.532207
990.000000	52.530891
989.000000	52.525597
988.000000	52.510122
987.000000	52.522349
986.000000	52.522239
985.000000	52.519789
984.000000	52.528605
983.000000	52.525604
982.000000	52.512003
981.000000	52.519025
980.000000	52.525554
979.000000	52.533145
978.000000	52.537499
977.000000	52.544387
976.000000	52.540098
975.000000	52.523721
974.000000	52.523744
973.000000	52.524590
972.000000	52.536847
971.000000	52.547656
970.000000	52.542459
969.000000	52.532601
968.000000	52.526057
967.000000	52.520590
966.000000	52.514212
965.000000	52.512962
964.000000	52.534747
963.000000	52.538955
962.000000	52.540154
961.000000	52.541792
960.000000	52.539945
959.000000	52.532425
958.000000	52.520058
957.000000	52.513000
956.000000	52.525798
955.000000	52.526488
954.000000	52.515505
953.000000	52.518338
952.000000	52.509517
951.000000	52.495867
950.000000	52.480500
949.000000	52.492670
948.000000	52.505144
947.000000	52.519973
946.000000	52.509428
945.000000	52.497869
944.000000	52.507165
943.000000	52.502285
942.000000	52.504152
941.000000	52.508323
940.000000	52.499827
939.000000	52.484867
938.000000	52.487981
937.000000	52.504783
936.000000	52.492778
935.000000	52.495085
934.000000	52.491343
933.000000	52.479443
932.000000	52.485481
931.000000	52.475452
930.000000	52.454008
929.000000	52.452612
928.000000	52.459093
927.000000	52.451232
926.000000	52.442720
925.000000	52.416150
924.000000	52.422295
923.000000	52.428064
922.000000	52.410393
921.000000	52.402358
920.000000	52.404183
919.000000	52.411798
918.000000	52.387948
917.000000	52.390176
916.000000	52.414931
915.000000	52.413869
914.000000	52.390659
913.000000	52.371129
912.000000	52.375990
911.000000	52.388475
910.000000	52.360159
909.000000	52.353449
908.000000	52.340934
907.000000	52.328278
906.000000	52.309844
905.000000	52.318301
904.000000	52.337050
903.000000	52.305801
902.000000	52.337054
901.000000	52.337349
900.000000	52.314919
899.000000	52.320291
898.000000	52.327699
897.000000	52.328126
896.000000	52.323419
895.000000	52.300996
894.000000	52.336434
893.000000	52.286232
892.000000	52.263653
891.000000	52.244994
890.000000	52.251871
889.000000	52.283273
888.000000	52.259728
887.000000	52.281508
886.000000	52.230632
885.000000	52.204088
884.000000	52.201530
883.000000	52.146733
882.000000	52.206313
881.000000	52.123824
880.000000	52.198017
879.000000	52.143337
878.000000	52.202827
877.000000	52.193711
876.000000	52.194949
875.000000	52.111684
874.000000	52.196018
873.000000	52.217876
872.000000	52.238826
871.000000	52.120697
870.000000	52.101430
869.000000	52.077805
868.000000	52.035457
867.000000	52.056719
866.000000	52.078529
865.000000	52.016475
864.000000	52.076586
863.000000	52.032958
862.000000	52.069400
861.000000	51.924796
860.000000	51.992377
859.000000	52.613518
858.000000	53.291789
857.000000	53.532643
856.000000	53.139238
855.000000	53.153634
854.000000	53.144631
853.000000	53.063814
852.000000	53.253779
851.000000	53.126382
850.000000	53.014820
849.000000	53.240756
848.000000	53.034056
847.000000	53.037981
846.000000	53.275788
845.000000	53.043994
844.000000	52.996865
843.000000	53.042249
842.000000	53.038471
841.000000	52.945820
840.000000	52.713320
839.000000	52.846897
838.000000	52.862348
837.000000	52.882436
836.000000	52.821093
835.000000	52.743457
834.000000	52.750234
833.000000	52.745073
832.000000	52.772053
831.000000	52.697698
830.000000	52.844571
829.000000	52.683449
828.000000	52.580864
827.000000	52.616439
826.000000	52.550687
825.000000	52.496892
824.000000	52.539111
823.000000	52.540438
822.000000	52.561908
821.000000	52.530588
820.000000	52.603346
819.000000	52.509997
818.000000	52.577947
817.000000	52.425379
816.000000	52.528343
815.000000	52.379055
814.000000	52.503857
813.000000	52.560916
812.000000	52.477511
811.000000	52.385119
810.000000	52.336069
809.000000	52.360679
808.000000	52.394098
807.000000	52.363446
806.000000	52.279954
805.000000	52.341637
804.000000	52.249207
803.000000	52.283095
802.000000	52.248965
801.000000	52.191739
800.000000	52.267671
799.000000	52.231618
798.000000	52.136497
797.000000	52.182834
796.000000	52.070695
795.000000	52.027998
794.000000	52.005433
793.000000	52.017502
792.000000	51.996448
791.000000	51.986569
790.000000	51.919625
789.000000	51.838403
788.000000	51.834762
787.000000	51.896236
786.000000	51.854560
785.000000	51.823653
784.000000	51.853228
783.000000	51.735587
782.000000	51.771563
781.000000	51.658846
780.000000	51.615948
779.000000	51.635007
778.000000	51.634052
777.000000	51.577434
776.000000	51.541425
775.000000	51.451471
774.000000	51.474998
773.000000	51.465204
772.000000	51.409877
771.000000	51.405887
770.000000	51.403673
769.000000	51.397717
768.000000	51.315547
767.000000	51.279599
766.000000	51.200088
765.000000	51.202407
764.000000	51.198362
763.000000	51.086461
762.000000	51.104729
761.000000	51.021827
760.000000	51.068896
759.000000	51.058597
758.000000	50.977145
757.000000	50.957301
756.000000	50.957623
755.000000	50.865788
754.000000	50.812776
753.000000	50.806047
752.000000	50.787020
751.000000	50.675697
750.000000	50.681870
749.000000	50.695127
748.000000	50.649324
747.000000	50.620920
746.000000	50.574026
745.000000	50.520741
744.000000	50.427268
743.000000	50.368734
742.000000	50.375068
741.000000	50.390630
740.000000	50.373186
739.000000	50.241930
738.000000	50.191571
737.000000	50.159320
736.000000	50.186704
735.000000	50.170908
734.000000	50.112553
733.000000	50.032834
732.000000	50.013066
731.000000	49.990784
730.000000	49.956494
729.000000	49.917644
728.000000	49.873422
727.000000	49.805351
726.000000	49.780348
725.000000	49.653770
724.000000	49.592278
723.000000	49.592556
722.000000	49.562795
721.000000	49.508849
720.000000	49.464844
719.000000	49.438180
718.000000	49.366927
717.000000	49.336418
716.000000	49.305352
715.000000	49.227990
714.000000	49.166950
713.000000	49.130909
712.000000	49.099531
711.000000	49.049808
710.000000	48.989683
709.000000	48.954763
708.000000	48.889340
707.000000	48.834719
706.000000	48.805219
705.000000	48.794361
704.000000	48.745949
703.000000	48.659860
702.000000	48.631113
701.000000	48.569198
700.000000	48.495376
699.000000	48.460820
698.000000	48.424519
697.000000	48.357188
696.000000	48.285015
695.000000	48.276625
694.000000	48.202625
693.000000	48.151760
692.000000	48.099350
691.000000	48.020317
690.000000	47.969413
689.000000	47.894220
688.000000	47.816573
687.000000	47.768484
686.000000	47.715171
685.000000	47.649296
684.000000	47.575782
683.000000	47.504459
682.000000	47.471106
681.000000	47.402221
680.000000	47.340740
679.000000	47.305555
678.000000	47.236708
677.000000	47.177461
676.000000	47.107868
675.000000	47.040440
674.000000	47.010426
673.000000	46.951976
672.000000	46.924627
671.000000	46.893082
670.000000	46.767485
669.000000	46.670053
668.000000	46.647774
667.000000	46.592653
666.000000	46.516986
665.000000	46.462697
664.000000	46.406494
663.000000	46.322521
662.000000	46.243116
661.000000	46.221970
660.000000	46.159041
659.000000	46.069261
658.000000	46.019944
657.000000	45.965129
656.000000	45.888770
655.000000	45.829889
654.000000	45.739487
653.000000	45.696906
652.000000	45.582407
651.000000	45.548329
650.000000	45.461438
649.000000	45.394753
648.000000	45.365512
647.000000	45.301564
646.000000	45.236380
645.000000	45.133230
644.000000	45.090639
643.000000	45.023145
642.000000	44.975503
641.000000	44.901330
640.000000	44.834094
639.000000	44.785484
638.000000	44.666007
637.000000	44.619567
636.000000	44.579098
635.000000	44.493363
634.000000	44.404600
633.000000	44.340937
632.000000	44.257005
631.000000	44.182994
630.000000	44.131597
629.000000	44.048652
628.000000	43.944362
627.000000	43.903014
626.000000	43.857051
625.000000	43.755945
624.000000	43.689117
623.000000	43.626680
622.000000	43.566132
621.000000	43.469702
620.000000	43.399444
619.000000	43.346907
618.000000	43.261204
617.000000	43.163759
616.000000	43.055914
615.000000	43.026751
614.000000	42.928041
613.000000	42.848137
612.000000	42.813016
611.000000	42.719696
610.000000	42.673746
609.000000	42.592822
608.000000	42.506958
607.000000	42.420328
606.000000	42.403444
605.000000	42.257657
604.000000	42.159208
603.000000	42.124862
602.000000	42.042741
601.000000	41.948746
600.000000	41.895488
599.000000	41.826100
598.000000	41.720047
597.000000	41.642337
596.000000	41.513974
595.000000	41.435875
594.000000	41.337125
593.000000	41.294035
592.000000	41.210890
591.000000	41.139169
590.000000	41.006464
589.000000	40.994155
588.000000	40.873198
587.000000	40.817865
586.000000	40.729018
585.000000	40.619889
584.000000	40.553532
583.000000	40.458901
582.000000	40.403937
581.000000	40.288241
580.000000	40.237263
579.000000	40.141285
578.000000	40.048360
577.000000	39.947582
576.000000	39.909155
575.000000	39.773525
574.000000	39.734358
573.000000	39.652055
572.000000	39.504164
571.000000	39.419366
570.000000	39.375959
569.000000	39.277639
568.000000	39.119622
567.000000	39.041874
566.000000	38.988791
565.000000	38.862091
564.000000	38.802201
563.000000	38.718528
562.000000	38.604447
561.000000	38.506292
560.000000	38.404644
559.000000	38.308011
558.000000	38.178257
557.000000	38.114036
556.000000	37.995164
555.000000	37.878104
554.000000	37.802384
553.000000	37.692867
552.000000	37.610248
551.000000	37.506116
550.000000	37.414206
549.000000	37.282160
548.000000	37.189653
547.000000	37.093577
546.000000	36.943414
545.000000	36.901758
544.000000	36.806516
543.000000	36.698658
542.000000	36.600537
541.000000	36.506199
540.000000	36.407595
539.000000	36.312185
538.000000	36.177591
537.000000	36.095839
536.000000	35.962313
535.000000	35.877698
534.000000	35.754628
533.000000	35.637416
532.000000	35.538939
531.000000	35.437299
530.000000	35.337604
529.000000	35.247715
528.000000	35.116180
527.000000	35.021664
526.000000	34.908210
525.000000	34.796774
524.000000	34.663114
523.000000	34.551268
522.000000	34.437520
521.000000	34.358414
520.000000	34.243139
519.000000	34.153466
518.000000	34.026074
517.000000	33.908508
516.000000	33.781657
515.000000	33.682607
514.000000	33.550975
513.000000	33.431603
512.000000	33.316810
511.000000	33.225558
510.000000	33.104346
509.000000	32.981192
508.000000	32.841415
507.000000	32.720730
506.000000	32.611758
505.000000	32.499310
504.000000	32.365319
503.000000	32.241149
502.000000	32.127430
501.000000	32.026099
500.000000	31.911252
499.000000	31.785326
498.000000	31.648705
497.000000	31.551758
496.000000	31.464006
495.000000	31.344408
494.000000	31.183196
493.000000	31.050642
492.000000	30.914798
491.000000	30.821984
490.000000	30.729964
489.000000	30.582108
488.000000	30.471543
487.000000	30.331746
486.000000	30.216636
485.000000	30.126293
484.000000	29.986405
483.000000	29.885491
482.000000	29.817629
481.000000	29.724331
480.000000	29.586577
479.000000	29.447787
478.000000	29.324626
477.000000	29.187936
476.000000	29.065845
475.000000	28.954797
474.000000	28.829982
473.000000	28.699086
472.000000	28.583352
471.000000	28.482825
470.000000	28.327701
469.000000	28.200107
468.000000	28.086517
467.000000	27.942479
466.000000	27.821932
465.000000	27.677484
464.000000	27.549008
463.000000	27.442689
462.000000	27.331695
461.000000	27.192846
460.000000	27.039007
459.000000	26.923937
458.000000	26.810589
457.000000	26.688875
456.000000	26.542489
455.000000	26.414247
454.000000	26.299576
453.000000	26.149196
452.000000	26.007045
451.000000	25.868354
450.000000	25.726450
449.000000	25.588624
448.000000	25.459460
447.000000	25.341509
446.000000	25.204667
445.000000	25.065367
444.000000	24.934527
443.000000	24.797060
442.000000	24.645310
441.000000	24.506513
440.000000	24.372694
439.000000	24.220007
438.000000	24.095664
437.000000	23.966789
436.000000	23.822046
435.000000	23.684654
434.000000	23.542830
433.000000	23.412786
432.000000	23.296618
431.000000	23.164557
430.000000	23.018687
429.000000	22.857870
428.000000	22.717144
427.000000	22.584786
426.000000	22.430224
425.000000	22.279281
424.000000	22.163242
423.000000	22.034456
422.000000	21.901551
421.000000	21.771398
420.000000	21.620667
419.000000	21.477393
418.000000	21.339557
417.000000	21.236684
416.000000	21.096343
415.000000	20.947519
414.000000	20.836139
413.000000	20.692999
412.000000	20.541870
411.000000	20.409576
410.000000	20.292524
409.000000	20.142730
408.000000	20.027383
407.000000	19.883584
406.000000	19.738954
405.000000	19.596571
404.000000	19.491866
403.000000	19.373905
402.000000	19.254118
401.000000	19.124805
400.000000	18.980140
399.000000	18.834425
398.000000	18.740308
397.000000	18.616808
396.000000	18.474590
395.000000	18.335993
394.000000	18.224791
393.000000	18.101233
392.000000	17.969203
391.000000	17.841048
390.000000	17.734593
389.000000	17.614889
388.000000	17.489071
387.000000	17.346437
386.000000	17.209737
385.000000	17.088670
384.000000	16.953391
383.000000	16.823610
382.000000	16.763257
381.000000	16.593227
380.000000	16.453585
379.000000	16.348853
378.000000	16.286235
377.000000	16.233405
376.000000	16.170982
375.000000	16.036278
374.000000	15.849261
373.000000	15.728767
372.000000	15.629880
371.000000	15.504672
370.000000	15.408977
369.000000	15.275162
368.000000	15.237643
367.000000	15.154215
366.000000	14.995566
365.000000	14.957636
364.000000	14.824003
363.000000	14.715355
362.000000	14.605086
361.000000	14.562576
360.000000	14.464147
359.000000	14.313598
358.000000	14.251833
357.000000	14.238722
356.000000	14.078721
355.000000	13.975538
354.000000	13.898268
353.000000	13.856941
352.000000	13.735568
351.000000	13.643458
350.000000	13.563020
349.000000	13.492813
348.000000	13.351161
347.000000	13.301075
346.000000	13.223314
345.000000	13.132373
344.000000	13.078811
343.000000	12.985668
342.000000	12.910201
341.000000	12.878123
340.000000	12.750492
339.000000	12.736426
338.000000	12.575473
337.000000	12.555985
336.000000	12.399974
335.000000	12.325585
334.000000	12.360052
333.000000	12.220911
332.000000	12.207284
331.000000	12.154648
330.000000	11.980766
329.000000	11.898150
328.000000	11.803550
327.000000	11.718252
326.000000	11.801633
325.000000	11.687190
324.000000	11.596011
323.000000	11.568915
322.000000	11.513661
321.000000	11.404889
320.000000	11.354405
319.000000	11.416365
318.000000	11.089221
317.000000	11.041763
316.000000	11.043963
315.000000	10.942160
314.000000	10.943833
313.000000	10.915361
312.000000	10.817177
311.000000	10.738004
310.000000	10.749161
309.000000	10.795429
308.000000	10.718151
307.000000	10.673612
306.000000	10.700949
305.000000	10.609858
304.000000	10.580204
303.000000	10.586615
302.000000	10.554460
301.000000	10.522732
300.000000	10.517557
299.000000	10.431660
298.000000	10.461614
297.000000	10.482324
296.000000	10.419646
295.000000	10.381460
294.000000	10.357170
293.000000	10.391326
292.000000	10.329508
291.000000	10.235685
290.000000	10.270080
289.000000	10.272896
288.000000	10.246967
287.000000	10.236868
286.000000	10.274725
285.000000	10.169765
284.000000	10.224453
283.000000	10.290628
282.000000	10.215782
281.000000	10.267510
280.000000	10.277575
279.000000	10.283100
278.000000	10.273762
277.000000	10.302558
276.000000	10.352898
275.000000	10.349455
274.000000	10.470470
273.000000	10.454545
272.000000	10.467049
271.000000	10.527261
270.000000	10.581873
269.000000	10.592076
268.000000	10.660231
267.000000	10.728184
266.000000	10.734048
265.000000	10.827979
264.000000	10.902799
263.000000	10.959810
262.000000	11.072928
261.000000	11.169474
260.000000	11.218623
259.000000	11.297268
258.000000	11.382833
257.000000	11.511059
256.000000	11.568536
255.000000	11.642206
254.000000	11.768128
253.000000	11.846572
252.000000	12.004589
251.000000	12.097602
250.000000	12.186290
249.000000	12.271600
248.000000	12.380925
247.000000	12.486602
246.000000	12.615522
245.000000	12.743070
244.000000	12.835116
243.000000	12.943206
242.000000	12.955689
241.000000	12.988884
240.000000	13.069101
239.000000	13.137348
238.000000	13.181151
237.000000	13.206436
236.000000	13.258819
235.000000	13.247882
234.000000	13.273715
233.000000	13.304437
232.000000	13.283085
231.000000	13.292323
230.000000	13.319844
229.000000	13.325438
228.000000	13.337970
227.000000	13.377329
226.000000	13.434876
225.000000	13.399975
224.000000	13.443570
223.000000	13.532477
222.000000	13.530486
221.000000	13.527849
220.000000	13.658960
219.000000	13.763154
218.000000	13.857822
217.000000	14.037474
216.000000	14.186910
215.000000	14.257198
214.000000	14.342848
213.000000	14.581368
212.000000	14.727535
211.000000	14.966219
210.000000	15.240874
209.000000	15.456954
208.000000	15.714900
207.000000	15.984080
206.000000	16.346272
205.000000	16.903202
204.000000	17.313208
203.000000	17.617167
202.000000	18.155320
201.000000	18.734798
200.000000	19.299003
