PE UV       SUBTECH     SPECTRUM    ASCII       PEDS        4.00        
   -1
TTmsfkat102.Sample.asc
18/03/20
15:18:34.00
18/03/20
15:18:34.00
Administrator

200.000000
1
Lambda 750
750N8071901
PerkinElmer UV WinLab 6.0.4.0738 / 1.61.00 Lambda 900

0
0
3350/servo 860.8/2
0
0
UV/VIS
1
1
1
CommonBeamDepol,150mm sphere / downward view
0
0
0
0
Program
Program
3350/servo 860.8/2
3350/0.2 860.8/0.2
3350/0.2 860.8/0.2
0
1
 
 
 
0
 
860.8
319.2
860.8
Front
100
on
 
 
0
0
0
 
0
 
 
 
0
 
 
0
0
0
0
0
 
 
 
 
0
0


0
0
#HDR
-1
-1
#GR
nm
%T
1.0
0.0
2350.000000
-1.000000
2151
8
15.264288
0.029943
#DATA
2350.000000	8.455598
2349.000000	8.644630
2348.000000	8.486227
2347.000000	8.934738
2346.000000	8.590347
2345.000000	8.566862
2344.000000	8.371823
2343.000000	8.373102
2342.000000	8.289889
2341.000000	8.490383
2340.000000	8.786684
2339.000000	8.824431
2338.000000	8.962423
2337.000000	8.940027
2336.000000	9.157849
2335.000000	9.215685
2334.000000	9.242766
2333.000000	9.184814
2332.000000	9.376421
2331.000000	9.282925
2330.000000	8.608828
2329.000000	9.048216
2328.000000	8.867969
2327.000000	8.772921
2326.000000	8.818776
2325.000000	8.916716
2324.000000	9.120074
2323.000000	8.811703
2322.000000	8.758156
2321.000000	8.673755
2320.000000	8.815062
2319.000000	8.796197
2318.000000	8.653289
2317.000000	8.811686
2316.000000	8.466852
2315.000000	8.505411
2314.000000	8.589162
2313.000000	8.519560
2312.000000	8.450467
2311.000000	8.446102
2310.000000	8.543940
2309.000000	8.647149
2308.000000	8.633363
2307.000000	8.602245
2306.000000	8.577238
2305.000000	8.448896
2304.000000	8.359308
2303.000000	8.477807
2302.000000	8.306774
2301.000000	8.286547
2300.000000	8.287842
2299.000000	8.073619
2298.000000	8.104984
2297.000000	8.026334
2296.000000	8.079710
2295.000000	8.009804
2294.000000	8.020471
2293.000000	7.868136
2292.000000	7.869713
2291.000000	8.014687
2290.000000	8.051241
2289.000000	8.041541
2288.000000	7.943434
2287.000000	7.828808
2286.000000	7.852775
2285.000000	7.824034
2284.000000	7.733883
2283.000000	7.819857
2282.000000	7.841875
2281.000000	7.823750
2280.000000	7.717639
2279.000000	7.644554
2278.000000	7.663800
2277.000000	7.839887
2276.000000	7.903813
2275.000000	7.900039
2274.000000	7.860621
2273.000000	7.824932
2272.000000	7.854348
2271.000000	7.797524
2270.000000	7.915006
2269.000000	7.944407
2268.000000	7.823366
2267.000000	7.897198
2266.000000	8.086158
2265.000000	8.043132
2264.000000	8.176979
2263.000000	8.339656
2262.000000	8.280233
2261.000000	8.142755
2260.000000	8.313704
2259.000000	8.410818
2258.000000	8.445489
2257.000000	8.420110
2256.000000	8.448617
2255.000000	8.550162
2254.000000	8.686357
2253.000000	8.715571
2252.000000	8.720534
2251.000000	8.879714
2250.000000	8.919230
2249.000000	8.922235
2248.000000	9.021018
2247.000000	9.134791
2246.000000	9.238410
2245.000000	9.386665
2244.000000	9.467020
2243.000000	9.540314
2242.000000	9.588502
2241.000000	9.569828
2240.000000	9.695111
2239.000000	9.772190
2238.000000	9.717634
2237.000000	9.626553
2236.000000	9.682854
2235.000000	9.804005
2234.000000	9.805022
2233.000000	9.737662
2232.000000	9.831752
2231.000000	10.009326
2230.000000	9.985935
2229.000000	9.946735
2228.000000	9.952695
2227.000000	10.005792
2226.000000	9.979846
2225.000000	9.937608
2224.000000	9.911717
2223.000000	9.852006
2222.000000	9.821305
2221.000000	9.694660
2220.000000	9.757466
2219.000000	9.904328
2218.000000	9.887865
2217.000000	9.799490
2216.000000	9.819996
2215.000000	9.829650
2214.000000	9.807572
2213.000000	9.838029
2212.000000	9.774708
2211.000000	9.658510
2210.000000	9.714499
2209.000000	9.638778
2208.000000	9.532483
2207.000000	9.639285
2206.000000	9.630056
2205.000000	9.631458
2204.000000	9.511298
2203.000000	9.446752
2202.000000	9.322568
2201.000000	9.304054
2200.000000	9.414764
2199.000000	9.292968
2198.000000	9.199293
2197.000000	9.314996
2196.000000	9.211292
2195.000000	9.135323
2194.000000	9.147992
2193.000000	9.088561
2192.000000	9.140336
2191.000000	9.172563
2190.000000	9.173890
2189.000000	9.151065
2188.000000	8.963760
2187.000000	8.996714
2186.000000	9.051253
2185.000000	9.137541
2184.000000	9.025898
2183.000000	8.954539
2182.000000	8.891973
2181.000000	8.857437
2180.000000	8.922467
2179.000000	8.836151
2178.000000	8.754012
2177.000000	8.747380
2176.000000	8.940027
2175.000000	8.960540
2174.000000	8.979197
2173.000000	8.986310
2172.000000	8.951427
2171.000000	9.008089
2170.000000	9.038541
2169.000000	9.076983
2168.000000	9.171830
2167.000000	9.076295
2166.000000	9.085733
2165.000000	9.133665
2164.000000	9.011556
2163.000000	8.937410
2162.000000	9.060155
2161.000000	9.280471
2160.000000	9.344876
2159.000000	9.266001
2158.000000	9.305332
2157.000000	9.468531
2156.000000	9.560784
2155.000000	9.575084
2154.000000	9.639753
2153.000000	9.648119
2152.000000	9.563434
2151.000000	9.557656
2150.000000	9.827004
2149.000000	9.763867
2148.000000	9.864409
2147.000000	9.848683
2146.000000	9.768214
2145.000000	10.144331
2144.000000	10.028211
2143.000000	10.047436
2142.000000	10.047831
2141.000000	10.122450
2140.000000	10.024347
2139.000000	10.163646
2138.000000	10.208782
2137.000000	10.273623
2136.000000	10.253988
2135.000000	10.237362
2134.000000	10.417892
2133.000000	10.290160
2132.000000	10.430260
2131.000000	10.513451
2130.000000	10.567091
2129.000000	10.403157
2128.000000	10.580330
2127.000000	10.431915
2126.000000	10.419877
2125.000000	10.399035
2124.000000	10.545129
2123.000000	10.434719
2122.000000	10.444749
2121.000000	10.537605
2120.000000	10.653091
2119.000000	10.661113
2118.000000	10.638212
2117.000000	10.677334
2116.000000	10.740830
2115.000000	10.691927
2114.000000	10.693206
2113.000000	10.700150
2112.000000	10.682185
2111.000000	10.496178
2110.000000	10.512244
2109.000000	10.684457
2108.000000	10.583343
2107.000000	10.660902
2106.000000	10.710039
2105.000000	10.708506
2104.000000	10.680596
2103.000000	10.608120
2102.000000	10.574020
2101.000000	10.727235
2100.000000	10.760430
2099.000000	10.694373
2098.000000	10.702786
2097.000000	10.737075
2096.000000	10.666125
2095.000000	10.603549
2094.000000	10.666906
2093.000000	10.589547
2092.000000	10.606071
2091.000000	10.673985
2090.000000	10.678550
2089.000000	10.654682
2088.000000	10.591621
2087.000000	10.610717
2086.000000	10.641467
2085.000000	10.556864
2084.000000	10.511230
2083.000000	10.451043
2082.000000	10.429504
2081.000000	10.437090
2080.000000	10.462637
2079.000000	10.402907
2078.000000	10.307370
2077.000000	10.296679
2076.000000	10.231754
2075.000000	10.150192
2074.000000	10.226274
2073.000000	10.202322
2072.000000	10.106728
2071.000000	10.095859
2070.000000	9.975184
2069.000000	9.989403
2068.000000	9.965278
2067.000000	9.902229
2066.000000	9.786355
2065.000000	9.665995
2064.000000	9.630300
2063.000000	9.651831
2062.000000	9.646674
2061.000000	9.538835
2060.000000	9.459669
2059.000000	9.466880
2058.000000	9.418976
2057.000000	9.463581
2056.000000	9.372382
2055.000000	9.252442
2054.000000	9.190068
2053.000000	9.080209
2052.000000	9.003853
2051.000000	8.958522
2050.000000	8.936553
2049.000000	8.928418
2048.000000	8.915583
2047.000000	8.899366
2046.000000	8.816409
2045.000000	8.756449
2044.000000	8.842167
2043.000000	8.874626
2042.000000	8.815637
2041.000000	8.819457
2040.000000	8.815426
2039.000000	8.811097
2038.000000	8.834792
2037.000000	8.855884
2036.000000	8.900697
2035.000000	8.936271
2034.000000	8.971596
2033.000000	8.997587
2032.000000	9.027709
2031.000000	9.031547
2030.000000	9.092771
2029.000000	9.171327
2028.000000	9.199550
2027.000000	9.196785
2026.000000	9.286512
2025.000000	9.342570
2024.000000	9.327592
2023.000000	9.356503
2022.000000	9.406350
2021.000000	9.412129
2020.000000	9.402116
2019.000000	9.406221
2018.000000	9.424357
2017.000000	9.409734
2016.000000	9.427540
2015.000000	9.471385
2014.000000	9.481066
2013.000000	9.440396
2012.000000	9.429225
2011.000000	9.409119
2010.000000	9.368077
2009.000000	9.339689
2008.000000	9.325136
2007.000000	9.309276
2006.000000	9.251580
2005.000000	9.230536
2004.000000	9.191572
2003.000000	9.152686
2002.000000	9.146844
2001.000000	9.107825
2000.000000	9.027674
1999.000000	9.021393
1998.000000	9.045170
1997.000000	8.988817
1996.000000	8.942306
1995.000000	8.914807
1994.000000	8.858154
1993.000000	8.821099
1992.000000	8.797919
1991.000000	8.750527
1990.000000	8.725863
1989.000000	8.667075
1988.000000	8.622833
1987.000000	8.613759
1986.000000	8.544751
1985.000000	8.499387
1984.000000	8.500280
1983.000000	8.443475
1982.000000	8.434003
1981.000000	8.390650
1980.000000	8.328097
1979.000000	8.277375
1978.000000	8.272831
1977.000000	8.231111
1976.000000	8.202720
1975.000000	8.131106
1974.000000	8.066086
1973.000000	8.071186
1972.000000	8.067814
1971.000000	8.063796
1970.000000	8.028007
1969.000000	7.975212
1968.000000	7.922925
1967.000000	7.901528
1966.000000	7.920064
1965.000000	7.891823
1964.000000	7.829191
1963.000000	7.774879
1962.000000	7.757430
1961.000000	7.670668
1960.000000	7.679837
1959.000000	7.668995
1958.000000	7.649501
1957.000000	7.604052
1956.000000	7.582451
1955.000000	7.582349
1954.000000	7.600449
1953.000000	7.554324
1952.000000	7.543886
1951.000000	7.505279
1950.000000	7.477720
1949.000000	7.443662
1948.000000	7.478663
1947.000000	7.442812
1946.000000	7.461423
1945.000000	7.465704
1944.000000	7.449505
1943.000000	7.489369
1942.000000	7.430103
1941.000000	7.425704
1940.000000	7.482581
1939.000000	7.550104
1938.000000	7.565232
1937.000000	7.629696
1936.000000	7.636329
1935.000000	7.668154
1934.000000	7.658224
1933.000000	7.782248
1932.000000	7.709550
1931.000000	7.738192
1930.000000	7.797431
1929.000000	7.888301
1928.000000	7.952626
1927.000000	8.011039
1926.000000	8.123547
1925.000000	8.216002
1924.000000	8.274179
1923.000000	8.360541
1922.000000	8.408520
1921.000000	8.571956
1920.000000	8.633047
1919.000000	8.676676
1918.000000	8.806369
1917.000000	8.913258
1916.000000	8.907088
1915.000000	9.130395
1914.000000	9.230153
1913.000000	9.411955
1912.000000	9.455501
1911.000000	9.563179
1910.000000	9.648209
1909.000000	9.885603
1908.000000	9.934310
1907.000000	10.100856
1906.000000	10.147664
1905.000000	10.379312
1904.000000	10.477232
1903.000000	10.702884
1902.000000	10.830329
1901.000000	11.027481
1900.000000	11.164092
1899.000000	11.319559
1898.000000	11.500199
1897.000000	11.623544
1896.000000	11.814391
1895.000000	11.913897
1894.000000	12.073974
1893.000000	12.249450
1892.000000	12.348953
1891.000000	12.459066
1890.000000	12.702687
1889.000000	12.833688
1888.000000	12.946529
1887.000000	13.101805
1886.000000	13.261086
1885.000000	13.341031
1884.000000	13.457626
1883.000000	13.658818
1882.000000	13.711897
1881.000000	13.836747
1880.000000	13.917633
1879.000000	14.002335
1878.000000	14.106926
1877.000000	14.222294
1876.000000	14.248143
1875.000000	14.340272
1874.000000	14.403854
1873.000000	14.484683
1872.000000	14.532639
1871.000000	14.602988
1870.000000	14.670331
1869.000000	14.684611
1868.000000	14.756245
1867.000000	14.743251
1866.000000	14.776430
1865.000000	14.795352
1864.000000	14.790904
1863.000000	14.817972
1862.000000	14.813928
1861.000000	14.819650
1860.000000	14.859908
1859.000000	14.883291
1858.000000	14.841799
1857.000000	14.877975
1856.000000	14.922897
1855.000000	14.903938
1854.000000	14.919453
1853.000000	14.927409
1852.000000	14.898012
1851.000000	14.912110
1850.000000	14.925207
1849.000000	14.906619
1848.000000	14.879335
1847.000000	14.927859
1846.000000	14.935346
1845.000000	14.895123
1844.000000	14.866100
1843.000000	14.866427
1842.000000	14.868105
1841.000000	14.861746
1840.000000	14.839243
1839.000000	14.854749
1838.000000	14.826692
1837.000000	14.787045
1836.000000	14.755288
1835.000000	14.745208
1834.000000	14.702482
1833.000000	14.671225
1832.000000	14.650031
1831.000000	14.637026
1830.000000	14.632646
1829.000000	14.601360
1828.000000	14.578587
1827.000000	14.579520
1826.000000	14.549547
1825.000000	14.523369
1824.000000	14.504845
1823.000000	14.496716
1822.000000	14.471428
1821.000000	14.446867
1820.000000	14.440469
1819.000000	14.414844
1818.000000	14.391420
1817.000000	14.373383
1816.000000	14.347964
1815.000000	14.334246
1814.000000	14.336073
1813.000000	14.314546
1812.000000	14.300682
1811.000000	14.304616
1810.000000	14.303530
1809.000000	14.288880
1808.000000	14.257528
1807.000000	14.249048
1806.000000	14.238830
1805.000000	14.207709
1804.000000	14.181941
1803.000000	14.167257
1802.000000	14.174807
1801.000000	14.179742
1800.000000	14.163286
1799.000000	14.139334
1798.000000	14.128261
1797.000000	14.140891
1796.000000	14.131095
1795.000000	14.110808
1794.000000	14.102122
1793.000000	14.088442
1792.000000	14.085292
1791.000000	14.066767
1790.000000	14.061535
1789.000000	14.068712
1788.000000	14.071206
1787.000000	14.063601
1786.000000	14.049879
1785.000000	14.045716
1784.000000	14.043406
1783.000000	14.021314
1782.000000	14.005207
1781.000000	14.011419
1780.000000	14.007172
1779.000000	14.005475
1778.000000	13.980681
1777.000000	13.937850
1776.000000	13.921618
1775.000000	13.905608
1774.000000	13.893954
1773.000000	13.860648
1772.000000	13.836267
1771.000000	13.817768
1770.000000	13.802120
1769.000000	13.775443
1768.000000	13.743551
1767.000000	13.738740
1766.000000	13.727373
1765.000000	13.692220
1764.000000	13.657996
1763.000000	13.632915
1762.000000	13.623723
1761.000000	13.601948
1760.000000	13.557025
1759.000000	13.534677
1758.000000	13.537470
1757.000000	13.492731
1756.000000	13.491358
1755.000000	13.469831
1754.000000	13.443802
1753.000000	13.426461
1752.000000	13.408976
1751.000000	13.399216
1750.000000	13.383416
1749.000000	13.377634
1748.000000	13.333408
1747.000000	13.300511
1746.000000	13.239854
1745.000000	13.224734
1744.000000	13.194597
1743.000000	13.197074
1742.000000	13.198055
1741.000000	13.161221
1740.000000	13.136957
1739.000000	13.133856
1738.000000	13.104932
1737.000000	13.086786
1736.000000	13.098153
1735.000000	13.110325
1734.000000	13.066705
1733.000000	13.058689
1732.000000	13.025628
1731.000000	13.062537
1730.000000	13.049544
1729.000000	13.065876
1728.000000	13.090445
1727.000000	13.092918
1726.000000	13.113919
1725.000000	13.107339
1724.000000	13.140530
1723.000000	13.166466
1722.000000	13.184145
1721.000000	13.218213
1720.000000	13.250674
1719.000000	13.274717
1718.000000	13.291678
1717.000000	13.309085
1716.000000	13.338931
1715.000000	13.337652
1714.000000	13.398269
1713.000000	13.405122
1712.000000	13.433015
1711.000000	13.435824
1710.000000	13.442067
1709.000000	13.447358
1708.000000	13.476705
1707.000000	13.491229
1706.000000	13.496222
1705.000000	13.490458
1704.000000	13.527996
1703.000000	13.525730
1702.000000	13.499497
1701.000000	13.509373
1700.000000	13.503152
1699.000000	13.478714
1698.000000	13.526637
1697.000000	13.533789
1696.000000	13.547916
1695.000000	13.555897
1694.000000	13.546310
1693.000000	13.576027
1692.000000	13.558435
1691.000000	13.590563
1690.000000	13.625066
1689.000000	13.653883
1688.000000	13.697035
1687.000000	13.688593
1686.000000	13.749013
1685.000000	13.790114
1684.000000	13.805136
1683.000000	13.866518
1682.000000	13.913029
1681.000000	13.986007
1680.000000	14.020927
1679.000000	14.075657
1678.000000	14.132499
1677.000000	14.162872
1676.000000	14.221301
1675.000000	14.286223
1674.000000	14.304356
1673.000000	14.358365
1672.000000	14.415154
1671.000000	14.475357
1670.000000	14.522326
1669.000000	14.519583
1668.000000	14.553292
1667.000000	14.609071
1666.000000	14.618125
1665.000000	14.629077
1664.000000	14.664559
1663.000000	14.670735
1662.000000	14.701965
1661.000000	14.733182
1660.000000	14.734645
1659.000000	14.793027
1658.000000	14.793111
1657.000000	14.800105
1656.000000	14.813144
1655.000000	14.795055
1654.000000	14.817046
1653.000000	14.821685
1652.000000	14.843787
1651.000000	14.838889
1650.000000	14.816994
1649.000000	14.805562
1648.000000	14.803845
1647.000000	14.778833
1646.000000	14.764317
1645.000000	14.772100
1644.000000	14.769227
1643.000000	14.759088
1642.000000	14.753870
1641.000000	14.736955
1640.000000	14.712055
1639.000000	14.710429
1638.000000	14.702112
1637.000000	14.677910
1636.000000	14.670643
1635.000000	14.653323
1634.000000	14.634548
1633.000000	14.609911
1632.000000	14.593952
1631.000000	14.568220
1630.000000	14.559095
1629.000000	14.550567
1628.000000	14.537688
1627.000000	14.512167
1626.000000	14.485618
1625.000000	14.462405
1624.000000	14.457076
1623.000000	14.451728
1622.000000	14.425463
1621.000000	14.400348
1620.000000	14.391025
1619.000000	14.362916
1618.000000	14.340065
1617.000000	14.323319
1616.000000	14.299705
1615.000000	14.284452
1614.000000	14.269620
1613.000000	14.246822
1612.000000	14.222794
1611.000000	14.206180
1610.000000	14.179370
1609.000000	14.149455
1608.000000	14.125372
1607.000000	14.102275
1606.000000	14.074236
1605.000000	14.049605
1604.000000	14.027850
1603.000000	14.007320
1602.000000	13.989089
1601.000000	13.969844
1600.000000	13.947124
1599.000000	13.919874
1598.000000	13.908977
1597.000000	13.893638
1596.000000	13.871044
1595.000000	13.850237
1594.000000	13.836866
1593.000000	13.827677
1592.000000	13.798854
1591.000000	13.777883
1590.000000	13.754177
1589.000000	13.725084
1588.000000	13.705850
1587.000000	13.694796
1586.000000	13.686330
1585.000000	13.681183
1584.000000	13.660187
1583.000000	13.644190
1582.000000	13.629207
1581.000000	13.601960
1580.000000	13.580401
1579.000000	13.561973
1578.000000	13.545898
1577.000000	13.528575
1576.000000	13.516780
1575.000000	13.503517
1574.000000	13.481653
1573.000000	13.471251
1572.000000	13.457737
1571.000000	13.429926
1570.000000	13.408043
1569.000000	13.401220
1568.000000	13.387332
1567.000000	13.370621
1566.000000	13.353136
1565.000000	13.347788
1564.000000	13.333848
1563.000000	13.324661
1562.000000	13.313563
1561.000000	13.295338
1560.000000	13.273724
1559.000000	13.261308
1558.000000	13.246584
1557.000000	13.233832
1556.000000	13.233025
1555.000000	13.238408
1554.000000	13.211577
1553.000000	13.191217
1552.000000	13.186165
1551.000000	13.165793
1550.000000	13.142416
1549.000000	13.124411
1548.000000	13.122589
1547.000000	13.102587
1546.000000	13.048966
1545.000000	13.019881
1544.000000	13.000646
1543.000000	12.976744
1542.000000	12.946035
1541.000000	12.917855
1540.000000	12.896540
1539.000000	12.847061
1538.000000	12.813332
1537.000000	12.775830
1536.000000	12.751019
1535.000000	12.717275
1534.000000	12.695460
1533.000000	12.671610
1532.000000	12.617469
1531.000000	12.566393
1530.000000	12.553983
1529.000000	12.535213
1528.000000	12.513253
1527.000000	12.522392
1526.000000	12.564213
1525.000000	12.608025
1524.000000	12.596575
1523.000000	12.536903
1522.000000	12.472329
1521.000000	12.418331
1520.000000	12.386731
1519.000000	12.380687
1518.000000	12.366160
1517.000000	12.334836
1516.000000	12.295826
1515.000000	12.288928
1514.000000	12.296064
1513.000000	12.285281
1512.000000	12.256430
1511.000000	12.227759
1510.000000	12.213033
1509.000000	12.209173
1508.000000	12.207297
1507.000000	12.194688
1506.000000	12.166525
1505.000000	12.151422
1504.000000	12.142588
1503.000000	12.134925
1502.000000	12.133128
1501.000000	12.109158
1500.000000	12.093576
1499.000000	12.111067
1498.000000	12.110177
1497.000000	12.108406
1496.000000	12.112921
1495.000000	12.117558
1494.000000	12.109203
1493.000000	12.104897
1492.000000	12.125591
1491.000000	12.135629
1490.000000	12.141062
1489.000000	12.140754
1488.000000	12.146531
1487.000000	12.171919
1486.000000	12.171631
1485.000000	12.171978
1484.000000	12.195174
1483.000000	12.217085
1482.000000	12.233977
1481.000000	12.233956
1480.000000	12.254981
1479.000000	12.267528
1478.000000	12.269635
1477.000000	12.286127
1476.000000	12.293664
1475.000000	12.314465
1474.000000	12.334916
1473.000000	12.351729
1472.000000	12.342639
1471.000000	12.336337
1470.000000	12.345808
1469.000000	12.385224
1468.000000	12.402762
1467.000000	12.412445
1466.000000	12.396101
1465.000000	12.397439
1464.000000	12.403905
1463.000000	12.450883
1462.000000	12.454846
1461.000000	12.433549
1460.000000	12.439789
1459.000000	12.461375
1458.000000	12.481776
1457.000000	12.507918
1456.000000	12.496359
1455.000000	12.517983
1454.000000	12.543487
1453.000000	12.575882
1452.000000	12.567717
1451.000000	12.561130
1450.000000	12.563070
1449.000000	12.559576
1448.000000	12.604225
1447.000000	12.626721
1446.000000	12.638653
1445.000000	12.651524
1444.000000	12.635273
1443.000000	12.662515
1442.000000	12.676198
1441.000000	12.700908
1440.000000	12.735664
1439.000000	12.765204
1438.000000	12.780929
1437.000000	12.786636
1436.000000	12.803231
1435.000000	12.831221
1434.000000	12.860761
1433.000000	12.879242
1432.000000	12.910449
1431.000000	12.922626
1430.000000	12.947368
1429.000000	12.981328
1428.000000	13.016979
1427.000000	13.058048
1426.000000	13.094790
1425.000000	13.133070
1424.000000	13.177963
1423.000000	13.218753
1422.000000	13.260874
1421.000000	13.298414
1420.000000	13.328425
1419.000000	13.375680
1418.000000	13.431492
1417.000000	13.471750
1416.000000	13.511190
1415.000000	13.556329
1414.000000	13.612437
1413.000000	13.668757
1412.000000	13.721711
1411.000000	13.755547
1410.000000	13.815950
1409.000000	13.886973
1408.000000	13.927372
1407.000000	13.951032
1406.000000	14.007476
1405.000000	14.065301
1404.000000	14.124964
1403.000000	14.172140
1402.000000	14.224987
1401.000000	14.267900
1400.000000	14.317237
1399.000000	14.371525
1398.000000	14.402142
1397.000000	14.446612
1396.000000	14.495674
1395.000000	14.533051
1394.000000	14.570163
1393.000000	14.589587
1392.000000	14.617999
1391.000000	14.657727
1390.000000	14.689784
1389.000000	14.720217
1388.000000	14.744112
1387.000000	14.768996
1386.000000	14.796620
1385.000000	14.845263
1384.000000	14.888272
1383.000000	14.875898
1382.000000	14.892694
1381.000000	14.936452
1380.000000	14.947443
1379.000000	14.954975
1378.000000	14.964324
1377.000000	14.966922
1376.000000	14.965174
1375.000000	14.987106
1374.000000	15.017163
1373.000000	15.015594
1372.000000	15.007374
1371.000000	15.006105
1370.000000	15.005392
1369.000000	15.008194
1368.000000	15.020959
1367.000000	15.033100
1366.000000	15.036337
1365.000000	15.042820
1364.000000	15.054372
1363.000000	15.080284
1362.000000	15.113749
1361.000000	15.124440
1360.000000	15.112776
1359.000000	15.108468
1358.000000	15.113690
1357.000000	15.116318
1356.000000	15.129122
1355.000000	15.126432
1354.000000	15.133822
1353.000000	15.151623
1352.000000	15.159448
1351.000000	15.155579
1350.000000	15.158377
1349.000000	15.156144
1348.000000	15.166997
1347.000000	15.179295
1346.000000	15.182422
1345.000000	15.174614
1344.000000	15.185389
1343.000000	15.204803
1342.000000	15.210661
1341.000000	15.206199
1340.000000	15.197546
1339.000000	15.193246
1338.000000	15.227990
1337.000000	15.248148
1336.000000	15.243733
1335.000000	15.233023
1334.000000	15.230026
1333.000000	15.228056
1332.000000	15.229117
1331.000000	15.227582
1330.000000	15.246068
1329.000000	15.254768
1328.000000	15.248452
1327.000000	15.243431
1326.000000	15.257644
1325.000000	15.263996
1324.000000	15.245456
1323.000000	15.264202
1322.000000	15.264288
1321.000000	15.247748
1320.000000	15.233807
1319.000000	15.244626
1318.000000	15.230824
1317.000000	15.232569
1316.000000	15.233483
1315.000000	15.237198
1314.000000	15.222787
1313.000000	15.203770
1312.000000	15.196651
1311.000000	15.199378
1310.000000	15.212104
1309.000000	15.208192
1308.000000	15.184084
1307.000000	15.187704
1306.000000	15.178516
1305.000000	15.159736
1304.000000	15.146739
1303.000000	15.140738
1302.000000	15.150361
1301.000000	15.159695
1300.000000	15.153461
1299.000000	15.129565
1298.000000	15.118451
1297.000000	15.110018
1296.000000	15.106184
1295.000000	15.093069
1294.000000	15.091544
1293.000000	15.079126
1292.000000	15.082473
1291.000000	15.080525
1290.000000	15.056232
1289.000000	15.048690
1288.000000	15.032536
1287.000000	15.027857
1286.000000	15.014488
1285.000000	15.007639
1284.000000	15.014178
1283.000000	15.010351
1282.000000	15.021580
1281.000000	15.008775
1280.000000	15.006336
1279.000000	15.006762
1278.000000	15.000992
1277.000000	14.963051
1276.000000	14.952447
1275.000000	14.936673
1274.000000	14.941062
1273.000000	14.944622
1272.000000	14.931338
1271.000000	14.927469
1270.000000	14.927109
1269.000000	14.971545
1268.000000	14.968863
1267.000000	14.955944
1266.000000	14.957375
1265.000000	14.923067
1264.000000	14.924405
1263.000000	14.912690
1262.000000	14.916793
1261.000000	14.939585
1260.000000	14.929500
1259.000000	14.923077
1258.000000	14.894790
1257.000000	14.874019
1256.000000	14.911071
1255.000000	14.912944
1254.000000	14.896892
1253.000000	14.877919
1252.000000	14.861409
1251.000000	14.865238
1250.000000	14.854510
1249.000000	14.832651
1248.000000	14.830104
1247.000000	14.831065
1246.000000	14.821503
1245.000000	14.818541
1244.000000	14.821208
1243.000000	14.809557
1242.000000	14.748361
1241.000000	14.740476
1240.000000	14.749441
1239.000000	14.755340
1238.000000	14.709639
1237.000000	14.716573
1236.000000	14.709384
1235.000000	14.714723
1234.000000	14.681566
1233.000000	14.661610
1232.000000	14.671524
1231.000000	14.663057
1230.000000	14.633622
1229.000000	14.635090
1228.000000	14.631077
1227.000000	14.626418
1226.000000	14.636210
1225.000000	14.632204
1224.000000	14.625376
1223.000000	14.616017
1222.000000	14.626677
1221.000000	14.600349
1220.000000	14.579600
1219.000000	14.575297
1218.000000	14.561514
1217.000000	14.539946
1216.000000	14.525759
1215.000000	14.511611
1214.000000	14.471504
1213.000000	14.471890
1212.000000	14.466849
1211.000000	14.460071
1210.000000	14.442267
1209.000000	14.455060
1208.000000	14.446531
1207.000000	14.407899
1206.000000	14.374468
1205.000000	14.386370
1204.000000	14.373203
1203.000000	14.345074
1202.000000	14.341889
1201.000000	14.334536
1200.000000	14.300396
1199.000000	14.273671
1198.000000	14.274996
1197.000000	14.260463
1196.000000	14.245798
1195.000000	14.226371
1194.000000	14.208641
1193.000000	14.200626
1192.000000	14.182675
1191.000000	14.163050
1190.000000	14.133264
1189.000000	14.086816
1188.000000	14.084935
1187.000000	14.090017
1186.000000	14.072061
1185.000000	14.071951
1184.000000	14.071154
1183.000000	14.063806
1182.000000	14.078449
1181.000000	14.096599
1180.000000	14.089480
1179.000000	14.100100
1178.000000	14.116595
1177.000000	14.124989
1176.000000	14.132567
1175.000000	14.145355
1174.000000	14.155002
1173.000000	14.164269
1172.000000	14.176408
1171.000000	14.185151
1170.000000	14.191236
1169.000000	14.195886
1168.000000	14.206738
1167.000000	14.222029
1166.000000	14.241780
1165.000000	14.247555
1164.000000	14.263215
1163.000000	14.280640
1162.000000	14.288172
1161.000000	14.302690
1160.000000	14.321129
1159.000000	14.307488
1158.000000	14.295573
1157.000000	14.306348
1156.000000	14.316677
1155.000000	14.340980
1154.000000	14.367284
1153.000000	14.374764
1152.000000	14.384066
1151.000000	14.392864
1150.000000	14.398055
1149.000000	14.402853
1148.000000	14.409998
1147.000000	14.424030
1146.000000	14.440063
1145.000000	14.448241
1144.000000	14.448440
1143.000000	14.456661
1142.000000	14.466354
1141.000000	14.468767
1140.000000	14.469321
1139.000000	14.446742
1138.000000	14.428466
1137.000000	14.443226
1136.000000	14.472258
1135.000000	14.483327
1134.000000	14.486358
1133.000000	14.493680
1132.000000	14.495761
1131.000000	14.497069
1130.000000	14.509422
1129.000000	14.509092
1128.000000	14.512300
1127.000000	14.521537
1126.000000	14.493471
1125.000000	14.473754
1124.000000	14.475385
1123.000000	14.486308
1122.000000	14.488168
1121.000000	14.488254
1120.000000	14.489446
1119.000000	14.489743
1118.000000	14.486848
1117.000000	14.486234
1116.000000	14.486354
1115.000000	14.474961
1114.000000	14.468731
1113.000000	14.465564
1112.000000	14.459212
1111.000000	14.466666
1110.000000	14.471935
1109.000000	14.455012
1108.000000	14.455591
1107.000000	14.454803
1106.000000	14.445890
1105.000000	14.408419
1104.000000	14.400424
1103.000000	14.400073
1102.000000	14.393611
1101.000000	14.404127
1100.000000	14.396039
1099.000000	14.393598
1098.000000	14.403591
1097.000000	14.418703
1096.000000	14.372828
1095.000000	14.356534
1094.000000	14.363655
1093.000000	14.377644
1092.000000	14.374275
1091.000000	14.375004
1090.000000	14.380651
1089.000000	14.377891
1088.000000	14.322616
1087.000000	14.318621
1086.000000	14.331047
1085.000000	14.339949
1084.000000	14.339290
1083.000000	14.323041
1082.000000	14.296133
1081.000000	14.284889
1080.000000	14.291619
1079.000000	14.288716
1078.000000	14.294519
1077.000000	14.298998
1076.000000	14.304883
1075.000000	14.259368
1074.000000	14.247692
1073.000000	14.249718
1072.000000	14.249057
1071.000000	14.246850
1070.000000	14.256560
1069.000000	14.254585
1068.000000	14.248929
1067.000000	14.213361
1066.000000	14.201592
1065.000000	14.227774
1064.000000	14.220510
1063.000000	14.206739
1062.000000	14.217414
1061.000000	14.213701
1060.000000	14.171328
1059.000000	14.172420
1058.000000	14.167853
1057.000000	14.173025
1056.000000	14.165859
1055.000000	14.177778
1054.000000	14.144602
1053.000000	14.140925
1052.000000	14.130033
1051.000000	14.124107
1050.000000	14.136830
1049.000000	14.134481
1048.000000	14.082134
1047.000000	14.111083
1046.000000	14.136236
1045.000000	14.123375
1044.000000	14.088790
1043.000000	14.080838
1042.000000	14.084197
1041.000000	14.091968
1040.000000	14.064896
1039.000000	14.048553
1038.000000	14.063703
1037.000000	14.060492
1036.000000	14.078808
1035.000000	14.052115
1034.000000	14.042011
1033.000000	14.047221
1032.000000	14.052724
1031.000000	14.013723
1030.000000	14.022267
1029.000000	14.037902
1028.000000	14.018766
1027.000000	13.995958
1026.000000	14.004595
1025.000000	14.014390
1024.000000	13.998132
1023.000000	13.991237
1022.000000	13.993425
1021.000000	14.012866
1020.000000	13.998052
1019.000000	13.996982
1018.000000	13.995501
1017.000000	13.966797
1016.000000	13.972161
1015.000000	13.975608
1014.000000	13.974075
1013.000000	13.971023
1012.000000	13.969643
1011.000000	13.944854
1010.000000	13.944996
1009.000000	13.943489
1008.000000	13.963222
1007.000000	13.945842
1006.000000	13.938239
1005.000000	13.935768
1004.000000	13.935005
1003.000000	13.937025
1002.000000	13.926859
1001.000000	13.940370
1000.000000	13.942940
999.000000	13.928365
998.000000	13.939689
997.000000	13.918189
996.000000	13.912308
995.000000	13.923256
994.000000	13.921994
993.000000	13.917270
992.000000	13.893521
991.000000	13.898541
990.000000	13.904832
989.000000	13.904413
988.000000	13.922160
987.000000	13.923721
986.000000	13.926712
985.000000	13.947421
984.000000	13.950045
983.000000	13.960948
982.000000	13.959072
981.000000	13.960209
980.000000	13.963120
979.000000	13.958695
978.000000	13.952670
977.000000	13.954540
976.000000	13.947475
975.000000	13.945794
974.000000	13.958217
973.000000	13.946767
972.000000	13.943258
971.000000	13.942918
970.000000	13.936197
969.000000	13.935065
968.000000	13.929497
967.000000	13.918057
966.000000	13.912762
965.000000	13.914253
964.000000	13.926777
963.000000	13.920895
962.000000	13.909343
961.000000	13.903458
960.000000	13.888508
959.000000	13.884235
958.000000	13.880799
957.000000	13.880594
956.000000	13.885186
955.000000	13.878287
954.000000	13.878104
953.000000	13.869599
952.000000	13.855880
951.000000	13.847690
950.000000	13.847739
949.000000	13.850195
948.000000	13.839981
947.000000	13.836380
946.000000	13.835599
945.000000	13.823793
944.000000	13.824759
943.000000	13.815238
942.000000	13.806461
941.000000	13.791871
940.000000	13.786551
939.000000	13.789428
938.000000	13.773908
937.000000	13.766446
936.000000	13.762401
935.000000	13.763161
934.000000	13.759048
933.000000	13.745667
932.000000	13.732834
931.000000	13.719902
930.000000	13.720757
929.000000	13.715117
928.000000	13.695441
927.000000	13.700422
926.000000	13.727359
925.000000	13.712226
924.000000	13.681950
923.000000	13.661909
922.000000	13.652561
921.000000	13.648444
920.000000	13.659696
919.000000	13.669426
918.000000	13.672719
917.000000	13.653903
916.000000	13.612816
915.000000	13.612898
914.000000	13.610008
913.000000	13.586271
912.000000	13.598948
911.000000	13.588847
910.000000	13.594269
909.000000	13.584132
908.000000	13.593505
907.000000	13.577887
906.000000	13.560173
905.000000	13.565323
904.000000	13.579692
903.000000	13.569701
902.000000	13.551110
901.000000	13.541123
900.000000	13.524407
899.000000	13.510651
898.000000	13.512178
897.000000	13.499189
896.000000	13.502060
895.000000	13.509735
894.000000	13.533615
893.000000	13.566215
892.000000	13.501086
891.000000	13.479965
890.000000	13.503366
889.000000	13.489655
888.000000	13.441748
887.000000	13.469569
886.000000	13.448624
885.000000	13.415000
884.000000	13.411966
883.000000	13.446066
882.000000	13.464737
881.000000	13.466776
880.000000	13.433038
879.000000	13.451424
878.000000	13.398826
877.000000	13.393047
876.000000	13.374858
875.000000	13.434211
874.000000	13.433606
873.000000	13.379757
872.000000	13.417195
871.000000	13.375452
870.000000	13.365866
869.000000	13.312014
868.000000	13.310488
867.000000	13.361885
866.000000	13.383613
865.000000	13.333973
864.000000	13.279092
863.000000	13.250936
862.000000	13.254961
861.000000	13.171527
860.000000	13.325052
859.000000	13.631248
858.000000	13.552749
857.000000	13.652424
856.000000	13.629132
855.000000	13.581983
854.000000	13.555599
853.000000	13.567209
852.000000	13.533551
851.000000	13.439084
850.000000	13.535890
849.000000	13.450172
848.000000	13.388815
847.000000	13.473591
846.000000	13.394734
845.000000	13.407411
844.000000	13.390944
843.000000	13.388648
842.000000	13.457217
841.000000	13.396194
840.000000	13.344036
839.000000	13.372127
838.000000	13.375485
837.000000	13.328323
836.000000	13.311159
835.000000	13.343254
834.000000	13.302620
833.000000	13.257837
832.000000	13.213821
831.000000	13.272806
830.000000	13.266961
829.000000	13.194242
828.000000	13.190596
827.000000	13.183571
826.000000	13.183411
825.000000	13.150361
824.000000	13.176674
823.000000	13.156855
822.000000	13.125441
821.000000	13.124000
820.000000	13.140215
819.000000	13.075115
818.000000	13.049003
817.000000	13.036688
816.000000	13.062028
815.000000	13.054531
814.000000	13.054659
813.000000	13.008021
812.000000	13.053087
811.000000	13.015783
810.000000	12.950380
809.000000	12.999734
808.000000	12.982739
807.000000	12.940509
806.000000	13.002347
805.000000	12.939513
804.000000	12.887398
803.000000	12.909486
802.000000	12.887445
801.000000	12.856865
800.000000	12.867047
799.000000	12.888914
798.000000	12.858540
797.000000	12.820364
796.000000	12.830254
795.000000	12.848181
794.000000	12.767446
793.000000	12.777617
792.000000	12.748346
791.000000	12.761128
790.000000	12.728788
789.000000	12.702914
788.000000	12.716041
787.000000	12.693826
786.000000	12.717239
785.000000	12.653511
784.000000	12.645263
783.000000	12.637538
782.000000	12.612680
781.000000	12.633155
780.000000	12.616037
779.000000	12.565888
778.000000	12.586921
777.000000	12.559730
776.000000	12.539370
775.000000	12.527093
774.000000	12.504455
773.000000	12.479221
772.000000	12.500969
771.000000	12.507224
770.000000	12.440741
769.000000	12.439083
768.000000	12.432006
767.000000	12.394017
766.000000	12.384449
765.000000	12.405416
764.000000	12.360666
763.000000	12.346355
762.000000	12.333421
761.000000	12.305939
760.000000	12.289695
759.000000	12.267779
758.000000	12.247714
757.000000	12.248193
756.000000	12.229900
755.000000	12.213280
754.000000	12.195534
753.000000	12.163159
752.000000	12.162602
751.000000	12.140741
750.000000	12.122539
749.000000	12.105089
748.000000	12.086949
747.000000	12.078241
746.000000	12.058207
745.000000	12.061135
744.000000	12.045315
743.000000	12.014458
742.000000	11.988472
741.000000	11.973301
740.000000	11.969530
739.000000	11.953778
738.000000	11.927207
737.000000	11.909830
736.000000	11.872602
735.000000	11.857869
734.000000	11.840316
733.000000	11.828018
732.000000	11.822314
731.000000	11.807750
730.000000	11.772210
729.000000	11.746577
728.000000	11.745335
727.000000	11.736039
726.000000	11.704253
725.000000	11.679892
724.000000	11.653725
723.000000	11.632043
722.000000	11.614980
721.000000	11.603334
720.000000	11.588721
719.000000	11.561948
718.000000	11.551909
717.000000	11.535560
716.000000	11.510531
715.000000	11.502460
714.000000	11.478151
713.000000	11.449685
712.000000	11.422175
711.000000	11.402485
710.000000	11.395194
709.000000	11.374574
708.000000	11.340836
707.000000	11.314515
706.000000	11.305418
705.000000	11.281369
704.000000	11.261818
703.000000	11.246362
702.000000	11.217462
701.000000	11.209659
700.000000	11.186106
699.000000	11.151160
698.000000	11.126807
697.000000	11.105277
696.000000	11.093058
695.000000	11.067269
694.000000	11.033908
693.000000	11.019453
692.000000	11.009370
691.000000	10.996139
690.000000	10.960324
689.000000	10.897841
688.000000	10.870243
687.000000	10.851872
686.000000	10.825006
685.000000	10.806940
684.000000	10.776950
683.000000	10.753905
682.000000	10.728442
681.000000	10.702089
680.000000	10.678373
679.000000	10.657265
678.000000	10.638617
677.000000	10.607414
676.000000	10.579438
675.000000	10.560670
674.000000	10.544013
673.000000	10.511282
672.000000	10.479103
671.000000	10.468538
670.000000	10.425750
669.000000	10.417147
668.000000	10.399288
667.000000	10.375765
666.000000	10.353196
665.000000	10.316364
664.000000	10.283716
663.000000	10.255460
662.000000	10.249737
661.000000	10.223303
660.000000	10.185246
659.000000	10.160079
658.000000	10.127889
657.000000	10.104683
656.000000	10.082736
655.000000	10.061994
654.000000	10.031136
653.000000	10.004193
652.000000	9.972388
651.000000	9.957498
650.000000	9.928071
649.000000	9.913504
648.000000	9.883180
647.000000	9.846475
646.000000	9.818067
645.000000	9.785105
644.000000	9.767527
643.000000	9.747718
642.000000	9.730494
641.000000	9.704321
640.000000	9.666225
639.000000	9.636135
638.000000	9.598926
637.000000	9.585858
636.000000	9.553816
635.000000	9.535091
634.000000	9.506458
633.000000	9.482869
632.000000	9.443775
631.000000	9.431657
630.000000	9.388851
629.000000	9.371342
628.000000	9.327013
627.000000	9.307459
626.000000	9.282919
625.000000	9.243460
624.000000	9.212651
623.000000	9.192101
622.000000	9.154075
621.000000	9.128376
620.000000	9.100436
619.000000	9.074778
618.000000	9.047268
617.000000	9.021841
616.000000	8.978952
615.000000	8.955864
614.000000	8.927213
613.000000	8.898933
612.000000	8.862226
611.000000	8.844681
610.000000	8.810783
609.000000	8.787455
608.000000	8.751386
607.000000	8.725834
606.000000	8.684354
605.000000	8.661182
604.000000	8.632528
603.000000	8.603808
602.000000	8.559826
601.000000	8.546450
600.000000	8.518251
599.000000	8.477690
598.000000	8.444792
597.000000	8.424091
596.000000	8.378078
595.000000	8.354101
594.000000	8.314944
593.000000	8.284772
592.000000	8.259031
591.000000	8.227566
590.000000	8.196320
589.000000	8.181271
588.000000	8.135406
587.000000	8.100324
586.000000	8.071079
585.000000	8.035420
584.000000	8.000637
583.000000	7.977046
582.000000	7.935468
581.000000	7.898665
580.000000	7.869391
579.000000	7.833784
578.000000	7.813998
577.000000	7.771865
576.000000	7.752992
575.000000	7.707493
574.000000	7.671991
573.000000	7.642585
572.000000	7.615527
571.000000	7.570084
570.000000	7.533486
569.000000	7.508455
568.000000	7.475191
567.000000	7.440990
566.000000	7.409269
565.000000	7.374773
564.000000	7.335242
563.000000	7.297064
562.000000	7.247524
561.000000	7.254047
560.000000	7.210464
559.000000	7.203157
558.000000	7.152241
557.000000	7.121277
556.000000	7.081584
555.000000	7.039109
554.000000	7.000883
553.000000	6.971788
552.000000	6.927861
551.000000	6.901840
550.000000	6.866738
549.000000	6.840276
548.000000	6.794375
547.000000	6.762324
546.000000	6.717818
545.000000	6.684334
544.000000	6.637335
543.000000	6.603602
542.000000	6.561290
541.000000	6.527842
540.000000	6.483336
539.000000	6.457555
538.000000	6.418185
537.000000	6.381209
536.000000	6.344086
535.000000	6.302329
534.000000	6.265309
533.000000	6.229083
532.000000	6.189811
531.000000	6.145423
530.000000	6.104183
529.000000	6.074025
528.000000	6.035131
527.000000	5.991265
526.000000	5.947704
525.000000	5.906832
524.000000	5.862441
523.000000	5.825008
522.000000	5.783511
521.000000	5.754689
520.000000	5.711401
519.000000	5.663745
518.000000	5.623395
517.000000	5.592835
516.000000	5.546685
515.000000	5.510589
514.000000	5.472169
513.000000	5.429220
512.000000	5.388525
511.000000	5.350435
510.000000	5.315612
509.000000	5.270270
508.000000	5.227526
507.000000	5.189085
506.000000	5.150419
505.000000	5.109736
504.000000	5.070174
503.000000	5.045322
502.000000	5.006869
501.000000	4.963377
500.000000	4.925090
499.000000	4.891638
498.000000	4.859506
497.000000	4.822032
496.000000	4.784684
495.000000	4.748508
494.000000	4.710000
493.000000	4.672516
492.000000	4.637686
491.000000	4.611013
490.000000	4.585767
489.000000	4.545042
488.000000	4.509076
487.000000	4.479270
486.000000	4.448112
485.000000	4.413083
484.000000	4.387288
483.000000	4.362289
482.000000	4.320749
481.000000	4.287104
480.000000	4.247690
479.000000	4.208099
478.000000	4.167406
477.000000	4.128860
476.000000	4.092205
475.000000	4.056695
474.000000	4.020934
473.000000	3.992303
472.000000	3.958547
471.000000	3.912575
470.000000	3.877624
469.000000	3.845355
468.000000	3.805498
467.000000	3.770863
466.000000	3.739025
465.000000	3.707236
464.000000	3.666257
463.000000	3.626393
462.000000	3.593131
461.000000	3.556577
460.000000	3.520094
459.000000	3.484123
458.000000	3.451857
457.000000	3.420314
456.000000	3.381522
455.000000	3.340981
454.000000	3.304185
453.000000	3.270545
452.000000	3.232058
451.000000	3.192065
450.000000	3.157929
449.000000	3.125321
448.000000	3.087548
447.000000	3.052830
446.000000	3.016435
445.000000	2.981917
444.000000	2.948878
443.000000	2.914570
442.000000	2.878372
441.000000	2.835909
440.000000	2.794856
439.000000	2.757021
438.000000	2.725355
437.000000	2.688534
436.000000	2.646095
435.000000	2.611535
434.000000	2.570042
433.000000	2.538561
432.000000	2.505013
431.000000	2.469037
430.000000	2.432014
429.000000	2.395445
428.000000	2.354489
427.000000	2.315613
426.000000	2.284332
425.000000	2.252508
424.000000	2.215868
423.000000	2.175286
422.000000	2.143051
421.000000	2.101104
420.000000	2.066517
419.000000	2.035077
418.000000	1.998049
417.000000	1.962805
416.000000	1.928351
415.000000	1.889998
414.000000	1.858842
413.000000	1.816603
412.000000	1.775715
411.000000	1.744936
410.000000	1.711139
409.000000	1.672450
408.000000	1.640455
407.000000	1.605580
406.000000	1.568678
405.000000	1.536198
404.000000	1.503395
403.000000	1.473864
402.000000	1.440443
401.000000	1.404698
400.000000	1.376505
399.000000	1.345011
398.000000	1.313273
397.000000	1.278239
396.000000	1.251569
395.000000	1.220485
394.000000	1.190149
393.000000	1.154951
392.000000	1.133382
391.000000	1.107827
390.000000	1.081529
389.000000	1.048892
388.000000	1.023174
387.000000	0.989051
386.000000	0.963620
385.000000	0.941359
384.000000	0.915357
383.000000	0.896872
382.000000	0.866308
381.000000	0.831503
380.000000	0.809909
379.000000	0.787602
378.000000	0.744067
377.000000	0.762530
376.000000	0.739386
375.000000	0.717753
374.000000	0.688749
373.000000	0.667811
372.000000	0.644131
371.000000	0.609643
370.000000	0.599220
369.000000	0.581622
368.000000	0.564362
367.000000	0.536592
366.000000	0.515635
365.000000	0.496415
364.000000	0.472076
363.000000	0.457197
362.000000	0.446201
361.000000	0.432726
360.000000	0.413115
359.000000	0.398837
358.000000	0.372970
357.000000	0.369584
356.000000	0.358185
355.000000	0.342455
354.000000	0.335636
353.000000	0.320502
352.000000	0.307989
351.000000	0.299179
350.000000	0.290531
349.000000	0.270676
348.000000	0.263916
347.000000	0.251149
346.000000	0.244842
345.000000	0.233427
344.000000	0.234610
343.000000	0.221226
342.000000	0.216161
341.000000	0.201684
340.000000	0.198271
339.000000	0.200543
338.000000	0.194532
337.000000	0.181632
336.000000	0.179452
335.000000	0.161366
334.000000	0.160751
333.000000	0.156205
332.000000	0.154294
331.000000	0.142239
330.000000	0.147007
329.000000	0.136524
328.000000	0.130593
327.000000	0.134805
326.000000	0.132005
325.000000	0.119356
324.000000	0.112363
323.000000	0.113752
322.000000	0.109848
321.000000	0.121156
320.000000	0.116082
319.000000	0.110321
318.000000	0.119332
317.000000	0.111302
316.000000	0.128565
315.000000	0.119092
314.000000	0.127871
313.000000	0.125686
312.000000	0.117332
311.000000	0.123009
310.000000	0.114939
309.000000	0.113439
308.000000	0.118335
307.000000	0.109252
306.000000	0.110156
305.000000	0.106852
304.000000	0.106089
303.000000	0.109400
302.000000	0.108468
301.000000	0.107531
300.000000	0.110562
299.000000	0.101525
298.000000	0.106590
297.000000	0.105229
296.000000	0.111799
295.000000	0.110116
294.000000	0.105955
293.000000	0.103290
292.000000	0.105710
291.000000	0.105208
290.000000	0.112852
289.000000	0.110716
288.000000	0.114606
287.000000	0.106947
286.000000	0.107467
285.000000	0.107394
284.000000	0.115549
283.000000	0.116081
282.000000	0.113469
281.000000	0.112310
280.000000	0.118677
279.000000	0.120386
278.000000	0.131477
277.000000	0.131815
276.000000	0.134960
275.000000	0.134205
274.000000	0.135809
273.000000	0.140443
272.000000	0.143909
271.000000	0.141912
270.000000	0.146373
269.000000	0.152849
268.000000	0.155242
267.000000	0.159121
266.000000	0.166676
265.000000	0.163821
264.000000	0.162973
263.000000	0.166306
262.000000	0.170557
261.000000	0.173548
260.000000	0.185176
259.000000	0.190005
258.000000	0.198161
257.000000	0.196379
256.000000	0.197755
255.000000	0.201106
254.000000	0.203849
253.000000	0.204312
252.000000	0.206642
251.000000	0.209084
250.000000	0.210536
249.000000	0.211065
248.000000	0.218674
247.000000	0.225843
246.000000	0.219087
245.000000	0.212386
244.000000	0.211118
243.000000	0.208180
242.000000	0.207169
241.000000	0.195699
240.000000	0.180859
239.000000	0.175586
238.000000	0.175816
237.000000	0.173594
236.000000	0.159543
235.000000	0.148775
234.000000	0.143255
233.000000	0.139118
232.000000	0.131905
231.000000	0.124664
230.000000	0.117714
229.000000	0.112634
228.000000	0.108421
227.000000	0.096801
226.000000	0.093498
225.000000	0.093887
224.000000	0.088384
223.000000	0.082479
222.000000	0.075038
221.000000	0.075391
220.000000	0.075089
219.000000	0.069532
218.000000	0.060577
217.000000	0.059498
216.000000	0.058523
215.000000	0.063856
214.000000	0.065306
213.000000	0.062424
212.000000	0.055549
211.000000	0.040300
210.000000	0.042588
209.000000	0.048255
208.000000	0.057999
207.000000	0.059477
206.000000	0.045075
205.000000	0.038669
204.000000	0.029943
203.000000	0.042806
202.000000	0.048703
201.000000	0.030947
200.000000	0.031397
