PE UV       SUBTECH     SPECTRUM    ASCII       PEDS        4.00        
   -1
3C-H10-C023.Sample.Raw.asc
22/03/18
16:36:35.00
22/03/18
16:36:35.00
Administrator

250.000000
1
Lambda 750
750N8071901
PerkinElmer UV WinLab 6.0.4.0738 / 1.61.00 Lambda 900

0
0
3350/servo 860.8/2
0
0
UV/VIS
1
1
1
CommonBeamDepol,150mm sphere / downward view
0
0
0
0
Program
Program
3350/servo 860.8/2
3350/0.2 860.8/0.2
3350/0.2 860.8/0.2
0
1
 
 
 
0
 
860.8
319.2
860.8
Front
100
on
 
 
0
0
0
 
0
 
 
 
0
 
 
0
0
0
0
0
 
 
 
 
0
0


0
0
#HDR
-1
-1
#GR
nm
%R
1.0
0.0
2500.000000
-10.000000
226
8
49.701948
12.196716
#DATA
2500.000000	14.598532
2490.000000	13.980534
2480.000000	12.196716
2470.000000	16.223795
2460.000000	15.607155
2450.000000	16.290388
2440.000000	15.885336
2430.000000	16.449921
2420.000000	17.894608
2410.000000	16.284595
2400.000000	17.499880
2390.000000	17.357045
2380.000000	18.359598
2370.000000	17.526037
2360.000000	16.972740
2350.000000	18.098630
2340.000000	19.412215
2330.000000	18.042989
2320.000000	17.374282
2310.000000	18.142865
2300.000000	17.532492
2290.000000	17.267332
2280.000000	16.429292
2270.000000	16.660423
2260.000000	17.592387
2250.000000	17.754943
2240.000000	18.808851
2230.000000	19.333635
2220.000000	19.638448
2210.000000	20.048184
2200.000000	19.023899
2190.000000	18.539734
2180.000000	18.823000
2170.000000	18.733259
2160.000000	19.410844
2150.000000	19.657458
2140.000000	19.539667
2130.000000	21.014460
2120.000000	21.070051
2110.000000	21.601792
2100.000000	21.189571
2090.000000	21.087706
2080.000000	20.853598
2070.000000	21.066350
2060.000000	20.261851
2050.000000	19.726893
2040.000000	18.986283
2030.000000	19.068639
2020.000000	19.813381
2010.000000	19.741291
2000.000000	19.498524
1990.000000	19.079952
1980.000000	18.603496
1970.000000	17.967530
1960.000000	17.307244
1950.000000	17.040926
1940.000000	16.678582
1930.000000	17.237473
1920.000000	17.998194
1910.000000	19.401059
1900.000000	21.969246
1890.000000	25.279271
1880.000000	28.307633
1870.000000	31.016550
1860.000000	32.193541
1850.000000	32.595788
1840.000000	32.691989
1830.000000	32.460189
1820.000000	32.171205
1810.000000	31.874483
1800.000000	31.532348
1790.000000	31.158960
1780.000000	30.977870
1770.000000	30.661134
1760.000000	30.334338
1750.000000	29.927645
1740.000000	29.419988
1730.000000	29.259442
1720.000000	29.723860
1710.000000	30.499327
1700.000000	30.907247
1690.000000	31.346502
1680.000000	32.348298
1670.000000	33.832397
1660.000000	34.950698
1650.000000	35.263266
1640.000000	35.105574
1630.000000	34.770348
1620.000000	34.268703
1610.000000	33.695445
1600.000000	33.187854
1590.000000	32.704841
1580.000000	32.247590
1570.000000	31.811642
1560.000000	31.474892
1550.000000	31.166565
1540.000000	30.635742
1530.000000	29.953070
1520.000000	29.436555
1510.000000	29.246743
1500.000000	29.090553
1490.000000	29.130168
1480.000000	29.316722
1470.000000	29.610020
1460.000000	29.936097
1450.000000	30.443976
1440.000000	31.204817
1430.000000	32.102520
1420.000000	33.276944
1410.000000	35.067521
1400.000000	37.405857
1390.000000	39.793064
1380.000000	41.499787
1370.000000	42.377132
1360.000000	42.911426
1350.000000	43.315384
1340.000000	43.626515
1330.000000	43.957696
1320.000000	44.566757
1310.000000	45.172737
1300.000000	45.595141
1290.000000	45.767124
1280.000000	45.714245
1270.000000	45.591176
1260.000000	45.591116
1250.000000	45.586069
1240.000000	45.293440
1230.000000	45.066213
1220.000000	44.815036
1210.000000	44.397577
1200.000000	44.001590
1190.000000	43.918450
1180.000000	44.231664
1170.000000	44.953351
1160.000000	45.861520
1150.000000	46.617766
1140.000000	47.286439
1130.000000	47.704795
1120.000000	47.866675
1110.000000	47.932289
1100.000000	47.969210
1090.000000	47.996116
1080.000000	47.957049
1070.000000	47.895500
1060.000000	47.824386
1050.000000	47.789748
1040.000000	47.835486
1030.000000	47.850394
1020.000000	47.995841
1010.000000	48.300842
1000.000000	48.701238
990.000000	48.866424
980.000000	48.881655
970.000000	48.960466
960.000000	49.092389
950.000000	49.256361
940.000000	49.296688
930.000000	49.235159
920.000000	49.192463
910.000000	49.300390
900.000000	49.414870
890.000000	49.652720
880.000000	49.701948
870.000000	49.544656
860.000000	49.575477
850.000000	49.442351
840.000000	49.100227
830.000000	49.524607
820.000000	49.554187
810.000000	49.477573
800.000000	49.445511
790.000000	49.525660
780.000000	49.546233
770.000000	49.528386
760.000000	49.526263
750.000000	49.581964
740.000000	49.532694
730.000000	49.465483
720.000000	49.539183
710.000000	49.523540
700.000000	49.466632
690.000000	49.377258
680.000000	49.359142
670.000000	49.369273
660.000000	49.323910
650.000000	49.270964
640.000000	49.187551
630.000000	49.117007
620.000000	49.037191
610.000000	48.985012
600.000000	48.892745
590.000000	48.816688
580.000000	48.631363
570.000000	48.487282
560.000000	48.393715
550.000000	48.204793
540.000000	47.850974
530.000000	47.490845
520.000000	47.070130
510.000000	46.523686
500.000000	45.917380
490.000000	45.265540
480.000000	44.575637
470.000000	43.886890
460.000000	42.947929
450.000000	41.816373
440.000000	40.641261
430.000000	39.173378
420.000000	37.386848
410.000000	35.488761
400.000000	33.852790
390.000000	32.633181
380.000000	31.443425
370.000000	30.309496
360.000000	29.321389
350.000000	28.351933
340.000000	27.435667
330.000000	26.337133
320.000000	24.946732
310.000000	24.162800
300.000000	23.119143
290.000000	20.199646
280.000000	18.191229
270.000000	17.930702
260.000000	17.785743
250.000000	16.491749
