PE UV       SUBTECH     SPECTRUM    ASCII       PEDS        4.00        
   -1
3C-H10-F011.Sample.Raw.asc
22/03/21
15:23:31.00
22/03/21
15:23:31.00
Administrator

250.000000
1
Lambda 750
750N8071901
PerkinElmer UV WinLab 6.0.4.0738 / 1.61.00 Lambda 900

0
0
3350/servo 860.8/2
0
0
UV/VIS
1
1
1
CommonBeamDepol,150mm sphere / downward view
0
0
0
0
Program
Program
3350/servo 860.8/2
3350/0.2 860.8/0.2
3350/0.2 860.8/0.2
0
1
 
 
 
0
 
860.8
319.2
860.8
Front
100
on
 
 
0
0
0
 
0
 
 
 
0
 
 
0
0
0
0
0
 
 
 
 
0
0


0
0
#HDR
-1
-1
#GR
nm
%R
1.0
0.0
2500.000000
-10.000000
226
8
44.657206
12.956142
#DATA
2500.000000	14.867799
2490.000000	13.580435
2480.000000	14.271187
2470.000000	16.856773
2460.000000	12.956142
2450.000000	14.750246
2440.000000	16.101629
2430.000000	15.950142
2420.000000	15.651314
2410.000000	17.131414
2400.000000	17.825284
2390.000000	14.884022
2380.000000	17.961047
2370.000000	18.328828
2360.000000	17.946824
2350.000000	16.044454
2340.000000	16.907043
2330.000000	16.847840
2320.000000	17.653063
2310.000000	17.139710
2300.000000	16.829670
2290.000000	17.222720
2280.000000	17.158018
2270.000000	16.491083
2260.000000	16.617465
2250.000000	17.577894
2240.000000	17.870276
2230.000000	18.910967
2220.000000	18.946530
2210.000000	18.779367
2200.000000	18.453679
2190.000000	18.416846
2180.000000	18.098762
2170.000000	17.636960
2160.000000	18.104733
2150.000000	18.543874
2140.000000	19.137314
2130.000000	20.107734
2120.000000	20.449572
2110.000000	19.977742
2100.000000	20.627531
2090.000000	20.406773
2080.000000	20.349920
2070.000000	19.648942
2060.000000	19.270200
2050.000000	18.813137
2040.000000	18.369819
2030.000000	18.716285
2020.000000	18.965329
2010.000000	19.143082
2000.000000	18.974190
1990.000000	18.295535
1980.000000	17.944908
1970.000000	17.523941
1960.000000	17.092486
1950.000000	16.745339
1940.000000	16.650808
1930.000000	16.996244
1920.000000	17.865985
1910.000000	19.131472
1900.000000	21.469132
1890.000000	24.337016
1880.000000	27.103434
1870.000000	29.087691
1860.000000	30.305197
1850.000000	30.905858
1840.000000	30.665572
1830.000000	30.581342
1820.000000	30.225693
1810.000000	29.958491
1800.000000	29.752653
1790.000000	29.502741
1780.000000	29.273355
1770.000000	28.969858
1760.000000	28.573034
1750.000000	28.197433
1740.000000	27.872423
1730.000000	27.710981
1720.000000	28.113338
1710.000000	28.736199
1700.000000	29.112397
1690.000000	29.531312
1680.000000	30.469891
1670.000000	31.859932
1660.000000	32.754718
1650.000000	33.196432
1640.000000	33.115353
1630.000000	32.866943
1620.000000	32.458475
1610.000000	31.909816
1600.000000	31.397216
1590.000000	30.921114
1580.000000	30.488022
1570.000000	30.128621
1560.000000	29.868039
1550.000000	29.570691
1540.000000	29.075952
1530.000000	28.540614
1520.000000	28.107686
1510.000000	27.814673
1500.000000	27.697068
1490.000000	27.782139
1480.000000	28.037005
1470.000000	28.289398
1460.000000	28.619823
1450.000000	29.120287
1440.000000	29.694062
1430.000000	30.522060
1420.000000	31.589466
1410.000000	33.196553
1400.000000	35.450347
1390.000000	37.504732
1380.000000	38.928595
1370.000000	39.665259
1360.000000	40.167071
1350.000000	40.577188
1340.000000	40.963312
1330.000000	41.367689
1320.000000	41.972662
1310.000000	42.478679
1300.000000	42.787750
1290.000000	42.806783
1280.000000	42.620088
1270.000000	42.562195
1260.000000	42.608730
1250.000000	42.627856
1240.000000	42.449540
1230.000000	42.156316
1220.000000	41.840539
1210.000000	41.450965
1200.000000	41.117872
1190.000000	40.960120
1180.000000	41.175980
1170.000000	41.881697
1160.000000	42.627539
1150.000000	43.271368
1140.000000	43.678431
1130.000000	44.080763
1120.000000	44.362104
1110.000000	44.360863
1100.000000	44.334893
1090.000000	44.274550
1080.000000	44.249041
1070.000000	44.153356
1060.000000	44.046232
1050.000000	43.997483
1040.000000	43.936375
1030.000000	43.885344
1020.000000	43.943412
1010.000000	44.126333
1000.000000	44.355758
990.000000	44.400571
980.000000	44.378860
970.000000	44.406138
960.000000	44.440373
950.000000	44.524658
940.000000	44.513299
930.000000	44.403887
920.000000	44.402238
910.000000	44.460174
900.000000	44.541608
890.000000	44.611693
880.000000	44.657206
870.000000	44.565197
860.000000	44.365255
850.000000	44.224218
840.000000	43.291493
830.000000	43.195111
820.000000	43.073764
810.000000	43.114914
800.000000	42.976445
790.000000	42.860075
780.000000	42.922940
770.000000	43.005055
760.000000	42.889009
750.000000	42.842864
740.000000	42.792336
730.000000	42.784313
720.000000	42.774681
710.000000	42.676109
700.000000	42.582401
690.000000	42.444442
680.000000	42.445593
670.000000	42.490631
660.000000	42.374355
650.000000	42.257337
640.000000	42.198446
630.000000	42.126239
620.000000	42.031572
610.000000	41.937116
600.000000	41.826050
590.000000	41.727094
580.000000	41.608245
570.000000	41.432665
560.000000	41.301389
550.000000	41.113722
540.000000	40.812086
530.000000	40.528617
520.000000	40.113945
510.000000	39.650600
500.000000	39.209319
490.000000	38.720704
480.000000	38.176331
470.000000	37.598274
460.000000	36.939121
450.000000	36.145723
440.000000	35.203156
430.000000	34.056200
420.000000	32.574148
410.000000	30.798706
400.000000	29.309155
390.000000	28.496147
380.000000	27.767927
370.000000	27.111341
360.000000	26.697214
350.000000	25.969058
340.000000	24.894773
330.000000	24.397405
320.000000	23.842065
310.000000	22.803544
300.000000	21.120646
290.000000	18.574695
280.000000	16.700618
270.000000	16.327012
260.000000	16.262531
250.000000	15.054865
