PE UV       SUBTECH     SPECTRUM    ASCII       PEDS        4.00        
   -1
3C-N10-F026.Sample.Raw.asc
22/03/25
16:04:23.00
22/03/25
16:04:23.00
Administrator

250.000000
1
Lambda 750
750N8071901
PerkinElmer UV WinLab 6.0.4.0738 / 1.61.00 Lambda 900

0
0
3350/servo 860.8/2
0
0
UV/VIS
1
1
1
CommonBeamDepol,150mm sphere / downward view
0
0
0
0
Program
Program
3350/servo 860.8/2
3350/0.2 860.8/0.2
3350/0.2 860.8/0.2
0
1
 
 
 
0
 
860.8
319.2
860.8
Front
100
on
 
 
0
0
0
 
0
 
 
 
0
 
 
0
0
0
0
0
 
 
 
 
0
0


0
0
#HDR
-1
-1
#GR
nm
%R
1.0
0.0
2500.000000
-10.000000
226
8
40.943002
8.696380
#DATA
2500.000000	8.696380
2490.000000	14.330015
2480.000000	9.269598
2470.000000	12.087035
2460.000000	11.243205
2450.000000	12.597885
2440.000000	13.415482
2430.000000	12.942155
2420.000000	13.125160
2410.000000	15.089124
2400.000000	13.345799
2390.000000	14.703728
2380.000000	15.229890
2370.000000	13.572380
2360.000000	14.350478
2350.000000	13.417023
2340.000000	14.772613
2330.000000	14.252845
2320.000000	13.017760
2310.000000	13.542339
2300.000000	12.750340
2290.000000	12.711250
2280.000000	13.782175
2270.000000	13.349237
2260.000000	13.469840
2250.000000	14.042142
2240.000000	14.200976
2230.000000	15.027712
2220.000000	15.762135
2210.000000	15.338331
2200.000000	14.582988
2190.000000	15.232076
2180.000000	14.065507
2170.000000	14.614277
2160.000000	15.584125
2150.000000	15.285561
2140.000000	15.398733
2130.000000	15.974866
2120.000000	16.524045
2110.000000	16.943387
2100.000000	16.673800
2090.000000	16.649148
2080.000000	17.086069
2070.000000	16.467659
2060.000000	16.007942
2050.000000	15.413712
2040.000000	14.967800
2030.000000	15.103374
2020.000000	15.473910
2010.000000	15.345626
2000.000000	15.500458
1990.000000	14.952115
1980.000000	14.563132
1970.000000	13.884357
1960.000000	13.665454
1950.000000	13.393016
1940.000000	13.009365
1930.000000	13.548516
1920.000000	14.321544
1910.000000	15.725995
1900.000000	17.770010
1890.000000	20.374638
1880.000000	23.224669
1870.000000	25.057382
1860.000000	26.335590
1850.000000	26.565853
1840.000000	26.686153
1830.000000	26.512790
1820.000000	26.136118
1810.000000	25.990329
1800.000000	25.673774
1790.000000	25.444769
1780.000000	25.175873
1770.000000	24.912960
1760.000000	24.531442
1750.000000	24.291081
1740.000000	23.986801
1730.000000	23.785398
1720.000000	24.147388
1710.000000	24.778822
1700.000000	25.162825
1690.000000	25.474072
1680.000000	26.420143
1670.000000	27.599704
1660.000000	28.475843
1650.000000	28.723926
1640.000000	28.645210
1630.000000	28.353697
1620.000000	27.938192
1610.000000	27.472586
1600.000000	26.953317
1590.000000	26.582396
1580.000000	26.182596
1570.000000	25.877715
1560.000000	25.633295
1550.000000	25.373693
1540.000000	24.932734
1530.000000	24.363346
1520.000000	23.922232
1510.000000	23.712680
1500.000000	23.617621
1490.000000	23.598520
1480.000000	23.767585
1470.000000	24.050250
1460.000000	24.361483
1450.000000	24.797816
1440.000000	25.411108
1430.000000	26.151299
1420.000000	27.076375
1410.000000	28.596070
1400.000000	30.578182
1390.000000	32.569332
1380.000000	33.860227
1370.000000	34.505872
1360.000000	34.890165
1350.000000	35.251049
1340.000000	35.484885
1330.000000	35.791300
1320.000000	36.349446
1310.000000	36.881755
1300.000000	37.224300
1290.000000	37.394812
1280.000000	37.334156
1270.000000	37.238643
1260.000000	37.176816
1250.000000	37.147112
1240.000000	37.034280
1230.000000	36.894834
1220.000000	36.625207
1210.000000	36.328371
1200.000000	36.016912
1190.000000	35.940447
1180.000000	36.193400
1170.000000	36.786473
1160.000000	37.478862
1150.000000	38.061332
1140.000000	38.510868
1130.000000	38.873844
1120.000000	39.082328
1110.000000	39.123261
1100.000000	39.187838
1090.000000	39.224036
1080.000000	39.206963
1070.000000	39.158435
1060.000000	39.144677
1050.000000	39.132962
1040.000000	39.109086
1030.000000	39.129832
1020.000000	39.243935
1010.000000	39.521743
1000.000000	39.821465
990.000000	39.973595
980.000000	40.006638
970.000000	40.110387
960.000000	40.236081
950.000000	40.349230
940.000000	40.338788
930.000000	40.333927
920.000000	40.238841
910.000000	40.273618
900.000000	40.534356
890.000000	40.752664
880.000000	40.829802
870.000000	40.850630
860.000000	40.943002
850.000000	40.385348
840.000000	39.630747
830.000000	39.842893
820.000000	39.859577
810.000000	39.963687
800.000000	40.041425
790.000000	40.036847
780.000000	40.047596
770.000000	39.955694
760.000000	39.941242
750.000000	39.853529
740.000000	39.924957
730.000000	39.999622
720.000000	40.052754
710.000000	40.071070
700.000000	40.166396
690.000000	40.116750
680.000000	40.106511
670.000000	40.207896
660.000000	40.238820
650.000000	40.202475
640.000000	40.144091
630.000000	40.141925
620.000000	40.088023
610.000000	40.043883
600.000000	40.029197
590.000000	39.986719
580.000000	39.939252
570.000000	39.837653
560.000000	39.744165
550.000000	39.591275
540.000000	39.371002
530.000000	39.112383
520.000000	38.786201
510.000000	38.415061
500.000000	38.011602
490.000000	37.599133
480.000000	37.082088
470.000000	36.569656
460.000000	35.932485
450.000000	35.078522
440.000000	34.137480
430.000000	32.842245
420.000000	31.039657
410.000000	28.956105
400.000000	27.245299
390.000000	26.254352
380.000000	25.592906
370.000000	24.833584
360.000000	24.030696
350.000000	23.378884
340.000000	22.381367
330.000000	21.288511
320.000000	20.434511
310.000000	19.529261
300.000000	17.862741
290.000000	15.574686
280.000000	14.127568
270.000000	14.002832
260.000000	13.888286
250.000000	12.858497
