PE UV       SUBTECH     SPECTRUM    ASCII       PEDS        4.00        
   -1
3G-H10-C004.Sample.Raw.asc
22/03/04
15:24:37.00
22/03/04
15:24:37.00
Administrator

250.000000
1
Lambda 750
750N8071901
PerkinElmer UV WinLab 6.0.4.0738 / 1.61.00 Lambda 900

0
0
3350/servo 860.8/2
0
0
UV/VIS
1
1
1
CommonBeamDepol,150mm sphere / downward view
0
0
0
0
Program
Program
3350/servo 860.8/2
3350/0.2 860.8/0.2
3350/0.2 860.8/0.2
0
1
 
 
 
0
 
860.8
319.2
860.8
Front
100
on
 
 
0
0
0
 
0
 
 
 
0
 
 
0
0
0
0
0
 
 
 
 
0
0


0
0
#HDR
-1
-1
#GR
nm
%R
1.0
0.0
2500.000000
-10.000000
226
8
65.126985
17.366986
#DATA
2500.000000	26.525304
2490.000000	31.379615
2480.000000	21.329033
2470.000000	26.073257
2460.000000	27.420683
2450.000000	23.115069
2440.000000	26.316659
2430.000000	27.864105
2420.000000	31.850861
2410.000000	29.751306
2400.000000	29.462736
2390.000000	33.788925
2380.000000	33.395679
2370.000000	33.398596
2360.000000	31.473858
2350.000000	28.346400
2340.000000	34.696298
2330.000000	27.993716
2320.000000	27.390955
2310.000000	29.698276
2300.000000	30.392527
2290.000000	30.551181
2280.000000	29.922790
2270.000000	30.011017
2260.000000	30.260322
2250.000000	32.079749
2240.000000	32.049139
2230.000000	32.887322
2220.000000	32.809010
2210.000000	33.986556
2200.000000	34.350404
2190.000000	32.995648
2180.000000	33.481988
2170.000000	33.189414
2160.000000	32.021509
2150.000000	32.675145
2140.000000	32.892270
2130.000000	35.137799
2120.000000	36.404806
2110.000000	34.250028
2100.000000	35.510243
2090.000000	36.592003
2080.000000	35.219504
2070.000000	34.580203
2060.000000	35.492416
2050.000000	33.486600
2040.000000	32.734775
2030.000000	33.557831
2020.000000	33.584431
2010.000000	33.860360
2000.000000	33.515476
1990.000000	31.920871
1980.000000	31.378530
1970.000000	31.232665
1960.000000	30.402166
1950.000000	29.475856
1940.000000	29.752018
1930.000000	29.956894
1920.000000	30.840535
1910.000000	33.462414
1900.000000	37.366095
1890.000000	41.281442
1880.000000	44.646040
1870.000000	46.557732
1860.000000	47.946593
1850.000000	48.812145
1840.000000	49.093168
1830.000000	48.386645
1820.000000	48.273953
1810.000000	47.799488
1800.000000	47.329422
1790.000000	47.236734
1780.000000	46.944282
1770.000000	46.574079
1760.000000	45.887066
1750.000000	45.475898
1740.000000	45.115908
1730.000000	44.908468
1720.000000	45.496019
1710.000000	46.403039
1700.000000	46.663557
1690.000000	47.220375
1680.000000	48.152641
1670.000000	49.974104
1660.000000	51.016134
1650.000000	51.487616
1640.000000	51.269736
1630.000000	50.955756
1620.000000	50.549121
1610.000000	49.999361
1600.000000	49.226855
1590.000000	48.644899
1580.000000	48.270301
1570.000000	47.861912
1560.000000	47.612839
1550.000000	47.307533
1540.000000	46.762897
1530.000000	45.942115
1520.000000	45.465415
1510.000000	45.133575
1500.000000	45.012765
1490.000000	45.093908
1480.000000	45.370939
1470.000000	45.732767
1460.000000	46.206015
1450.000000	46.681745
1440.000000	47.455015
1430.000000	48.210058
1420.000000	49.017231
1410.000000	50.269484
1400.000000	52.906734
1390.000000	55.876231
1380.000000	57.594107
1370.000000	58.332482
1360.000000	58.544366
1350.000000	58.862960
1340.000000	59.333783
1330.000000	60.283939
1320.000000	61.472398
1310.000000	62.187099
1300.000000	62.301189
1290.000000	62.112305
1280.000000	61.994052
1270.000000	61.872993
1260.000000	61.864352
1250.000000	61.822141
1240.000000	61.611582
1230.000000	61.279806
1220.000000	61.109850
1210.000000	60.834715
1200.000000	60.441364
1190.000000	60.176709
1180.000000	60.306915
1170.000000	61.106086
1160.000000	61.938181
1150.000000	62.593250
1140.000000	63.170559
1130.000000	63.876049
1120.000000	64.026979
1110.000000	64.080292
1100.000000	64.218977
1090.000000	64.133292
1080.000000	64.139110
1070.000000	64.094455
1060.000000	63.940801
1050.000000	63.901246
1040.000000	63.975522
1030.000000	63.921613
1020.000000	63.950617
1010.000000	64.223316
1000.000000	64.679827
990.000000	64.753374
980.000000	64.820680
970.000000	64.797431
960.000000	64.814770
950.000000	64.978525
940.000000	64.952939
930.000000	65.028560
920.000000	64.891845
910.000000	64.847919
900.000000	65.064781
890.000000	65.042867
880.000000	64.640089
870.000000	64.566725
860.000000	64.856113
850.000000	64.647554
840.000000	65.126985
830.000000	65.055974
820.000000	65.010864
810.000000	64.891270
800.000000	64.914402
790.000000	64.895940
780.000000	64.732791
770.000000	64.681389
760.000000	64.524734
750.000000	64.428876
740.000000	64.425311
730.000000	64.304303
720.000000	63.922905
710.000000	63.717936
700.000000	63.515073
690.000000	63.430655
680.000000	63.113976
670.000000	62.793017
660.000000	62.556361
650.000000	62.282287
640.000000	61.940054
630.000000	61.649175
620.000000	61.366236
610.000000	60.969693
600.000000	60.546662
590.000000	60.159085
580.000000	59.773942
570.000000	59.251197
560.000000	58.815603
550.000000	58.259998
540.000000	57.686043
530.000000	57.106709
520.000000	56.518336
510.000000	55.853833
500.000000	55.187712
490.000000	54.496808
480.000000	53.623242
470.000000	52.560856
460.000000	51.527263
450.000000	50.372395
440.000000	49.047780
430.000000	47.566856
420.000000	45.986171
410.000000	44.520161
400.000000	43.298882
390.000000	42.047569
380.000000	40.932385
370.000000	39.869569
360.000000	38.655740
350.000000	36.870142
340.000000	35.174946
330.000000	33.894679
320.000000	32.473912
310.000000	30.738291
300.000000	28.500967
290.000000	23.927375
280.000000	20.462896
270.000000	19.601398
260.000000	19.013394
250.000000	17.366986
