PE UV       SUBTECH     SPECTRUM    ASCII       PEDS        4.00        
   -1
3S-H10-C029.Sample.Cycle1.Raw.asc
22/03/25
17:21:00.00
22/03/25
17:21:00.00
Administrator

250.000000
1
Lambda 750
750N8071901
PerkinElmer UV WinLab 6.0.4.0738 / 1.61.00 Lambda 900

0
0
3350/servo 860.8/2
0
0
UV/VIS
1
1
1
CommonBeamDepol,150mm sphere / downward view
0
0
0
0
Program
Program
3350/servo 860.8/2
3350/0.2 860.8/0.2
3350/0.2 860.8/0.2
0
1
 
 
 
0
 
860.8
319.2
860.8
Front
100
on
 
 
0
0
0
 
0
 
 
 
0
 
 
0
0
0
0
0
 
 
 
 
0
0


0
0
#HDR
-1
-1
#GR
nm
%R
1.0
0.0
2500.000000
-10.000000
226
8
46.765233
8.154678
#DATA
2500.000000	14.596307
2490.000000	15.608671
2480.000000	15.355945
2470.000000	16.312394
2460.000000	15.525486
2450.000000	16.592135
2440.000000	16.072630
2430.000000	16.905331
2420.000000	18.980286
2410.000000	19.399417
2400.000000	18.724889
2390.000000	18.283262
2380.000000	19.186109
2370.000000	18.546177
2360.000000	17.905921
2350.000000	18.899111
2340.000000	18.211188
2330.000000	17.842082
2320.000000	18.391023
2310.000000	18.512246
2300.000000	16.391672
2290.000000	17.261295
2280.000000	18.403596
2270.000000	18.129973
2260.000000	18.424237
2250.000000	19.006679
2240.000000	20.416181
2230.000000	21.234527
2220.000000	22.018766
2210.000000	21.875143
2200.000000	21.057924
2190.000000	21.145415
2180.000000	20.802923
2170.000000	20.253112
2160.000000	21.458060
2150.000000	21.262235
2140.000000	21.812265
2130.000000	22.640458
2120.000000	22.849462
2110.000000	23.773631
2100.000000	24.062813
2090.000000	23.687757
2080.000000	23.322277
2070.000000	22.831493
2060.000000	21.869863
2050.000000	21.463127
2040.000000	20.930078
2030.000000	21.091769
2020.000000	21.667797
2010.000000	21.519354
2000.000000	21.417024
1990.000000	20.738322
1980.000000	20.149079
1970.000000	19.404126
1960.000000	19.008195
1950.000000	18.382511
1940.000000	18.027076
1930.000000	18.653444
1920.000000	19.922900
1910.000000	21.474905
1900.000000	24.247668
1890.000000	27.358123
1880.000000	30.044949
1870.000000	31.980239
1860.000000	32.996901
1850.000000	33.355439
1840.000000	33.428239
1830.000000	33.107882
1820.000000	32.842215
1810.000000	32.606727
1800.000000	32.236441
1790.000000	31.977373
1780.000000	31.716630
1770.000000	31.325574
1760.000000	30.833277
1750.000000	30.561001
1740.000000	30.131440
1730.000000	29.772658
1720.000000	29.965089
1710.000000	30.719615
1700.000000	31.538666
1690.000000	32.203194
1680.000000	33.212357
1670.000000	34.553171
1660.000000	35.456526
1650.000000	35.830758
1640.000000	35.741463
1630.000000	35.471023
1620.000000	35.106780
1610.000000	34.703756
1600.000000	34.225566
1590.000000	33.817326
1580.000000	33.431396
1570.000000	33.103040
1560.000000	32.815029
1550.000000	32.550205
1540.000000	32.107589
1530.000000	31.488889
1520.000000	31.043166
1510.000000	30.804713
1500.000000	30.746889
1490.000000	30.712250
1480.000000	30.857577
1470.000000	31.126553
1460.000000	31.405279
1450.000000	31.801571
1440.000000	32.372793
1430.000000	33.037279
1420.000000	33.957666
1410.000000	35.353288
1400.000000	37.131980
1390.000000	39.015266
1380.000000	40.281784
1370.000000	40.958966
1360.000000	41.407067
1350.000000	41.709281
1340.000000	41.921640
1330.000000	42.183954
1320.000000	42.585822
1310.000000	43.059501
1300.000000	43.390325
1290.000000	43.537133
1280.000000	43.422827
1270.000000	43.320997
1260.000000	43.266571
1250.000000	43.181829
1240.000000	42.971279
1230.000000	42.600391
1220.000000	42.072808
1210.000000	41.685823
1200.000000	41.531707
1190.000000	41.605243
1180.000000	42.010678
1170.000000	42.675297
1160.000000	43.392396
1150.000000	44.029245
1140.000000	44.559333
1130.000000	44.868637
1120.000000	44.966400
1110.000000	45.034731
1100.000000	45.056974
1090.000000	45.074507
1080.000000	45.101498
1070.000000	45.095147
1060.000000	45.079824
1050.000000	45.027751
1040.000000	45.020810
1030.000000	45.098846
1020.000000	45.271861
1010.000000	45.543868
1000.000000	45.841232
990.000000	45.968513
980.000000	45.989491
970.000000	46.024610
960.000000	46.133479
950.000000	46.229626
940.000000	46.221051
930.000000	46.196068
920.000000	46.145761
910.000000	46.172745
900.000000	46.400164
890.000000	46.574201
880.000000	46.706548
870.000000	46.645699
860.000000	46.765233
850.000000	45.991590
840.000000	44.984794
830.000000	45.112753
820.000000	45.092696
810.000000	45.059970
800.000000	45.084404
790.000000	45.079784
780.000000	45.014732
770.000000	44.895290
760.000000	44.947679
750.000000	44.961882
740.000000	44.918899
730.000000	44.842865
720.000000	44.712029
710.000000	44.611329
700.000000	44.611376
690.000000	44.458622
680.000000	44.308432
670.000000	44.203302
660.000000	44.045304
650.000000	43.914508
640.000000	43.727267
630.000000	43.538435
620.000000	43.331260
610.000000	43.098963
600.000000	42.881848
590.000000	42.683998
580.000000	42.503436
570.000000	42.240859
560.000000	42.031429
550.000000	41.767965
540.000000	41.373072
530.000000	40.944197
520.000000	40.440236
510.000000	39.922467
500.000000	39.395418
490.000000	38.782016
480.000000	38.072057
470.000000	37.392925
460.000000	36.559354
450.000000	35.490043
440.000000	34.303492
430.000000	32.926773
420.000000	31.318442
410.000000	29.720515
400.000000	28.387884
390.000000	27.174134
380.000000	25.863990
370.000000	24.565892
360.000000	23.346218
350.000000	21.996853
340.000000	20.400331
330.000000	18.826883
320.000000	17.431989
310.000000	16.041214
300.000000	14.039907
290.000000	11.357736
280.000000	9.635964
270.000000	9.191966
260.000000	8.925254
250.000000	8.154678
