PE UV       SUBTECH     SPECTRUM    ASCII       PEDS        4.00        
   -1
3S-H10-F016.Sample.Raw.asc
22/03/29
15:01:54.00
22/03/29
15:01:54.00
Administrator

250.000000
1
Lambda 750
750N8071901
PerkinElmer UV WinLab 6.0.4.0738 / 1.61.00 Lambda 900

0
0
3350/servo 860.8/2
0
0
UV/VIS
1
1
1
CommonBeamDepol,150mm sphere / downward view
0
0
0
0
Program
Program
3350/servo 860.8/2
3350/0.2 860.8/0.2
3350/0.2 860.8/0.2
0
1
 
 
 
0
 
860.8
319.2
860.8
Front
100
on
 
 
0
0
0
 
0
 
 
 
0
 
 
0
0
0
0
0
 
 
 
 
0
0


0
0
#HDR
-1
-1
#GR
nm
%R
1.0
0.0
2500.000000
-10.000000
226
8
42.879085
3.954728
#DATA
2500.000000	5.934593
2490.000000	6.275892
2480.000000	3.954728
2470.000000	5.234546
2460.000000	5.494995
2450.000000	6.761862
2440.000000	7.004014
2430.000000	7.877362
2420.000000	7.026345
2410.000000	6.318368
2400.000000	9.565625
2390.000000	8.233734
2380.000000	6.381005
2370.000000	6.494284
2360.000000	7.863266
2350.000000	7.666406
2340.000000	7.164737
2330.000000	7.483345
2320.000000	7.373865
2310.000000	6.794595
2300.000000	6.682262
2290.000000	6.673308
2280.000000	7.340156
2270.000000	7.402673
2260.000000	7.865079
2250.000000	8.779982
2240.000000	9.653283
2230.000000	10.401851
2220.000000	10.912465
2210.000000	10.394284
2200.000000	10.006961
2190.000000	9.225042
2180.000000	9.506555
2170.000000	8.770871
2160.000000	9.792025
2150.000000	10.856034
2140.000000	10.519687
2130.000000	11.020223
2120.000000	11.036467
2110.000000	11.841752
2100.000000	12.196580
2090.000000	11.804283
2080.000000	12.289872
2070.000000	11.680258
2060.000000	11.185605
2050.000000	10.115937
2040.000000	9.666854
2030.000000	9.958493
2020.000000	10.506974
2010.000000	10.494596
2000.000000	10.140361
1990.000000	9.629728
1980.000000	9.092243
1970.000000	8.616318
1960.000000	8.118869
1950.000000	7.723982
1940.000000	7.777778
1930.000000	7.994788
1920.000000	9.066504
1910.000000	10.483145
1900.000000	13.287642
1890.000000	16.752658
1880.000000	20.173200
1870.000000	22.551140
1860.000000	23.841312
1850.000000	24.400763
1840.000000	24.333408
1830.000000	24.072305
1820.000000	23.576124
1810.000000	23.226350
1800.000000	22.884440
1790.000000	22.464851
1780.000000	22.017776
1770.000000	21.419718
1760.000000	20.922400
1750.000000	20.522776
1740.000000	20.020416
1730.000000	19.433479
1720.000000	19.644621
1710.000000	20.742306
1700.000000	21.753018
1690.000000	22.645653
1680.000000	24.160918
1670.000000	26.122662
1660.000000	27.259423
1650.000000	27.802854
1640.000000	27.690745
1630.000000	27.360587
1620.000000	26.776686
1610.000000	26.183527
1600.000000	25.633836
1590.000000	25.087102
1580.000000	24.612073
1570.000000	24.105038
1560.000000	23.701314
1550.000000	23.302482
1540.000000	22.736126
1530.000000	21.954933
1520.000000	21.415775
1510.000000	21.132613
1500.000000	20.938556
1490.000000	20.888013
1480.000000	21.101066
1470.000000	21.339836
1460.000000	21.661216
1450.000000	22.192893
1440.000000	23.006025
1430.000000	24.069249
1420.000000	25.461622
1410.000000	27.345341
1400.000000	29.710361
1390.000000	32.044504
1380.000000	33.733712
1370.000000	34.858973
1360.000000	35.672669
1350.000000	36.284539
1340.000000	36.617149
1330.000000	36.797004
1320.000000	37.155653
1310.000000	37.674586
1300.000000	38.105421
1290.000000	38.354326
1280.000000	38.273712
1270.000000	38.154339
1260.000000	38.106484
1250.000000	38.018590
1240.000000	37.649388
1230.000000	37.017166
1220.000000	36.356959
1210.000000	35.882216
1200.000000	35.687792
1190.000000	35.849143
1180.000000	36.358362
1170.000000	37.270743
1160.000000	38.263186
1150.000000	39.107400
1140.000000	39.767647
1130.000000	40.284674
1120.000000	40.594115
1110.000000	40.719740
1100.000000	40.782558
1090.000000	40.737473
1080.000000	40.676718
1070.000000	40.689950
1060.000000	40.730054
1050.000000	40.728331
1040.000000	40.692791
1030.000000	40.781044
1020.000000	40.933014
1010.000000	41.328159
1000.000000	41.730542
990.000000	41.809073
980.000000	41.828698
970.000000	41.990462
960.000000	42.091926
950.000000	42.209294
940.000000	42.212403
930.000000	42.190744
920.000000	42.166232
910.000000	42.290019
900.000000	42.501496
890.000000	42.843740
880.000000	42.879085
870.000000	42.695504
860.000000	42.765693
850.000000	42.154584
840.000000	41.246515
830.000000	41.190655
820.000000	41.156671
810.000000	41.272311
800.000000	41.202870
790.000000	41.100424
780.000000	41.075864
770.000000	41.020994
760.000000	40.877974
750.000000	40.849799
740.000000	40.818489
730.000000	40.686576
720.000000	40.545284
710.000000	40.408188
700.000000	40.274290
690.000000	40.074591
680.000000	39.878695
670.000000	39.565960
660.000000	39.293677
650.000000	39.051865
640.000000	38.720152
630.000000	38.351808
620.000000	37.958634
610.000000	37.566254
600.000000	37.237658
590.000000	36.927220
580.000000	36.583867
570.000000	36.152641
560.000000	35.755971
550.000000	35.276093
540.000000	34.699511
530.000000	34.020326
520.000000	33.235740
510.000000	32.374359
500.000000	31.434993
490.000000	30.446018
480.000000	29.402789
470.000000	28.179303
460.000000	26.712938
450.000000	24.948875
440.000000	23.007470
430.000000	20.818078
420.000000	18.577507
410.000000	16.872771
400.000000	15.831552
390.000000	14.919848
380.000000	13.898702
370.000000	12.968361
360.000000	12.100588
350.000000	11.160754
340.000000	10.346947
330.000000	9.609568
320.000000	9.070265
310.000000	8.522292
300.000000	7.833093
290.000000	7.216120
280.000000	6.904815
270.000000	6.773776
260.000000	6.804882
250.000000	6.886666
