PE UV       SUBTECH     SPECTRUM    ASCII       PEDS        4.00        
   -1
3S-N10-C002.Sample.Raw.asc
22/03/03
16:03:33.00
22/03/03
16:03:33.00
Administrator

250.000000
1
Lambda 750
750N8071901
PerkinElmer UV WinLab 6.0.4.0738 / 1.61.00 Lambda 900

0
0
3350/servo 860.8/2
0
0
UV/VIS
1
1
1
CommonBeamDepol,150mm sphere / downward view
0
0
0
0
Program
Program
3350/servo 860.8/2
3350/0.2 860.8/0.2
3350/0.2 860.8/0.2
0
1
 
 
 
0
 
860.8
319.2
860.8
Front
100
on
 
 
0
0
0
 
0
 
 
 
0
 
 
0
0
0
0
0
 
 
 
 
0
0


0
0
#HDR
-1
-1
#GR
nm
%R
1.0
0.0
2500.000000
-10.000000
226
8
68.264804
17.602454
#DATA
2500.000000	27.074922
2490.000000	36.617224
2480.000000	31.005369
2470.000000	34.272129
2460.000000	37.855525
2450.000000	32.513872
2440.000000	34.737495
2430.000000	35.727387
2420.000000	37.191679
2410.000000	33.120271
2400.000000	34.674757
2390.000000	34.587890
2380.000000	36.726291
2370.000000	42.975378
2360.000000	37.337840
2350.000000	36.420684
2340.000000	35.736245
2330.000000	37.361844
2320.000000	37.807257
2310.000000	36.155284
2300.000000	34.630913
2290.000000	37.133807
2280.000000	34.929569
2270.000000	34.819385
2260.000000	36.097250
2250.000000	37.933324
2240.000000	38.784001
2230.000000	39.449883
2220.000000	39.360254
2210.000000	37.275957
2200.000000	39.080477
2190.000000	37.444181
2180.000000	36.334354
2170.000000	38.552530
2160.000000	37.406129
2150.000000	38.696538
2140.000000	40.730561
2130.000000	40.017380
2120.000000	41.199602
2110.000000	40.914365
2100.000000	42.557882
2090.000000	42.248731
2080.000000	42.237061
2070.000000	41.535814
2060.000000	40.608528
2050.000000	41.130764
2040.000000	38.684168
2030.000000	39.284696
2020.000000	39.316962
2010.000000	39.261333
2000.000000	38.719658
1990.000000	37.719254
1980.000000	36.867627
1970.000000	35.291448
1960.000000	34.557443
1950.000000	34.111769
1940.000000	33.021407
1930.000000	34.815472
1920.000000	36.793198
1910.000000	38.579433
1900.000000	42.573365
1890.000000	47.741029
1880.000000	51.013791
1870.000000	54.410962
1860.000000	55.623333
1850.000000	55.628855
1840.000000	55.378645
1830.000000	55.427593
1820.000000	55.363158
1810.000000	55.495937
1800.000000	54.753586
1790.000000	53.985035
1780.000000	53.356958
1770.000000	53.312079
1760.000000	52.894927
1750.000000	52.654770
1740.000000	51.922334
1730.000000	51.716583
1720.000000	52.220822
1710.000000	53.394863
1700.000000	53.773826
1690.000000	54.496076
1680.000000	55.535935
1670.000000	56.659463
1660.000000	57.593946
1650.000000	57.891319
1640.000000	58.038417
1630.000000	57.783587
1620.000000	57.348482
1610.000000	56.463448
1600.000000	55.955051
1590.000000	55.258164
1580.000000	54.785548
1570.000000	54.461942
1560.000000	54.178679
1550.000000	54.041623
1540.000000	53.748219
1530.000000	53.084075
1520.000000	52.500731
1510.000000	51.893691
1500.000000	51.547292
1490.000000	51.491501
1480.000000	51.801510
1470.000000	52.334009
1460.000000	52.861960
1450.000000	53.301639
1440.000000	53.830499
1430.000000	54.319461
1420.000000	55.073224
1410.000000	56.428937
1400.000000	59.035502
1390.000000	61.877157
1380.000000	63.645481
1370.000000	63.863116
1360.000000	64.109901
1350.000000	64.280088
1340.000000	64.505410
1330.000000	65.066495
1320.000000	66.325713
1310.000000	67.009015
1300.000000	67.025830
1290.000000	67.008448
1280.000000	66.881022
1270.000000	66.676069
1260.000000	66.657279
1250.000000	66.377174
1240.000000	66.112881
1230.000000	66.018263
1220.000000	65.956360
1210.000000	65.910067
1200.000000	65.460504
1190.000000	65.153595
1180.000000	65.239693
1170.000000	65.696670
1160.000000	66.435854
1150.000000	66.982168
1140.000000	67.458569
1130.000000	67.783592
1120.000000	67.765211
1110.000000	67.901522
1100.000000	68.068088
1090.000000	68.026108
1080.000000	67.946878
1070.000000	67.969346
1060.000000	67.922305
1050.000000	67.785941
1040.000000	67.645381
1030.000000	67.641461
1020.000000	67.589203
1010.000000	67.902619
1000.000000	68.264804
990.000000	68.241982
980.000000	68.037319
970.000000	67.914608
960.000000	68.048027
950.000000	68.166836
940.000000	68.076678
930.000000	67.824560
920.000000	67.676747
910.000000	67.663944
900.000000	67.700141
890.000000	67.602606
880.000000	67.714848
870.000000	67.729991
860.000000	66.560065
850.000000	66.912491
840.000000	67.808422
830.000000	67.875997
820.000000	67.667403
810.000000	67.589074
800.000000	67.525016
790.000000	67.538732
780.000000	67.687433
770.000000	67.595140
760.000000	67.452305
750.000000	67.510427
740.000000	67.581297
730.000000	67.388299
720.000000	67.328367
710.000000	67.243626
700.000000	67.101713
690.000000	67.062300
680.000000	66.916892
670.000000	66.768667
660.000000	66.742674
650.000000	66.550915
640.000000	66.396090
630.000000	66.313716
620.000000	66.068253
610.000000	65.771564
600.000000	65.612972
590.000000	65.465335
580.000000	65.187497
570.000000	64.803138
560.000000	64.465342
550.000000	64.119959
540.000000	63.850686
530.000000	63.397465
520.000000	63.027920
510.000000	62.492620
500.000000	62.086614
490.000000	61.946975
480.000000	61.387332
470.000000	60.246643
460.000000	59.305168
450.000000	58.431506
440.000000	57.123668
430.000000	55.568454
420.000000	53.732924
410.000000	51.694127
400.000000	50.071433
390.000000	48.765604
380.000000	47.328451
370.000000	45.903026
360.000000	44.282899
350.000000	41.921025
340.000000	39.739457
330.000000	38.067717
320.000000	36.154222
310.000000	33.626218
300.000000	30.093391
290.000000	24.817697
280.000000	20.692020
270.000000	19.788210
260.000000	19.384995
250.000000	17.602454
