PE UV       SUBTECH     SPECTRUM    ASCII       PEDS        4.00        
   -1
3S-N10-F026.Sample.Raw.asc
22/03/30
17:00:15.00
22/03/30
17:00:15.00
Administrator

250.000000
1
Lambda 750
750N8071901
PerkinElmer UV WinLab 6.0.4.0738 / 1.61.00 Lambda 900

0
0
3350/servo 860.8/2
0
0
UV/VIS
1
1
1
CommonBeamDepol,150mm sphere / downward view
0
0
0
0
Program
Program
3350/servo 860.8/2
3350/0.2 860.8/0.2
3350/0.2 860.8/0.2
0
1
 
 
 
0
 
860.8
319.2
860.8
Front
100
on
 
 
0
0
0
 
0
 
 
 
0
 
 
0
0
0
0
0
 
 
 
 
0
0


0
0
#HDR
-1
-1
#GR
nm
%R
1.0
0.0
2500.000000
-10.000000
226
8
63.171200
8.871095
#DATA
2500.000000	9.112786
2490.000000	11.570276
2480.000000	11.952761
2470.000000	12.480450
2460.000000	10.729035
2450.000000	10.724142
2440.000000	13.044630
2430.000000	11.534109
2420.000000	12.469156
2410.000000	11.977727
2400.000000	12.615089
2390.000000	14.560113
2380.000000	13.928591
2370.000000	14.318362
2360.000000	14.914791
2350.000000	14.499010
2340.000000	13.382978
2330.000000	13.638482
2320.000000	13.654442
2310.000000	13.669180
2300.000000	13.780671
2290.000000	14.740196
2280.000000	13.201512
2270.000000	12.264630
2260.000000	12.893400
2250.000000	15.374509
2240.000000	16.428458
2230.000000	17.274176
2220.000000	17.462321
2210.000000	16.922266
2200.000000	16.668061
2190.000000	16.181703
2180.000000	15.541071
2170.000000	15.161264
2160.000000	16.026924
2150.000000	17.264175
2140.000000	18.068441
2130.000000	19.167457
2120.000000	19.488055
2110.000000	19.681852
2100.000000	19.601628
2090.000000	19.928277
2080.000000	19.446093
2070.000000	18.516673
2060.000000	17.546288
2050.000000	16.738910
2040.000000	15.907300
2030.000000	16.283903
2020.000000	16.903643
2010.000000	17.092431
2000.000000	16.451999
1990.000000	16.062862
1980.000000	15.228880
1970.000000	14.138537
1960.000000	13.364887
1950.000000	12.942206
1940.000000	12.774151
1930.000000	13.527826
1920.000000	14.716843
1910.000000	17.122913
1900.000000	21.757632
1890.000000	26.846609
1880.000000	32.217203
1870.000000	36.133376
1860.000000	38.251547
1850.000000	38.946272
1840.000000	38.998154
1830.000000	38.487711
1820.000000	38.112306
1810.000000	37.560981
1800.000000	37.113893
1790.000000	36.638880
1780.000000	36.178792
1770.000000	35.421942
1760.000000	34.680611
1750.000000	34.158132
1740.000000	33.486963
1730.000000	33.031802
1720.000000	33.698195
1710.000000	34.934341
1700.000000	35.687910
1690.000000	36.471573
1680.000000	38.294273
1670.000000	40.706136
1660.000000	42.406882
1650.000000	43.076797
1640.000000	42.810146
1630.000000	42.295114
1620.000000	41.552313
1610.000000	40.649318
1600.000000	39.659922
1590.000000	38.710624
1580.000000	37.949320
1570.000000	37.273124
1560.000000	36.711472
1550.000000	36.238102
1540.000000	35.364699
1530.000000	34.232257
1520.000000	33.411029
1510.000000	32.925912
1500.000000	32.614722
1490.000000	32.614064
1480.000000	32.959379
1470.000000	33.427727
1460.000000	33.987118
1450.000000	34.796020
1440.000000	35.989912
1430.000000	37.722754
1420.000000	40.163610
1410.000000	43.297634
1400.000000	46.608258
1390.000000	49.647580
1380.000000	51.860366
1370.000000	53.077588
1360.000000	54.084456
1350.000000	55.097818
1340.000000	55.915873
1330.000000	56.505421
1320.000000	57.263014
1310.000000	58.271633
1300.000000	58.985664
1290.000000	59.255077
1280.000000	59.195079
1270.000000	59.033566
1260.000000	58.856995
1250.000000	58.643931
1240.000000	58.362791
1230.000000	57.979560
1220.000000	57.552603
1210.000000	56.931337
1200.000000	56.386441
1190.000000	56.201162
1180.000000	56.672903
1170.000000	57.659691
1160.000000	58.968669
1150.000000	60.114240
1140.000000	60.991452
1130.000000	61.563268
1120.000000	61.821852
1110.000000	61.954229
1100.000000	62.048641
1090.000000	62.120816
1080.000000	61.996493
1070.000000	61.866101
1060.000000	61.735491
1050.000000	61.595532
1040.000000	61.494963
1030.000000	61.403684
1020.000000	61.431077
1010.000000	61.601129
1000.000000	61.874096
990.000000	62.005715
980.000000	62.086687
970.000000	62.187219
960.000000	62.367983
950.000000	62.481919
940.000000	62.549353
930.000000	62.583779
920.000000	62.536132
910.000000	62.610165
900.000000	62.831297
890.000000	63.019545
880.000000	63.054610
870.000000	63.171200
860.000000	63.002607
850.000000	62.688592
840.000000	62.422065
830.000000	62.388036
820.000000	62.523387
810.000000	62.330384
800.000000	62.185810
790.000000	62.239655
780.000000	62.256929
770.000000	62.172468
760.000000	62.086071
750.000000	61.980028
740.000000	61.883334
730.000000	61.717045
720.000000	61.593403
710.000000	61.535897
700.000000	61.237098
690.000000	61.010719
680.000000	60.742278
670.000000	60.353056
660.000000	60.025425
650.000000	59.657734
640.000000	59.153022
630.000000	58.584146
620.000000	58.055170
610.000000	57.522708
600.000000	57.019109
590.000000	56.552357
580.000000	55.922030
570.000000	55.366534
560.000000	54.861259
550.000000	54.300741
540.000000	53.607790
530.000000	52.870759
520.000000	52.128275
510.000000	51.281464
500.000000	50.212032
490.000000	48.860129
480.000000	47.267678
470.000000	45.403792
460.000000	43.289270
450.000000	40.728498
440.000000	37.738254
430.000000	34.359117
420.000000	30.930687
410.000000	28.365913
400.000000	26.996924
390.000000	25.939671
380.000000	24.645471
370.000000	23.005777
360.000000	21.118935
350.000000	19.478933
340.000000	18.183427
330.000000	16.894544
320.000000	15.604314
310.000000	13.807807
300.000000	11.573948
290.000000	9.776360
280.000000	9.078298
270.000000	8.871095
260.000000	8.914616
250.000000	9.156055
