PE UV       SUBTECH     SPECTRUM    ASCII       PEDS        4.00        
   -1
3S-N10-F022.Sample.Raw.asc
22/03/30
16:48:47.00
22/03/30
16:48:47.00
Administrator

250.000000
1
Lambda 750
750N8071901
PerkinElmer UV WinLab 6.0.4.0738 / 1.61.00 Lambda 900

0
0
3350/servo 860.8/2
0
0
UV/VIS
1
1
1
CommonBeamDepol,150mm sphere / downward view
0
0
0
0
Program
Program
3350/servo 860.8/2
3350/0.2 860.8/0.2
3350/0.2 860.8/0.2
0
1
 
 
 
0
 
860.8
319.2
860.8
Front
100
on
 
 
0
0
0
 
0
 
 
 
0
 
 
0
0
0
0
0
 
 
 
 
0
0


0
0
#HDR
-1
-1
#GR
nm
%R
1.0
0.0
2500.000000
-10.000000
226
8
64.106102
10.041395
#DATA
2500.000000	10.754319
2490.000000	13.380818
2480.000000	11.473570
2470.000000	11.582026
2460.000000	10.041395
2450.000000	12.668642
2440.000000	15.245609
2430.000000	14.396866
2420.000000	15.083679
2410.000000	14.104764
2400.000000	13.981247
2390.000000	15.107775
2380.000000	15.348864
2370.000000	16.304718
2360.000000	16.629689
2350.000000	15.944676
2340.000000	15.297246
2330.000000	14.765404
2320.000000	14.698507
2310.000000	14.210286
2300.000000	14.367563
2290.000000	15.486502
2280.000000	14.377407
2270.000000	13.523768
2260.000000	14.144015
2250.000000	16.551506
2240.000000	17.018216
2230.000000	19.057994
2220.000000	19.196051
2210.000000	18.758793
2200.000000	17.992729
2190.000000	17.364379
2180.000000	16.935672
2170.000000	16.186420
2160.000000	16.518074
2150.000000	17.736706
2140.000000	19.451359
2130.000000	20.108341
2120.000000	20.871845
2110.000000	20.957931
2100.000000	20.998626
2090.000000	20.650756
2080.000000	20.841707
2070.000000	20.136209
2060.000000	18.833392
2050.000000	17.853245
2040.000000	17.103786
2030.000000	17.471806
2020.000000	18.286736
2010.000000	18.258352
2000.000000	17.823900
1990.000000	17.229613
1980.000000	16.057745
1970.000000	15.109432
1960.000000	14.356211
1950.000000	13.802848
1940.000000	13.520485
1930.000000	14.196079
1920.000000	15.628191
1910.000000	18.157939
1900.000000	22.792351
1890.000000	28.460722
1880.000000	33.700625
1870.000000	37.749135
1860.000000	40.032494
1850.000000	40.607091
1840.000000	40.688093
1830.000000	40.327298
1820.000000	39.720445
1810.000000	39.272544
1800.000000	38.779658
1790.000000	38.235429
1780.000000	37.745901
1770.000000	37.099870
1760.000000	36.421372
1750.000000	35.825811
1740.000000	35.182429
1730.000000	34.741604
1720.000000	35.458345
1710.000000	36.659657
1700.000000	37.397272
1690.000000	38.130377
1680.000000	39.945837
1670.000000	42.241495
1660.000000	43.943849
1650.000000	44.550863
1640.000000	44.331179
1630.000000	43.796079
1620.000000	43.100298
1610.000000	42.161222
1600.000000	41.183159
1590.000000	40.214800
1580.000000	39.486993
1570.000000	38.810403
1560.000000	38.253210
1550.000000	37.786751
1540.000000	36.933874
1530.000000	35.779341
1520.000000	34.959828
1510.000000	34.430792
1500.000000	34.161748
1490.000000	34.131791
1480.000000	34.471057
1470.000000	34.938512
1460.000000	35.492583
1450.000000	36.315278
1440.000000	37.580211
1430.000000	39.310330
1420.000000	41.690665
1410.000000	44.758894
1400.000000	48.061039
1390.000000	51.052947
1380.000000	53.188942
1370.000000	54.347862
1360.000000	55.343123
1350.000000	56.316272
1340.000000	57.061074
1330.000000	57.606043
1320.000000	58.284096
1310.000000	59.256288
1300.000000	59.967550
1290.000000	60.274157
1280.000000	60.237001
1270.000000	60.071254
1260.000000	59.908265
1250.000000	59.725185
1240.000000	59.459919
1230.000000	59.160467
1220.000000	58.734281
1210.000000	58.132708
1200.000000	57.631896
1190.000000	57.467744
1180.000000	57.856567
1170.000000	58.750980
1160.000000	60.013812
1150.000000	61.104712
1140.000000	61.933013
1130.000000	62.496016
1120.000000	62.756504
1110.000000	62.871831
1100.000000	62.942566
1090.000000	62.961366
1080.000000	62.917366
1070.000000	62.796031
1060.000000	62.708870
1050.000000	62.599639
1040.000000	62.468030
1030.000000	62.408779
1020.000000	62.420518
1010.000000	62.587034
1000.000000	62.808185
990.000000	62.953525
980.000000	63.002054
970.000000	63.116848
960.000000	63.275654
950.000000	63.431254
940.000000	63.436515
930.000000	63.433113
920.000000	63.432933
910.000000	63.528530
900.000000	63.689306
890.000000	63.728538
880.000000	63.848620
870.000000	63.983133
860.000000	64.106102
850.000000	64.014759
840.000000	63.727825
830.000000	63.545719
820.000000	63.630362
810.000000	63.614697
800.000000	63.541508
790.000000	63.507042
780.000000	63.504471
770.000000	63.391026
760.000000	63.236992
750.000000	63.238734
740.000000	63.096123
730.000000	62.969773
720.000000	62.870810
710.000000	62.754069
700.000000	62.539641
690.000000	62.343959
680.000000	62.105856
670.000000	61.702408
660.000000	61.409744
650.000000	61.112420
640.000000	60.691741
630.000000	60.147362
620.000000	59.624419
610.000000	59.159548
600.000000	58.721878
590.000000	58.267997
580.000000	57.677861
570.000000	57.163825
560.000000	56.667844
550.000000	56.154061
540.000000	55.479586
530.000000	54.803186
520.000000	54.133259
510.000000	53.310338
500.000000	52.315906
490.000000	51.009455
480.000000	49.496361
470.000000	47.698478
460.000000	45.635862
450.000000	43.141729
440.000000	40.140463
430.000000	36.851198
420.000000	33.453140
410.000000	30.778336
400.000000	29.408829
390.000000	28.323977
380.000000	26.958686
370.000000	25.185573
360.000000	23.347862
350.000000	21.744061
340.000000	20.085157
330.000000	18.605494
320.000000	17.598935
310.000000	16.073086
300.000000	13.580837
290.000000	11.436298
280.000000	10.583321
270.000000	10.370522
260.000000	10.498364
250.000000	10.530081
