PE UV       SUBTECH     SPECTRUM    ASCII       PEDS        4.00        
   -1
msmeh7_side2_1.Sample.asc
23/09/08
10:48:18.00
23/09/08
10:48:18.00
Administrator

250.000000
1
Lambda 750
750N8071901
PerkinElmer UV WinLab 6.0.4.0738 / 1.61.00 Lambda 900

0
0
3350/servo 860.8/2
0
0
UV/VIS
1
1
1
CommonBeamDepol,150mm sphere / downward view
0
0
0
0
Program
Program
3350/servo 860.8/2
3350/0.2 860.8/0.2
3350/0.2 860.8/0.2
0
1
 
 
 
0
 
860.8
319.2
860.8
Front
100
on
 
 
0
0
0
 
0
 
 
 
0
 
 
0
0
0
0
0
 
 
 
 
0
0


0
0
#HDR
-1
-1
#GR
nm
%R
1.0
0.0
2500.000000
-10.000000
226
8
60.383929
1.444137
#DATA
2500.000000	14.598199
2490.000000	18.038726
2480.000000	15.657823
2470.000000	17.830979
2460.000000	16.981244
2450.000000	19.585898
2440.000000	18.124708
2430.000000	20.421691
2420.000000	21.331383
2410.000000	20.976595
2400.000000	21.227218
2390.000000	19.619283
2380.000000	20.460888
2370.000000	21.873967
2360.000000	20.869671
2350.000000	21.782261
2340.000000	19.904687
2330.000000	19.485597
2320.000000	19.397438
2310.000000	20.419511
2300.000000	20.881156
2290.000000	20.493383
2280.000000	21.156845
2270.000000	23.145018
2260.000000	26.253672
2250.000000	26.499431
2240.000000	27.013500
2230.000000	26.635652
2220.000000	25.750043
2210.000000	24.950281
2200.000000	24.064199
2190.000000	24.968013
2180.000000	25.308959
2170.000000	26.792405
2160.000000	28.574127
2150.000000	29.181861
2140.000000	29.879996
2130.000000	30.797347
2120.000000	30.600285
2110.000000	30.490350
2100.000000	30.064758
2090.000000	29.043623
2080.000000	27.438902
2070.000000	26.102837
2060.000000	25.269775
2050.000000	25.890128
2040.000000	26.532766
2030.000000	26.437092
2020.000000	25.320488
2010.000000	23.960572
2000.000000	22.669976
1990.000000	21.643939
1980.000000	20.270354
1970.000000	19.358319
1960.000000	19.181496
1950.000000	19.447906
1940.000000	21.702237
1930.000000	24.687492
1920.000000	29.820082
1910.000000	35.996594
1900.000000	41.042511
1890.000000	44.924711
1880.000000	47.034861
1870.000000	47.833399
1860.000000	48.062693
1850.000000	47.576145
1840.000000	47.288424
1830.000000	46.991588
1820.000000	46.654471
1810.000000	46.465915
1800.000000	46.205377
1790.000000	45.694602
1780.000000	45.216865
1770.000000	44.850546
1760.000000	44.167058
1750.000000	43.758624
1740.000000	43.984865
1730.000000	45.172044
1720.000000	46.012815
1710.000000	46.553151
1700.000000	47.634779
1690.000000	49.236440
1680.000000	50.475461
1670.000000	50.977112
1660.000000	51.197448
1650.000000	50.874681
1640.000000	50.538030
1630.000000	50.098542
1620.000000	49.487484
1610.000000	48.798848
1600.000000	48.332730
1590.000000	47.810715
1580.000000	47.405974
1570.000000	47.024892
1560.000000	46.448102
1550.000000	45.683994
1540.000000	44.825338
1530.000000	44.364826
1520.000000	44.042623
1510.000000	43.868303
1500.000000	43.939464
1490.000000	44.068193
1480.000000	44.217924
1470.000000	44.571801
1460.000000	45.242598
1450.000000	46.173261
1440.000000	47.510368
1430.000000	49.404866
1420.000000	51.591278
1410.000000	53.761894
1400.000000	55.382806
1390.000000	56.357313
1380.000000	56.942354
1370.000000	57.408517
1360.000000	57.932476
1350.000000	58.342866
1340.000000	58.407792
1330.000000	58.592014
1320.000000	59.142029
1310.000000	59.596769
1300.000000	59.626804
1290.000000	59.610993
1280.000000	59.521086
1270.000000	59.396882
1260.000000	59.326638
1250.000000	59.122320
1240.000000	58.926908
1230.000000	58.659052
1220.000000	58.343720
1210.000000	58.246536
1200.000000	58.225845
1190.000000	58.553113
1180.000000	58.861380
1170.000000	59.361549
1160.000000	59.817456
1150.000000	60.071290
1140.000000	60.226135
1130.000000	60.311099
1120.000000	60.367742
1110.000000	60.383929
1100.000000	60.295221
1090.000000	60.083169
1080.000000	60.039149
1070.000000	60.001133
1060.000000	59.948143
1050.000000	59.958671
1040.000000	59.777605
1030.000000	59.531114
1020.000000	59.546324
1010.000000	59.745203
1000.000000	59.727797
990.000000	59.660817
980.000000	59.667492
970.000000	59.644631
960.000000	59.647595
950.000000	59.551901
940.000000	59.364370
930.000000	59.592649
920.000000	59.461976
910.000000	59.077006
900.000000	59.209171
890.000000	59.050325
880.000000	58.724909
870.000000	58.756483
860.000000	58.260688
850.000000	58.911200
840.000000	58.713414
830.000000	58.359609
820.000000	57.974186
810.000000	57.489889
800.000000	57.270810
790.000000	56.968933
780.000000	56.496732
770.000000	56.033801
760.000000	55.285980
750.000000	54.744547
740.000000	54.139944
730.000000	53.487349
720.000000	52.665729
710.000000	51.846226
700.000000	50.866048
690.000000	49.906464
680.000000	49.050340
670.000000	47.753834
660.000000	46.638674
650.000000	45.379131
640.000000	44.074597
630.000000	42.729513
620.000000	41.228262
610.000000	39.786587
600.000000	38.273201
590.000000	36.657355
580.000000	35.031107
570.000000	33.316281
560.000000	31.553328
550.000000	29.756055
540.000000	28.016762
530.000000	26.214350
520.000000	24.395416
510.000000	22.623887
500.000000	20.851259
490.000000	19.161735
480.000000	17.483560
470.000000	15.889850
460.000000	14.338929
450.000000	12.648803
440.000000	11.123529
430.000000	9.793090
420.000000	8.480104
410.000000	7.332107
400.000000	6.215232
390.000000	5.259116
380.000000	4.400514
370.000000	3.728901
360.000000	3.252878
350.000000	2.729275
340.000000	2.563790
330.000000	2.046656
320.000000	2.371210
310.000000	2.301174
300.000000	1.480211
290.000000	1.444137
280.000000	1.587000
270.000000	1.642850
260.000000	2.005057
250.000000	2.390630
