PE UV       SUBTECH     SPECTRUM    ASCII       PEDS        4.00        
   -1
msmeh8_side2_1.Sample.asc
23/09/08
11:00:16.00
23/09/08
11:00:16.00
Administrator

250.000000
1
Lambda 750
750N8071901
PerkinElmer UV WinLab 6.0.4.0738 / 1.61.00 Lambda 900

0
0
3350/servo 860.8/2
0
0
UV/VIS
1
1
1
CommonBeamDepol,150mm sphere / downward view
0
0
0
0
Program
Program
3350/servo 860.8/2
3350/0.2 860.8/0.2
3350/0.2 860.8/0.2
0
1
 
 
 
0
 
860.8
319.2
860.8
Front
100
on
 
 
0
0
0
 
0
 
 
 
0
 
 
0
0
0
0
0
 
 
 
 
0
0


0
0
#HDR
-1
-1
#GR
nm
%R
1.0
0.0
2500.000000
-10.000000
226
8
47.729187
0.484050
#DATA
2500.000000	10.472522
2490.000000	13.942465
2480.000000	10.442223
2470.000000	12.813315
2460.000000	12.650850
2450.000000	17.991035
2440.000000	15.439711
2430.000000	15.423261
2420.000000	16.523075
2410.000000	17.179551
2400.000000	16.112748
2390.000000	16.798812
2380.000000	16.048808
2370.000000	16.730330
2360.000000	16.619375
2350.000000	17.903698
2340.000000	16.041271
2330.000000	15.417224
2320.000000	16.076741
2310.000000	16.104348
2300.000000	15.719370
2290.000000	15.929048
2280.000000	17.055078
2270.000000	18.132543
2260.000000	21.014551
2250.000000	21.411919
2240.000000	21.878693
2230.000000	21.472925
2220.000000	20.141731
2210.000000	20.129269
2200.000000	19.426486
2190.000000	19.878350
2180.000000	20.140223
2170.000000	21.922577
2160.000000	22.761226
2150.000000	23.492778
2140.000000	24.489208
2130.000000	24.528519
2120.000000	24.564234
2110.000000	24.581911
2100.000000	24.582233
2090.000000	23.932157
2080.000000	22.407224
2070.000000	20.926461
2060.000000	20.522526
2050.000000	20.942530
2040.000000	21.954284
2030.000000	21.629678
2020.000000	20.924412
2010.000000	19.440654
2000.000000	18.768742
1990.000000	17.359459
1980.000000	16.325853
1970.000000	15.641966
1960.000000	15.095419
1950.000000	15.325443
1940.000000	17.321683
1930.000000	19.692769
1920.000000	24.341680
1910.000000	29.742923
1900.000000	34.219416
1890.000000	37.076470
1880.000000	38.541557
1870.000000	39.285618
1860.000000	39.445892
1850.000000	39.205059
1840.000000	39.168045
1830.000000	38.723882
1820.000000	38.498278
1810.000000	38.265429
1800.000000	37.992342
1790.000000	37.718274
1780.000000	37.360914
1770.000000	37.122501
1760.000000	36.568765
1750.000000	36.212504
1740.000000	36.388862
1730.000000	37.264154
1720.000000	38.012727
1710.000000	38.398262
1700.000000	39.236449
1690.000000	40.464622
1680.000000	41.473892
1670.000000	41.930601
1660.000000	42.116413
1650.000000	41.908711
1640.000000	41.657295
1630.000000	41.239487
1620.000000	40.815240
1610.000000	40.265648
1600.000000	39.917627
1590.000000	39.511372
1580.000000	39.089870
1570.000000	38.871868
1560.000000	38.498541
1550.000000	37.801733
1540.000000	37.125507
1530.000000	36.731103
1520.000000	36.493093
1510.000000	36.493775
1500.000000	36.462742
1490.000000	36.562626
1480.000000	36.670088
1470.000000	36.933337
1460.000000	37.390806
1450.000000	38.033477
1440.000000	39.040169
1430.000000	40.516042
1420.000000	42.276381
1410.000000	43.881403
1400.000000	45.025035
1390.000000	45.749430
1380.000000	46.121681
1370.000000	46.353711
1360.000000	46.719840
1350.000000	46.991306
1340.000000	47.000795
1330.000000	47.018850
1320.000000	47.364965
1310.000000	47.729187
1300.000000	47.721391
1290.000000	47.547272
1280.000000	47.401955
1270.000000	47.309662
1260.000000	47.292064
1250.000000	47.256948
1240.000000	47.097681
1230.000000	46.714854
1220.000000	46.326648
1210.000000	46.166604
1200.000000	46.217237
1190.000000	46.427918
1180.000000	46.535695
1170.000000	46.860533
1160.000000	47.158428
1150.000000	47.292464
1140.000000	47.360763
1130.000000	47.358668
1120.000000	47.366087
1110.000000	47.297265
1100.000000	47.165996
1090.000000	46.945696
1080.000000	46.848891
1070.000000	46.839469
1060.000000	46.795107
1050.000000	46.685537
1040.000000	46.492700
1030.000000	46.343261
1020.000000	46.366275
1010.000000	46.428605
1000.000000	46.391600
990.000000	46.259123
980.000000	46.232402
970.000000	46.179454
960.000000	46.248241
950.000000	46.106849
940.000000	45.988854
930.000000	45.950468
920.000000	45.917816
910.000000	45.807676
900.000000	45.838558
890.000000	45.383044
880.000000	45.096966
870.000000	45.229482
860.000000	44.758835
850.000000	43.745471
840.000000	43.714811
830.000000	43.409942
820.000000	43.109221
810.000000	42.758594
800.000000	42.554127
790.000000	42.359535
780.000000	42.028528
770.000000	41.670711
760.000000	41.165155
750.000000	40.678280
740.000000	40.277175
730.000000	39.898591
720.000000	39.281815
710.000000	38.752361
700.000000	37.979311
690.000000	37.285704
680.000000	36.702606
670.000000	35.753400
660.000000	35.000622
650.000000	34.005553
640.000000	32.990491
630.000000	31.932712
620.000000	30.783851
610.000000	29.535187
600.000000	28.265154
590.000000	26.951088
580.000000	25.509919
570.000000	24.002353
560.000000	22.467782
550.000000	20.836339
540.000000	19.221618
530.000000	17.614144
520.000000	16.020135
510.000000	14.480625
500.000000	12.922701
490.000000	11.455632
480.000000	9.992077
470.000000	8.744542
460.000000	7.467960
450.000000	6.179279
440.000000	5.136209
430.000000	4.405398
420.000000	3.673990
410.000000	3.100746
400.000000	2.563004
390.000000	2.224713
380.000000	1.950281
370.000000	1.808825
360.000000	1.696159
350.000000	1.491581
340.000000	1.481622
330.000000	1.373543
320.000000	1.530706
310.000000	1.267862
300.000000	0.484050
290.000000	0.580354
280.000000	0.747662
270.000000	0.833286
260.000000	1.149063
250.000000	1.312653
