PE UV       SUBTECH     SPECTRUM    ASCII       PEDS        4.00        
   -1
S-11768-010.Sample.Raw.asc
23/01/26
17:03:06.00
23/01/26
17:03:06.00
Administrator

250.000000
1
Lambda 750
750N8071901
PerkinElmer UV WinLab 6.0.4.0738 / 1.61.00 Lambda 900

0
0
3350/servo 860.8/2
0
0
UV/VIS
1
1
1
CommonBeamDepol,150mm sphere / downward view
0
0
0
0
Program
Program
3350/servo 860.8/2
3350/0.2 860.8/0.2
3350/0.2 860.8/0.2
0
1
 
 
 
0
 
860.8
319.2
860.8
Front
100
on
 
 
0
0
0
 
0
 
 
 
0
 
 
0
0
0
0
0
 
 
 
 
0
0


0
0
#HDR
-1
-1
#GR
nm
%R
1.0
0.0
2500.000000
-10.000000
226
8
70.128884
14.788557
#DATA
2500.000000	16.994402
2490.000000	17.144219
2480.000000	18.345571
2470.000000	17.846904
2460.000000	19.861047
2450.000000	18.607487
2440.000000	19.551277
2430.000000	22.265766
2420.000000	20.837936
2410.000000	23.124655
2400.000000	21.957930
2390.000000	21.690912
2380.000000	20.410623
2370.000000	21.617738
2360.000000	22.630309
2350.000000	22.356866
2340.000000	21.371949
2330.000000	20.687355
2320.000000	20.437572
2310.000000	21.096619
2300.000000	20.538450
2290.000000	20.572546
2280.000000	21.569976
2270.000000	21.934983
2260.000000	24.445598
2250.000000	25.266129
2240.000000	25.409379
2230.000000	25.686169
2220.000000	24.544321
2210.000000	24.162992
2200.000000	23.228043
2190.000000	22.759244
2180.000000	24.215496
2170.000000	24.586779
2160.000000	25.701711
2150.000000	25.868349
2140.000000	27.558241
2130.000000	27.133334
2120.000000	28.357307
2110.000000	28.651440
2100.000000	27.701792
2090.000000	27.043793
2080.000000	25.853472
2070.000000	24.248234
2060.000000	24.132530
2050.000000	23.845917
2040.000000	24.789981
2030.000000	24.896356
2020.000000	24.756683
2010.000000	23.879937
2000.000000	23.107666
1990.000000	22.261783
1980.000000	21.437839
1970.000000	20.597475
1960.000000	20.607899
1950.000000	20.808169
1940.000000	22.173096
1930.000000	24.811966
1920.000000	27.838041
1910.000000	32.642631
1900.000000	37.987127
1890.000000	41.164841
1880.000000	42.570739
1870.000000	44.003893
1860.000000	43.860652
1850.000000	43.120644
1840.000000	43.254523
1830.000000	42.803995
1820.000000	42.972049
1810.000000	43.032773
1800.000000	42.997084
1790.000000	42.634717
1780.000000	42.127326
1770.000000	41.738299
1760.000000	41.464152
1750.000000	40.827342
1740.000000	40.608604
1730.000000	41.497786
1720.000000	42.311519
1710.000000	42.528847
1700.000000	43.300818
1690.000000	44.754334
1680.000000	46.220989
1670.000000	46.901483
1660.000000	47.032859
1650.000000	46.718697
1640.000000	46.378117
1630.000000	46.102610
1620.000000	45.648774
1610.000000	45.232828
1600.000000	44.805405
1590.000000	44.404241
1580.000000	43.857024
1570.000000	43.422368
1560.000000	42.908045
1550.000000	42.012741
1540.000000	41.302775
1530.000000	40.994392
1520.000000	40.868761
1510.000000	40.872888
1500.000000	41.075701
1490.000000	41.197935
1480.000000	41.267929
1470.000000	41.804330
1460.000000	42.580374
1450.000000	43.682343
1440.000000	44.941810
1430.000000	46.453313
1420.000000	48.226408
1410.000000	50.277018
1400.000000	52.034534
1390.000000	53.244840
1380.000000	53.942346
1370.000000	53.496293
1360.000000	54.024104
1350.000000	54.442401
1340.000000	54.799706
1330.000000	55.820760
1320.000000	57.194502
1310.000000	58.141997
1300.000000	58.513684
1290.000000	58.199318
1280.000000	57.942131
1270.000000	57.904208
1260.000000	58.243850
1250.000000	58.432268
1240.000000	58.172815
1230.000000	57.446259
1220.000000	57.000741
1210.000000	57.195619
1200.000000	57.684291
1190.000000	57.945794
1180.000000	58.209150
1170.000000	58.828927
1160.000000	59.410449
1150.000000	59.801136
1140.000000	60.120190
1130.000000	60.207475
1120.000000	60.349927
1110.000000	60.612681
1100.000000	60.638793
1090.000000	60.497817
1080.000000	60.371326
1070.000000	60.419562
1060.000000	60.387887
1050.000000	60.455568
1040.000000	60.441040
1030.000000	60.580632
1020.000000	60.977564
1010.000000	61.499506
1000.000000	61.690323
990.000000	61.736495
980.000000	62.091375
970.000000	62.492116
960.000000	62.697384
950.000000	62.901800
940.000000	63.318166
930.000000	63.517294
920.000000	63.773800
910.000000	64.156127
900.000000	64.271889
890.000000	64.254079
880.000000	64.237257
870.000000	63.943940
860.000000	64.654257
850.000000	68.528142
840.000000	69.063257
830.000000	68.990342
820.000000	69.183937
810.000000	69.289624
800.000000	69.481931
790.000000	69.546059
780.000000	69.447226
770.000000	69.565511
760.000000	69.504110
750.000000	69.703341
740.000000	69.785939
730.000000	69.766980
720.000000	69.838478
710.000000	69.948865
700.000000	69.870281
690.000000	70.001259
680.000000	70.040182
670.000000	70.128884
660.000000	69.970741
650.000000	69.903151
640.000000	69.839749
630.000000	69.727207
620.000000	69.557449
610.000000	69.252338
600.000000	69.024390
590.000000	68.718196
580.000000	68.302189
570.000000	68.011448
560.000000	67.590935
550.000000	66.590251
540.000000	65.993859
530.000000	65.366923
520.000000	64.625036
510.000000	63.657701
500.000000	62.647171
490.000000	61.229031
480.000000	59.213751
470.000000	57.865650
460.000000	56.134353
450.000000	53.790547
440.000000	51.472199
430.000000	48.698759
420.000000	45.399473
410.000000	41.865119
400.000000	38.442480
390.000000	35.093528
380.000000	31.902663
370.000000	28.544395
360.000000	24.744985
350.000000	22.469270
340.000000	19.968479
330.000000	18.325124
320.000000	16.446411
310.000000	16.409794
300.000000	17.552035
290.000000	15.499784
280.000000	14.788557
270.000000	15.029446
260.000000	15.558484
250.000000	15.737961
