PE UV       SUBTECH     SPECTRUM    ASCII       PEDS        4.00        
   -1
S-11771-006.Sample.Raw.asc
23/01/26
17:28:47.00
23/01/26
17:28:47.00
Administrator

250.000000
1
Lambda 750
750N8071901
PerkinElmer UV WinLab 6.0.4.0738 / 1.61.00 Lambda 900

0
0
3350/servo 860.8/2
0
0
UV/VIS
1
1
1
CommonBeamDepol,150mm sphere / downward view
0
0
0
0
Program
Program
3350/servo 860.8/2
3350/0.2 860.8/0.2
3350/0.2 860.8/0.2
0
1
 
 
 
0
 
860.8
319.2
860.8
Front
100
on
 
 
0
0
0
 
0
 
 
 
0
 
 
0
0
0
0
0
 
 
 
 
0
0


0
0
#HDR
-1
-1
#GR
nm
%R
1.0
0.0
2500.000000
-10.000000
226
8
48.880716
12.555418
#DATA
2500.000000	26.204973
2490.000000	25.518160
2480.000000	26.688071
2470.000000	23.949027
2460.000000	25.257740
2450.000000	25.055400
2440.000000	28.085001
2430.000000	26.784352
2420.000000	26.989752
2410.000000	27.917965
2400.000000	26.708466
2390.000000	26.656570
2380.000000	26.675513
2370.000000	26.092207
2360.000000	27.572295
2350.000000	27.101938
2340.000000	27.020490
2330.000000	26.832621
2320.000000	26.208064
2310.000000	26.297696
2300.000000	25.813559
2290.000000	26.563182
2280.000000	26.696115
2270.000000	27.675796
2260.000000	28.344591
2250.000000	28.798427
2240.000000	29.521961
2230.000000	28.859144
2220.000000	28.182783
2210.000000	28.314159
2200.000000	28.646893
2190.000000	27.762844
2180.000000	28.495398
2170.000000	29.430334
2160.000000	29.451417
2150.000000	29.312942
2140.000000	30.632118
2130.000000	30.384263
2120.000000	30.553336
2110.000000	31.018707
2100.000000	30.064204
2090.000000	29.928981
2080.000000	29.613291
2070.000000	28.658699
2060.000000	29.218274
2050.000000	29.118248
2040.000000	29.332152
2030.000000	29.319092
2020.000000	28.950573
2010.000000	28.376251
2000.000000	28.356097
1990.000000	27.787322
1980.000000	26.901990
1970.000000	26.444268
1960.000000	26.627548
1950.000000	26.844331
1940.000000	28.069891
1930.000000	29.505929
1920.000000	30.960788
1910.000000	33.222895
1900.000000	34.188281
1890.000000	35.117455
1880.000000	35.817635
1870.000000	36.033499
1860.000000	35.833790
1850.000000	35.732280
1840.000000	35.843214
1830.000000	35.782971
1820.000000	35.884285
1810.000000	35.864741
1800.000000	35.704465
1790.000000	35.480314
1780.000000	35.478094
1770.000000	35.162003
1760.000000	35.339356
1750.000000	35.266615
1740.000000	35.163394
1730.000000	35.499953
1720.000000	35.647224
1710.000000	35.849583
1700.000000	36.134812
1690.000000	36.492700
1680.000000	36.795671
1670.000000	36.943613
1660.000000	37.011140
1650.000000	36.904640
1640.000000	36.855165
1630.000000	36.867562
1620.000000	36.671181
1610.000000	36.542975
1600.000000	36.453671
1590.000000	36.307307
1580.000000	36.252489
1570.000000	36.199807
1560.000000	36.166609
1550.000000	35.977809
1540.000000	35.757775
1530.000000	35.662410
1520.000000	35.573878
1510.000000	35.539204
1500.000000	35.672299
1490.000000	35.753169
1480.000000	35.827760
1470.000000	36.009472
1460.000000	36.275771
1450.000000	36.407596
1440.000000	36.493209
1430.000000	36.601045
1420.000000	37.091900
1410.000000	37.999675
1400.000000	38.972363
1390.000000	39.258438
1380.000000	39.127812
1370.000000	39.058277
1360.000000	38.830249
1350.000000	38.554057
1340.000000	38.626898
1330.000000	39.194552
1320.000000	39.823973
1310.000000	40.232823
1300.000000	40.436448
1290.000000	40.346142
1280.000000	40.215233
1270.000000	39.855715
1260.000000	39.934759
1250.000000	40.007541
1240.000000	40.230274
1230.000000	40.215698
1220.000000	40.110154
1210.000000	39.957565
1200.000000	40.020488
1190.000000	40.236298
1180.000000	40.199871
1170.000000	40.367209
1160.000000	40.474485
1150.000000	40.376615
1140.000000	40.461785
1130.000000	40.511728
1120.000000	40.647311
1110.000000	40.787579
1100.000000	40.729276
1090.000000	40.664640
1080.000000	40.667966
1070.000000	40.684392
1060.000000	40.582369
1050.000000	40.605594
1040.000000	40.598266
1030.000000	40.824643
1020.000000	41.220468
1010.000000	41.472350
1000.000000	41.452842
990.000000	41.326057
980.000000	41.349721
970.000000	41.440489
960.000000	41.298750
950.000000	41.521419
940.000000	41.543949
930.000000	41.503315
920.000000	41.551924
910.000000	41.658519
900.000000	41.575263
890.000000	42.003716
880.000000	42.340424
870.000000	41.661766
860.000000	42.149451
850.000000	48.753538
840.000000	48.880716
830.000000	48.612951
820.000000	48.580097
810.000000	48.646298
800.000000	48.602832
790.000000	48.583511
780.000000	48.540776
770.000000	48.321596
760.000000	48.234368
750.000000	48.347927
740.000000	48.259057
730.000000	47.995667
720.000000	47.896602
710.000000	47.870610
700.000000	47.683706
690.000000	47.577143
680.000000	47.512189
670.000000	47.292580
660.000000	47.230902
650.000000	47.106238
640.000000	46.829661
630.000000	46.608249
620.000000	46.422808
610.000000	46.226540
600.000000	45.882862
590.000000	45.591531
580.000000	45.286953
570.000000	45.078236
560.000000	44.817642
550.000000	44.181617
540.000000	43.888945
530.000000	43.601853
520.000000	43.188326
510.000000	42.395851
500.000000	41.729520
490.000000	41.432791
480.000000	40.809124
470.000000	39.725261
460.000000	38.776497
450.000000	37.935796
440.000000	36.907937
430.000000	35.665664
420.000000	34.155492
410.000000	32.496939
400.000000	30.691183
390.000000	28.553911
380.000000	26.273927
370.000000	24.076739
360.000000	20.529314
350.000000	18.606413
340.000000	16.675771
330.000000	15.078719
320.000000	13.510177
310.000000	12.555418
300.000000	20.999378
290.000000	18.916886
280.000000	17.292218
270.000000	16.792881
260.000000	16.607952
250.000000	16.237405
