PE UV       SUBTECH     SPECTRUM    ASCII       PEDS        4.00        
   -1
S-11771-002.Sample.Raw.asc
23/01/26
17:16:48.00
23/01/26
17:16:48.00
Administrator

250.000000
1
Lambda 750
750N8071901
PerkinElmer UV WinLab 6.0.4.0738 / 1.61.00 Lambda 900

0
0
3350/servo 860.8/2
0
0
UV/VIS
1
1
1
CommonBeamDepol,150mm sphere / downward view
0
0
0
0
Program
Program
3350/servo 860.8/2
3350/0.2 860.8/0.2
3350/0.2 860.8/0.2
0
1
 
 
 
0
 
860.8
319.2
860.8
Front
100
on
 
 
0
0
0
 
0
 
 
 
0
 
 
0
0
0
0
0
 
 
 
 
0
0


0
0
#HDR
-1
-1
#GR
nm
%R
1.0
0.0
2500.000000
-10.000000
226
8
80.295263
18.843699
#DATA
2500.000000	42.523269
2490.000000	43.903471
2480.000000	44.269378
2470.000000	44.435267
2460.000000	45.703164
2450.000000	45.435177
2440.000000	45.247018
2430.000000	47.996595
2420.000000	47.942491
2410.000000	49.612785
2400.000000	48.834856
2390.000000	47.906557
2380.000000	47.916489
2370.000000	47.739191
2360.000000	48.133902
2350.000000	48.773790
2340.000000	47.365525
2330.000000	47.431136
2320.000000	47.679704
2310.000000	46.664831
2300.000000	46.689253
2290.000000	47.675571
2280.000000	48.748110
2270.000000	49.058887
2260.000000	50.434863
2250.000000	51.759405
2240.000000	51.889015
2230.000000	52.264948
2220.000000	51.670543
2210.000000	50.844913
2200.000000	50.689266
2190.000000	50.186719
2180.000000	51.256150
2170.000000	52.427774
2160.000000	53.095304
2150.000000	53.749825
2140.000000	54.618305
2130.000000	54.189734
2120.000000	55.175805
2110.000000	55.216923
2100.000000	54.851108
2090.000000	54.047531
2080.000000	53.155338
2070.000000	51.758720
2060.000000	52.017324
2050.000000	52.151742
2040.000000	52.499688
2030.000000	52.588680
2020.000000	52.106485
2010.000000	51.319642
2000.000000	50.715647
1990.000000	49.524427
1980.000000	48.315634
1970.000000	47.562657
1960.000000	47.670922
1950.000000	47.999744
1940.000000	49.865155
1930.000000	52.860966
1920.000000	55.960523
1910.000000	59.452788
1900.000000	62.159330
1890.000000	64.046876
1880.000000	65.174342
1870.000000	65.495740
1860.000000	65.613564
1850.000000	65.484677
1840.000000	65.488980
1830.000000	65.383920
1820.000000	65.307710
1810.000000	65.251640
1800.000000	65.096969
1790.000000	64.848584
1780.000000	64.824655
1770.000000	64.552631
1760.000000	64.337512
1750.000000	64.279753
1740.000000	64.373247
1730.000000	64.990299
1720.000000	65.487966
1710.000000	65.569627
1700.000000	66.101868
1690.000000	66.908155
1680.000000	67.533168
1670.000000	67.825610
1660.000000	68.046820
1650.000000	67.961510
1640.000000	67.758048
1630.000000	67.645318
1620.000000	67.465614
1610.000000	67.133014
1600.000000	66.999584
1590.000000	66.796734
1580.000000	66.727627
1570.000000	66.633884
1560.000000	66.452768
1550.000000	66.095265
1540.000000	65.776235
1530.000000	65.591729
1520.000000	65.444535
1510.000000	65.502347
1500.000000	65.589920
1490.000000	65.828774
1480.000000	66.059436
1470.000000	66.352097
1460.000000	66.815751
1450.000000	67.287479
1440.000000	67.769107
1430.000000	68.339885
1420.000000	69.260455
1410.000000	70.590593
1400.000000	71.881903
1390.000000	72.415686
1380.000000	72.406686
1370.000000	72.477365
1360.000000	72.417609
1350.000000	72.293907
1340.000000	72.420624
1330.000000	73.181733
1320.000000	73.875982
1310.000000	74.389159
1300.000000	74.553198
1290.000000	74.538191
1280.000000	74.473017
1270.000000	74.250831
1260.000000	74.312069
1250.000000	74.428454
1240.000000	74.584470
1230.000000	74.590910
1220.000000	74.460839
1210.000000	74.407254
1200.000000	74.545504
1190.000000	74.827426
1180.000000	74.963465
1170.000000	75.269448
1160.000000	75.500972
1150.000000	75.592752
1140.000000	75.750848
1130.000000	75.850668
1120.000000	76.039489
1110.000000	76.183940
1100.000000	76.210860
1090.000000	76.200458
1080.000000	76.311469
1070.000000	76.363077
1060.000000	76.447369
1050.000000	76.456945
1040.000000	76.511725
1030.000000	76.741158
1020.000000	77.140683
1010.000000	77.545172
1000.000000	77.541912
990.000000	77.517115
980.000000	77.595827
970.000000	77.782371
960.000000	77.767067
950.000000	77.885749
940.000000	78.065015
930.000000	78.121586
920.000000	78.152630
910.000000	78.401121
900.000000	78.603285
890.000000	78.857383
880.000000	78.562099
870.000000	79.067009
860.000000	79.389368
850.000000	79.190626
840.000000	79.381877
830.000000	79.033380
820.000000	79.354234
810.000000	79.391521
800.000000	79.398951
790.000000	79.557358
780.000000	79.649765
770.000000	79.814924
760.000000	79.680361
750.000000	79.774316
740.000000	80.025897
730.000000	79.963030
720.000000	80.041601
710.000000	80.194836
700.000000	80.039963
690.000000	80.215859
680.000000	80.128315
670.000000	80.221434
660.000000	80.170447
650.000000	80.295263
640.000000	80.202479
630.000000	80.181088
620.000000	79.984539
610.000000	79.826841
600.000000	79.717971
590.000000	79.504017
580.000000	79.250749
570.000000	79.103726
560.000000	78.802115
550.000000	78.385183
540.000000	77.878254
530.000000	77.500620
520.000000	76.951693
510.000000	76.347435
500.000000	75.578628
490.000000	75.026717
480.000000	74.238315
470.000000	73.233799
460.000000	72.057602
450.000000	70.794876
440.000000	69.293630
430.000000	67.395906
420.000000	64.991262
410.000000	62.302124
400.000000	59.195457
390.000000	55.609062
380.000000	51.675581
370.000000	47.498963
360.000000	43.692150
350.000000	39.525831
340.000000	35.421730
330.000000	32.391314
320.000000	28.692826
310.000000	26.014925
300.000000	23.608216
290.000000	21.398614
280.000000	19.765492
270.000000	19.356066
260.000000	19.304730
250.000000	18.843699
