PE UV       SUBTECH     SPECTRUM    ASCII       PEDS        4.00        
   -1
S-11753-014.Sample.Raw.asc
23/05/05
16:20:47.00
23/05/05
16:20:47.00
Administrator

250.000000
1
Lambda 750
750N8071901
PerkinElmer UV WinLab 6.0.4.0738 / 1.61.00 Lambda 900

0
0
3350/servo 860.8/2
0
0
UV/VIS
1
1
1
CommonBeamDepol,150mm sphere / downward view
0
0
0
0
Program
Program
3350/servo 860.8/2
3350/0.2 860.8/0.2
3350/0.2 860.8/0.2
0
1
 
 
 
0
 
860.8
319.2
860.8
Front
100
on
 
 
0
0
0
 
0
 
 
 
0
 
 
0
0
0
0
0
 
 
 
 
0
0


0
0
#HDR
-1
-1
#GR
nm
%R
1.0
0.0
2500.000000
-10.000000
226
8
61.795252
21.632047
#DATA
2500.000000	21.632047
2490.000000	23.953874
2480.000000	29.115908
2470.000000	23.696034
2460.000000	25.582350
2450.000000	24.836750
2440.000000	30.405942
2430.000000	23.427831
2420.000000	34.036093
2410.000000	31.387186
2400.000000	30.143615
2390.000000	33.465088
2380.000000	28.696687
2370.000000	27.451909
2360.000000	30.791599
2350.000000	32.195237
2340.000000	29.294584
2330.000000	30.450097
2320.000000	31.380975
2310.000000	30.366038
2300.000000	25.077707
2290.000000	26.913449
2280.000000	28.799597
2270.000000	31.412515
2260.000000	31.716950
2250.000000	33.048203
2240.000000	32.273519
2230.000000	33.122988
2220.000000	31.629664
2210.000000	31.641409
2200.000000	29.971761
2190.000000	30.334445
2180.000000	30.898803
2170.000000	32.287275
2160.000000	32.544030
2150.000000	32.448718
2140.000000	34.124084
2130.000000	35.072447
2120.000000	34.375901
2110.000000	35.054981
2100.000000	34.827357
2090.000000	34.088945
2080.000000	33.382069
2070.000000	30.697396
2060.000000	30.339861
2050.000000	31.620282
2040.000000	31.766949
2030.000000	31.074047
2020.000000	31.384231
2010.000000	30.394842
2000.000000	29.386956
1990.000000	27.612463
1980.000000	25.863400
1970.000000	25.227934
1960.000000	24.497240
1950.000000	26.205395
1940.000000	27.249957
1930.000000	31.423211
1920.000000	35.406583
1910.000000	39.983899
1900.000000	43.697212
1890.000000	45.575441
1880.000000	48.354299
1870.000000	48.495051
1860.000000	48.045859
1850.000000	47.841808
1840.000000	47.961314
1830.000000	47.855307
1820.000000	47.357125
1810.000000	47.553261
1800.000000	47.055432
1790.000000	46.906026
1780.000000	46.323063
1770.000000	45.832689
1760.000000	45.720206
1750.000000	45.606660
1740.000000	45.777073
1730.000000	46.685768
1720.000000	46.975947
1710.000000	46.987276
1700.000000	47.950874
1690.000000	49.147549
1680.000000	49.833691
1670.000000	50.027650
1660.000000	50.002581
1650.000000	49.785056
1640.000000	49.680528
1630.000000	49.138999
1620.000000	48.575392
1610.000000	48.355818
1600.000000	47.829090
1590.000000	47.449445
1580.000000	47.150598
1570.000000	47.041324
1560.000000	46.695387
1550.000000	45.953623
1540.000000	45.357348
1530.000000	45.056308
1520.000000	44.889092
1510.000000	44.659022
1500.000000	44.434554
1490.000000	44.591233
1480.000000	44.959220
1470.000000	45.470102
1460.000000	45.827937
1450.000000	46.430962
1440.000000	46.150215
1430.000000	47.049611
1420.000000	49.514828
1410.000000	52.406949
1400.000000	54.806592
1390.000000	55.351540
1380.000000	55.020441
1370.000000	55.559051
1360.000000	55.380101
1350.000000	54.313457
1340.000000	53.223143
1330.000000	53.943564
1320.000000	55.223624
1310.000000	56.675861
1300.000000	57.778259
1290.000000	58.567276
1280.000000	57.911312
1270.000000	57.297583
1260.000000	56.717829
1250.000000	57.072743
1240.000000	57.119484
1230.000000	57.352864
1220.000000	57.015917
1210.000000	56.563929
1200.000000	56.715131
1190.000000	57.244830
1180.000000	57.121702
1170.000000	57.626482
1160.000000	57.901088
1150.000000	57.889008
1140.000000	58.121200
1130.000000	58.304454
1120.000000	58.435627
1110.000000	58.435596
1100.000000	58.438425
1090.000000	58.358015
1080.000000	58.117515
1070.000000	57.835426
1060.000000	58.207910
1050.000000	58.120670
1040.000000	57.898589
1030.000000	58.433287
1020.000000	59.162133
1010.000000	60.134982
1000.000000	60.204527
990.000000	59.654584
980.000000	59.661365
970.000000	59.554831
960.000000	59.252095
950.000000	59.798496
940.000000	59.644400
930.000000	59.020924
920.000000	58.762375
910.000000	58.638282
900.000000	59.135015
890.000000	59.898417
880.000000	60.481992
870.000000	58.488770
860.000000	58.604448
850.000000	60.493189
840.000000	60.880105
830.000000	60.640877
820.000000	61.380567
810.000000	60.810217
800.000000	60.996926
790.000000	61.058434
780.000000	61.299776
770.000000	61.207921
760.000000	61.000646
750.000000	61.438752
740.000000	61.509012
730.000000	61.351429
720.000000	61.605367
710.000000	61.495411
700.000000	61.551754
690.000000	61.540852
680.000000	61.662430
670.000000	61.511099
660.000000	61.795252
650.000000	61.656399
640.000000	61.565858
630.000000	61.654062
620.000000	61.540641
610.000000	61.659325
600.000000	61.740758
590.000000	61.448637
580.000000	61.351145
570.000000	61.433466
560.000000	61.210201
550.000000	61.043644
540.000000	60.888779
530.000000	60.615064
520.000000	60.524115
510.000000	60.121126
500.000000	59.761585
490.000000	59.329444
480.000000	58.968862
470.000000	58.636491
460.000000	57.979776
450.000000	57.193097
440.000000	56.015727
430.000000	54.604433
420.000000	53.016564
410.000000	50.627577
400.000000	48.135114
390.000000	45.842472
380.000000	43.276959
370.000000	40.587115
360.000000	38.293459
350.000000	34.530136
340.000000	31.473947
330.000000	28.829039
320.000000	25.911223
310.000000	26.172524
300.000000	26.215991
290.000000	23.710842
280.000000	22.651174
270.000000	24.238543
260.000000	26.618838
250.000000	30.232075
