PE UV       SUBTECH     SPECTRUM    ASCII       PEDS        4.00        
   -1
S-11753-003.Sample.Raw.asc
22/12/23
12:12:15.00
22/12/23
12:12:15.00
Administrator

250.000000
1
Lambda 750
750N8071901
PerkinElmer UV WinLab 6.0.4.0738 / 1.61.00 Lambda 900

0
0
3350/servo 860.8/2
0
0
UV/VIS
1
1
1
CommonBeamDepol,150mm sphere / downward view
0
0
0
0
Program
Program
3350/servo 860.8/2
3350/0.2 860.8/0.2
3350/0.2 860.8/0.2
0
1
 
 
 
0
 
860.8
319.2
860.8
Front
100
on
 
 
0
0
0
 
0
 
 
 
0
 
 
0
0
0
0
0
 
 
 
 
0
0


0
0
#HDR
-1
-1
#GR
nm
%R
1.0
0.0
2500.000000
-10.000000
226
8
71.568238
22.434443
#DATA
2500.000000	32.484310
2490.000000	31.964204
2480.000000	35.062642
2470.000000	31.102683
2460.000000	33.369649
2450.000000	33.355855
2440.000000	36.625572
2430.000000	37.048396
2420.000000	35.872074
2410.000000	35.954715
2400.000000	37.653405
2390.000000	33.984735
2380.000000	36.509152
2370.000000	35.570829
2360.000000	37.323313
2350.000000	37.005315
2340.000000	36.765335
2330.000000	36.095582
2320.000000	36.575826
2310.000000	36.183079
2300.000000	35.351641
2290.000000	36.204732
2280.000000	36.670500
2270.000000	37.573193
2260.000000	39.084406
2250.000000	39.089414
2240.000000	39.553014
2230.000000	39.733335
2220.000000	38.332357
2210.000000	37.842579
2200.000000	37.168201
2190.000000	37.230728
2180.000000	38.989642
2170.000000	39.695825
2160.000000	40.166059
2150.000000	40.758722
2140.000000	41.768475
2130.000000	41.749917
2120.000000	41.894170
2110.000000	42.057812
2100.000000	41.607616
2090.000000	41.042776
2080.000000	39.527795
2070.000000	39.095109
2060.000000	38.777134
2050.000000	38.991529
2040.000000	39.660723
2030.000000	39.613957
2020.000000	38.854118
2010.000000	37.922323
2000.000000	37.099708
1990.000000	35.988084
1980.000000	34.967344
1970.000000	34.190138
1960.000000	33.673390
1950.000000	34.781080
1940.000000	36.762849
1930.000000	39.387459
1920.000000	42.971102
1910.000000	46.352690
1900.000000	47.823563
1890.000000	49.121427
1880.000000	50.930069
1870.000000	50.862156
1860.000000	50.841965
1850.000000	51.154539
1840.000000	51.228770
1830.000000	51.227444
1820.000000	50.875743
1810.000000	50.435675
1800.000000	49.941145
1790.000000	49.793130
1780.000000	49.805853
1770.000000	49.653759
1760.000000	49.495226
1750.000000	49.373371
1740.000000	49.545864
1730.000000	50.266549
1720.000000	50.514027
1710.000000	50.870076
1700.000000	51.367088
1690.000000	51.846938
1680.000000	52.452108
1670.000000	52.713396
1660.000000	52.774987
1650.000000	52.636397
1640.000000	52.479363
1630.000000	52.258370
1620.000000	51.843119
1610.000000	51.538066
1600.000000	51.271368
1590.000000	51.038059
1580.000000	50.980792
1570.000000	51.028553
1560.000000	50.953803
1550.000000	50.680249
1540.000000	50.335580
1530.000000	50.088590
1520.000000	49.891736
1510.000000	49.678067
1500.000000	49.654321
1490.000000	49.879898
1480.000000	50.317159
1470.000000	50.604565
1460.000000	50.973010
1450.000000	51.368378
1440.000000	51.643154
1430.000000	51.917358
1420.000000	53.084911
1410.000000	54.638034
1400.000000	55.811864
1390.000000	56.354522
1380.000000	56.060684
1370.000000	56.942603
1360.000000	56.814239
1350.000000	56.052567
1340.000000	56.374210
1330.000000	58.635032
1320.000000	60.773506
1310.000000	62.418263
1300.000000	63.164432
1290.000000	63.463849
1280.000000	63.013384
1270.000000	62.362538
1260.000000	62.147555
1250.000000	62.472356
1240.000000	62.726568
1230.000000	62.469230
1220.000000	62.053287
1210.000000	61.964840
1200.000000	62.533198
1190.000000	63.341701
1180.000000	62.547050
1170.000000	62.860668
1160.000000	63.149869
1150.000000	63.426763
1140.000000	63.127527
1130.000000	62.989270
1120.000000	62.582699
1110.000000	62.663976
1100.000000	62.492443
1090.000000	62.080269
1080.000000	61.715683
1070.000000	61.228258
1060.000000	60.843981
1050.000000	60.474810
1040.000000	59.809305
1030.000000	59.268342
1020.000000	59.457922
1010.000000	59.682201
1000.000000	59.658242
990.000000	59.662907
980.000000	59.571186
970.000000	59.567147
960.000000	59.670725
950.000000	59.530243
940.000000	59.465214
930.000000	59.433814
920.000000	59.407035
910.000000	59.557446
900.000000	59.823059
890.000000	59.254516
880.000000	59.546628
870.000000	59.966688
860.000000	60.324238
850.000000	69.179913
840.000000	69.540023
830.000000	69.502953
820.000000	69.632484
810.000000	69.648612
800.000000	69.884766
790.000000	70.052415
780.000000	70.074522
770.000000	70.193888
760.000000	70.263064
750.000000	70.616954
740.000000	70.307707
730.000000	70.579345
720.000000	70.829080
710.000000	70.919461
700.000000	70.955689
690.000000	71.041780
680.000000	71.178280
670.000000	71.270400
660.000000	71.410147
650.000000	71.371028
640.000000	71.459914
630.000000	71.531799
620.000000	71.524990
610.000000	71.559705
600.000000	71.568238
590.000000	71.518825
580.000000	71.432347
570.000000	71.501008
560.000000	71.360999
550.000000	71.294155
540.000000	71.163939
530.000000	70.999709
520.000000	70.770684
510.000000	70.593276
500.000000	70.282190
490.000000	69.961597
480.000000	69.527280
470.000000	69.177547
460.000000	68.535078
450.000000	67.636641
440.000000	66.647326
430.000000	65.346012
420.000000	63.660623
410.000000	61.546499
400.000000	59.128761
390.000000	56.332375
380.000000	53.366308
370.000000	49.658392
360.000000	45.955394
350.000000	42.036900
340.000000	38.323127
330.000000	35.334782
320.000000	32.155983
310.000000	29.865114
300.000000	28.305936
290.000000	24.781511
280.000000	22.552515
270.000000	22.439052
260.000000	22.544236
250.000000	22.434443
