PE UV       SUBTECH     SPECTRUM    ASCII       PEDS        4.00        
   -1
S-11771-019.Sample.Raw.asc
23/05/05
15:27:35.00
23/05/05
15:27:35.00
Administrator

250.000000
1
Lambda 750
750N8071901
PerkinElmer UV WinLab 6.0.4.0738 / 1.61.00 Lambda 900

0
0
3350/servo 860.8/2
0
0
UV/VIS
1
1
1
CommonBeamDepol,150mm sphere / downward view
0
0
0
0
Program
Program
3350/servo 860.8/2
3350/0.2 860.8/0.2
3350/0.2 860.8/0.2
0
1
 
 
 
0
 
860.8
319.2
860.8
Front
100
on
 
 
0
0
0
 
0
 
 
 
0
 
 
0
0
0
0
0
 
 
 
 
0
0


0
0
#HDR
-1
-1
#GR
nm
%R
1.0
0.0
2500.000000
-10.000000
226
8
66.301346
27.594318
#DATA
2500.000000	37.101774
2490.000000	36.049730
2480.000000	40.096120
2470.000000	36.466191
2460.000000	41.680605
2450.000000	42.091572
2440.000000	48.251794
2430.000000	43.148957
2420.000000	46.942801
2410.000000	41.292427
2400.000000	42.897054
2390.000000	41.634100
2380.000000	46.343234
2370.000000	43.384582
2360.000000	42.585549
2350.000000	43.350501
2340.000000	46.945291
2330.000000	43.468873
2320.000000	43.429347
2310.000000	43.617702
2300.000000	40.912319
2290.000000	42.747931
2280.000000	41.295730
2270.000000	43.311330
2260.000000	46.718464
2250.000000	46.386958
2240.000000	45.219496
2230.000000	47.762418
2220.000000	46.772325
2210.000000	44.208946
2200.000000	46.082357
2190.000000	45.602054
2180.000000	45.288193
2170.000000	45.796298
2160.000000	46.643699
2150.000000	48.212775
2140.000000	47.421513
2130.000000	48.020115
2120.000000	48.283866
2110.000000	49.204137
2100.000000	48.071777
2090.000000	47.347250
2080.000000	47.613896
2070.000000	46.238701
2060.000000	44.890439
2050.000000	45.710803
2040.000000	45.343579
2030.000000	46.094541
2020.000000	45.219959
2010.000000	44.822612
2000.000000	44.379264
1990.000000	43.110534
1980.000000	41.965598
1970.000000	40.711737
1960.000000	39.978839
1950.000000	41.871454
1940.000000	43.511968
1930.000000	45.899577
1920.000000	48.360854
1910.000000	52.362030
1900.000000	54.436389
1890.000000	54.844936
1880.000000	56.291993
1870.000000	56.729258
1860.000000	57.151466
1850.000000	56.201553
1840.000000	56.234831
1830.000000	56.143224
1820.000000	56.168682
1810.000000	56.375744
1800.000000	55.758315
1790.000000	55.919630
1780.000000	55.981575
1770.000000	55.224518
1760.000000	55.526696
1750.000000	55.614431
1740.000000	55.540725
1730.000000	55.932091
1720.000000	56.118331
1710.000000	56.692646
1700.000000	56.750018
1690.000000	57.653600
1680.000000	57.974715
1670.000000	58.096221
1660.000000	57.977150
1650.000000	57.918992
1640.000000	57.819325
1630.000000	57.865483
1620.000000	57.584993
1610.000000	57.370635
1600.000000	56.956538
1590.000000	57.186589
1580.000000	56.735117
1570.000000	56.540308
1560.000000	56.501338
1550.000000	56.197018
1540.000000	55.895548
1530.000000	55.720563
1520.000000	55.611044
1510.000000	55.467566
1500.000000	55.472015
1490.000000	55.527997
1480.000000	55.735654
1470.000000	56.187259
1460.000000	56.209530
1450.000000	56.371153
1440.000000	56.109505
1430.000000	56.298939
1420.000000	58.014924
1410.000000	60.424218
1400.000000	61.780589
1390.000000	62.219969
1380.000000	61.865236
1370.000000	62.078325
1360.000000	61.628814
1350.000000	60.786421
1340.000000	59.189640
1330.000000	59.543821
1320.000000	60.824873
1310.000000	62.016251
1300.000000	63.314312
1290.000000	63.788865
1280.000000	63.250101
1270.000000	62.811396
1260.000000	62.363038
1250.000000	62.681636
1240.000000	62.628103
1230.000000	62.768646
1220.000000	62.861335
1210.000000	62.539317
1200.000000	62.774656
1190.000000	62.506971
1180.000000	62.934585
1170.000000	63.146034
1160.000000	63.272725
1150.000000	63.151044
1140.000000	63.274002
1130.000000	63.439009
1120.000000	63.601162
1110.000000	63.639292
1100.000000	63.834485
1090.000000	63.768803
1080.000000	63.654662
1070.000000	63.525688
1060.000000	63.835531
1050.000000	63.935479
1040.000000	63.876889
1030.000000	64.493417
1020.000000	65.189721
1010.000000	66.017252
1000.000000	66.047357
990.000000	65.580624
980.000000	65.521119
970.000000	65.563154
960.000000	65.377869
950.000000	65.404044
940.000000	65.117126
930.000000	65.123814
920.000000	64.921263
910.000000	65.176306
900.000000	65.830948
890.000000	66.301346
880.000000	65.119836
870.000000	65.473156
860.000000	65.328390
850.000000	64.548749
840.000000	64.802455
830.000000	65.456447
820.000000	65.722124
810.000000	65.241987
800.000000	65.708316
790.000000	65.573594
780.000000	65.665453
770.000000	65.338115
760.000000	65.555895
750.000000	65.539720
740.000000	65.849291
730.000000	65.490336
720.000000	65.464304
710.000000	65.638672
700.000000	65.568343
690.000000	65.295255
680.000000	65.531093
670.000000	65.342377
660.000000	65.463546
650.000000	65.152627
640.000000	65.024413
630.000000	65.120225
620.000000	64.872823
610.000000	64.765804
600.000000	64.666192
590.000000	64.350041
580.000000	64.186610
570.000000	64.022603
560.000000	63.819230
550.000000	63.520365
540.000000	63.181983
530.000000	62.746625
520.000000	62.458879
510.000000	62.079940
500.000000	61.551461
490.000000	60.963103
480.000000	60.440220
470.000000	59.936435
460.000000	59.181166
450.000000	58.308031
440.000000	57.363477
430.000000	56.076632
420.000000	54.369776
410.000000	52.775688
400.000000	50.569156
390.000000	48.154835
380.000000	45.937349
370.000000	43.386871
360.000000	41.640826
350.000000	38.171480
340.000000	36.130803
330.000000	33.474565
320.000000	31.296672
310.000000	29.924883
300.000000	30.614689
290.000000	28.897589
280.000000	27.594318
270.000000	27.997887
260.000000	29.307894
250.000000	31.379769
