PE UV       SUBTECH     SPECTRUM    ASCII       PEDS        4.00        
   -1
S-11753-002.Sample.Raw.asc
22/12/23
12:09:13.00
22/12/23
12:09:13.00
Administrator

250.000000
1
Lambda 750
750N8071901
PerkinElmer UV WinLab 6.0.4.0738 / 1.61.00 Lambda 900

0
0
3350/servo 860.8/2
0
0
UV/VIS
1
1
1
CommonBeamDepol,150mm sphere / downward view
0
0
0
0
Program
Program
3350/servo 860.8/2
3350/0.2 860.8/0.2
3350/0.2 860.8/0.2
0
1
 
 
 
0
 
860.8
319.2
860.8
Front
100
on
 
 
0
0
0
 
0
 
 
 
0
 
 
0
0
0
0
0
 
 
 
 
0
0


0
0
#HDR
-1
-1
#GR
nm
%R
1.0
0.0
2500.000000
-10.000000
226
8
72.373999
22.247546
#DATA
2500.000000	34.753686
2490.000000	36.006046
2480.000000	35.966604
2470.000000	34.435879
2460.000000	34.972926
2450.000000	36.872485
2440.000000	40.758491
2430.000000	40.221773
2420.000000	40.614627
2410.000000	40.067882
2400.000000	41.488084
2390.000000	40.285382
2380.000000	39.811549
2370.000000	39.888571
2360.000000	39.916410
2350.000000	40.314966
2340.000000	40.075265
2330.000000	39.076666
2320.000000	39.241041
2310.000000	39.201426
2300.000000	39.239470
2290.000000	39.836827
2280.000000	40.520312
2270.000000	41.284638
2260.000000	42.194911
2250.000000	43.415556
2240.000000	43.636845
2230.000000	43.810151
2220.000000	42.889824
2210.000000	42.456045
2200.000000	42.355793
2190.000000	41.541662
2180.000000	42.844004
2170.000000	43.875793
2160.000000	44.812248
2150.000000	44.878714
2140.000000	45.316579
2130.000000	46.135868
2120.000000	46.325104
2110.000000	46.729219
2100.000000	45.884039
2090.000000	45.031922
2080.000000	43.839636
2070.000000	42.954654
2060.000000	42.828985
2050.000000	42.720577
2040.000000	43.626716
2030.000000	43.554772
2020.000000	42.814298
2010.000000	41.909011
2000.000000	41.119241
1990.000000	40.285406
1980.000000	39.180991
1970.000000	38.516517
1960.000000	38.242091
1950.000000	38.938856
1940.000000	40.928242
1930.000000	43.685728
1920.000000	46.540623
1910.000000	50.360749
1900.000000	53.317053
1890.000000	55.259613
1880.000000	56.413559
1870.000000	56.621515
1860.000000	56.728433
1850.000000	56.610162
1840.000000	56.399731
1830.000000	56.469108
1820.000000	56.408960
1810.000000	56.243871
1800.000000	56.054490
1790.000000	55.883357
1780.000000	55.812296
1770.000000	55.726084
1760.000000	55.531026
1750.000000	55.377682
1740.000000	55.364881
1730.000000	55.939228
1720.000000	56.320575
1710.000000	56.632767
1700.000000	57.086520
1690.000000	57.857525
1680.000000	58.522161
1670.000000	58.838050
1660.000000	58.818065
1650.000000	58.794335
1640.000000	58.593847
1630.000000	58.438645
1620.000000	58.088251
1610.000000	57.862097
1600.000000	57.671880
1590.000000	57.468647
1580.000000	57.292303
1570.000000	57.044848
1560.000000	56.872512
1550.000000	56.535352
1540.000000	56.072418
1530.000000	55.873646
1520.000000	55.774649
1510.000000	55.785284
1500.000000	55.818071
1490.000000	55.916541
1480.000000	56.151899
1470.000000	56.475930
1460.000000	56.970203
1450.000000	57.545329
1440.000000	58.177900
1430.000000	58.793355
1420.000000	59.976319
1410.000000	61.484856
1400.000000	62.541692
1390.000000	63.040932
1380.000000	63.230264
1370.000000	63.349654
1360.000000	63.339098
1350.000000	62.997519
1340.000000	62.911037
1330.000000	63.699863
1320.000000	64.577336
1310.000000	65.358601
1300.000000	65.569482
1290.000000	65.838741
1280.000000	65.707393
1270.000000	65.371366
1260.000000	65.324777
1250.000000	65.496732
1240.000000	65.637925
1230.000000	65.567173
1220.000000	65.380404
1210.000000	65.234467
1200.000000	65.402457
1190.000000	65.744144
1180.000000	65.874811
1170.000000	66.198606
1160.000000	66.477538
1150.000000	66.746321
1140.000000	66.884514
1130.000000	66.859340
1120.000000	66.794214
1110.000000	66.948857
1100.000000	67.041388
1090.000000	67.010685
1080.000000	67.015403
1070.000000	67.023304
1060.000000	67.074500
1050.000000	67.179326
1040.000000	67.164461
1030.000000	67.238342
1020.000000	67.659164
1010.000000	68.050594
1000.000000	68.027035
990.000000	68.146738
980.000000	68.201186
970.000000	68.313082
960.000000	68.465886
950.000000	68.601977
940.000000	68.621876
930.000000	68.670633
920.000000	68.785392
910.000000	68.969536
900.000000	69.529607
890.000000	69.091881
880.000000	69.500662
870.000000	69.536818
860.000000	69.695998
850.000000	70.035474
840.000000	70.119504
830.000000	70.360010
820.000000	70.664677
810.000000	70.594715
800.000000	70.789920
790.000000	70.801713
780.000000	70.898353
770.000000	71.076979
760.000000	70.964833
750.000000	71.433297
740.000000	71.315530
730.000000	71.490411
720.000000	71.727743
710.000000	71.732604
700.000000	71.700029
690.000000	71.890263
680.000000	71.951206
670.000000	72.231795
660.000000	72.129229
650.000000	72.155766
640.000000	72.272335
630.000000	72.321268
620.000000	72.328547
610.000000	72.346160
600.000000	72.343016
590.000000	72.373999
580.000000	72.276907
570.000000	72.299912
560.000000	72.145615
550.000000	71.972674
540.000000	71.909504
530.000000	71.727159
520.000000	71.509363
510.000000	71.265669
500.000000	70.912333
490.000000	70.503702
480.000000	70.184300
470.000000	69.709538
460.000000	69.047880
450.000000	68.107268
440.000000	67.020394
430.000000	65.673988
420.000000	63.896751
410.000000	61.691818
400.000000	59.021965
390.000000	56.299326
380.000000	53.125033
370.000000	49.399375
360.000000	45.696035
350.000000	41.630817
340.000000	37.835178
330.000000	34.356080
320.000000	31.624699
310.000000	29.067391
300.000000	27.995775
290.000000	24.708868
280.000000	22.344466
270.000000	22.247546
260.000000	22.597787
250.000000	22.425611
