PE UV       SUBTECH     SPECTRUM    ASCII       PEDS        4.00        
   -1
S-11775-012.Sample.Raw.asc
23/05/05
15:42:32.00
23/05/05
15:42:32.00
Administrator

250.000000
1
Lambda 750
750N8071901
PerkinElmer UV WinLab 6.0.4.0738 / 1.61.00 Lambda 900

0
0
3350/servo 860.8/2
0
0
UV/VIS
1
1
1
CommonBeamDepol,150mm sphere / downward view
0
0
0
0
Program
Program
3350/servo 860.8/2
3350/0.2 860.8/0.2
3350/0.2 860.8/0.2
0
1
 
 
 
0
 
860.8
319.2
860.8
Front
100
on
 
 
0
0
0
 
0
 
 
 
0
 
 
0
0
0
0
0
 
 
 
 
0
0


0
0
#HDR
-1
-1
#GR
nm
%R
1.0
0.0
2500.000000
-10.000000
226
8
73.259105
20.426533
#DATA
2500.000000	33.259522
2490.000000	31.127928
2480.000000	37.507428
2470.000000	35.480881
2460.000000	32.324231
2450.000000	40.111336
2440.000000	48.928123
2430.000000	39.664927
2420.000000	43.540046
2410.000000	42.400458
2400.000000	41.728421
2390.000000	39.206800
2380.000000	41.721104
2370.000000	42.185223
2360.000000	40.058746
2350.000000	40.346905
2340.000000	43.587408
2330.000000	40.526440
2320.000000	42.210335
2310.000000	41.709892
2300.000000	39.953872
2290.000000	39.154875
2280.000000	41.876326
2270.000000	41.204674
2260.000000	45.960244
2250.000000	45.000000
2240.000000	45.572768
2230.000000	46.545474
2220.000000	44.763191
2210.000000	43.933670
2200.000000	43.473584
2190.000000	45.453528
2180.000000	43.486535
2170.000000	45.050392
2160.000000	44.372660
2150.000000	46.236614
2140.000000	47.108062
2130.000000	46.885567
2120.000000	47.841064
2110.000000	46.859735
2100.000000	47.201690
2090.000000	46.043928
2080.000000	46.008539
2070.000000	44.242597
2060.000000	43.398315
2050.000000	44.610859
2040.000000	44.337714
2030.000000	44.648694
2020.000000	44.291583
2010.000000	42.936548
2000.000000	42.487653
1990.000000	41.440830
1980.000000	40.665489
1970.000000	39.018407
1960.000000	38.507924
1950.000000	39.651009
1940.000000	40.491401
1930.000000	44.019864
1920.000000	46.789441
1910.000000	51.163289
1900.000000	54.537535
1890.000000	55.064994
1880.000000	57.438952
1870.000000	58.697126
1860.000000	58.020872
1850.000000	57.202146
1840.000000	57.416656
1830.000000	57.413882
1820.000000	57.306947
1810.000000	57.546890
1800.000000	57.254250
1790.000000	57.230592
1780.000000	56.722720
1770.000000	56.122592
1760.000000	56.015836
1750.000000	56.309343
1740.000000	55.948527
1730.000000	56.743664
1720.000000	57.035674
1710.000000	57.604139
1700.000000	58.027587
1690.000000	58.984147
1680.000000	59.651782
1670.000000	59.646083
1660.000000	59.584308
1650.000000	59.624531
1640.000000	59.623274
1630.000000	59.376659
1620.000000	58.936913
1610.000000	59.054973
1600.000000	58.808185
1590.000000	58.536191
1580.000000	58.260729
1570.000000	58.077082
1560.000000	57.805595
1550.000000	57.415837
1540.000000	56.894618
1530.000000	56.760329
1520.000000	56.741146
1510.000000	56.667206
1500.000000	56.624095
1490.000000	56.498028
1480.000000	56.571122
1470.000000	57.032535
1460.000000	57.117524
1450.000000	57.376060
1440.000000	57.500443
1430.000000	58.224744
1420.000000	60.187138
1410.000000	62.696343
1400.000000	64.501218
1390.000000	65.277257
1380.000000	64.791940
1370.000000	64.882542
1360.000000	64.652408
1350.000000	63.816477
1340.000000	62.779505
1330.000000	64.779494
1320.000000	67.262799
1310.000000	69.171656
1300.000000	70.536875
1290.000000	71.267812
1280.000000	70.676680
1270.000000	70.005367
1260.000000	69.373400
1250.000000	69.676787
1240.000000	69.852449
1230.000000	69.770025
1220.000000	69.457541
1210.000000	69.356434
1200.000000	69.677846
1190.000000	70.176743
1180.000000	69.970457
1170.000000	70.333603
1160.000000	70.494264
1150.000000	70.328151
1140.000000	70.525034
1130.000000	70.570091
1120.000000	70.699108
1110.000000	70.754745
1100.000000	70.672954
1090.000000	70.365777
1080.000000	69.732444
1070.000000	69.410044
1060.000000	69.156362
1050.000000	68.569573
1040.000000	68.234855
1030.000000	68.454159
1020.000000	69.136846
1010.000000	69.986686
1000.000000	70.087192
990.000000	69.750072
980.000000	69.651376
970.000000	69.585433
960.000000	69.753818
950.000000	69.895107
940.000000	69.782231
930.000000	69.482146
920.000000	69.585645
910.000000	69.610370
900.000000	69.312408
890.000000	70.273957
880.000000	70.323755
870.000000	69.184079
860.000000	69.162656
850.000000	72.366638
840.000000	72.900852
830.000000	73.162690
820.000000	73.259105
810.000000	72.909568
800.000000	73.122643
790.000000	73.140866
780.000000	72.909168
770.000000	72.889312
760.000000	72.869039
750.000000	72.630408
740.000000	72.983376
730.000000	72.856024
720.000000	72.578703
710.000000	72.540887
700.000000	72.288923
690.000000	72.014642
680.000000	72.055045
670.000000	71.436366
660.000000	71.520286
650.000000	71.117187
640.000000	70.630991
630.000000	70.416771
620.000000	70.020044
610.000000	69.409617
600.000000	68.892741
590.000000	68.077665
580.000000	67.388029
570.000000	66.805358
560.000000	65.622690
550.000000	64.718359
540.000000	63.557447
530.000000	62.423307
520.000000	61.306802
510.000000	59.807772
500.000000	58.256173
490.000000	56.561476
480.000000	55.012884
470.000000	53.255798
460.000000	51.193409
450.000000	49.242319
440.000000	46.906128
430.000000	44.764129
420.000000	42.429384
410.000000	39.910008
400.000000	37.501312
390.000000	34.993618
380.000000	32.650308
370.000000	30.503395
360.000000	28.621008
350.000000	26.541204
340.000000	24.811740
330.000000	22.837582
320.000000	20.426533
310.000000	20.496293
300.000000	20.833075
290.000000	20.450741
280.000000	20.585922
270.000000	21.930834
260.000000	23.476671
250.000000	25.926495
