PE UV       SUBTECH     SPECTRUM    ASCII       PEDS        4.00        
   -1
S-11768-003.Sample.Raw.asc
23/01/26
16:42:16.00
23/01/26
16:42:16.00
Administrator

250.000000
1
Lambda 750
750N8071901
PerkinElmer UV WinLab 6.0.4.0738 / 1.61.00 Lambda 900

0
0
3350/servo 860.8/2
0
0
UV/VIS
1
1
1
CommonBeamDepol,150mm sphere / downward view
0
0
0
0
Program
Program
3350/servo 860.8/2
3350/0.2 860.8/0.2
3350/0.2 860.8/0.2
0
1
 
 
 
0
 
860.8
319.2
860.8
Front
100
on
 
 
0
0
0
 
0
 
 
 
0
 
 
0
0
0
0
0
 
 
 
 
0
0


0
0
#HDR
-1
-1
#GR
nm
%R
1.0
0.0
2500.000000
-10.000000
226
8
86.946820
15.283668
#DATA
2500.000000	24.417724
2490.000000	22.859204
2480.000000	26.592693
2470.000000	24.764900
2460.000000	26.713906
2450.000000	24.968934
2440.000000	26.748138
2430.000000	28.001834
2420.000000	29.127547
2410.000000	30.445701
2400.000000	30.587793
2390.000000	28.763435
2380.000000	27.833091
2370.000000	28.871638
2360.000000	29.947191
2350.000000	30.366217
2340.000000	28.930468
2330.000000	28.096498
2320.000000	27.717985
2310.000000	28.004457
2300.000000	27.065069
2290.000000	27.478578
2280.000000	28.289499
2270.000000	30.503789
2260.000000	32.557560
2250.000000	34.329543
2240.000000	34.443843
2230.000000	33.734684
2220.000000	33.010746
2210.000000	32.150138
2200.000000	31.651002
2190.000000	30.788415
2180.000000	32.437982
2170.000000	33.930909
2160.000000	35.277872
2150.000000	36.688715
2140.000000	37.048764
2130.000000	37.212007
2120.000000	38.058356
2110.000000	38.364240
2100.000000	37.387631
2090.000000	36.297603
2080.000000	34.942631
2070.000000	32.966572
2060.000000	32.538474
2050.000000	32.664472
2040.000000	33.911751
2030.000000	33.883841
2020.000000	33.060309
2010.000000	31.769616
2000.000000	30.531548
1990.000000	29.281148
1980.000000	27.631040
1970.000000	26.689765
1960.000000	26.526231
1950.000000	27.098353
1940.000000	29.651103
1930.000000	33.667792
1920.000000	39.130827
1910.000000	46.414004
1900.000000	52.070554
1890.000000	56.342218
1880.000000	58.693602
1870.000000	59.724668
1860.000000	59.903263
1850.000000	59.537906
1840.000000	59.215913
1830.000000	58.842363
1820.000000	58.543922
1810.000000	58.343866
1800.000000	57.980098
1790.000000	57.408904
1780.000000	56.876896
1770.000000	56.242162
1760.000000	55.849412
1750.000000	55.401046
1740.000000	55.657483
1730.000000	56.927091
1720.000000	57.716566
1710.000000	58.240931
1700.000000	59.469834
1690.000000	61.463676
1680.000000	63.117366
1670.000000	63.773517
1660.000000	63.925739
1650.000000	63.645605
1640.000000	63.124135
1630.000000	62.500269
1620.000000	61.808549
1610.000000	61.022174
1600.000000	60.431029
1590.000000	59.874455
1580.000000	59.330284
1570.000000	59.019286
1560.000000	58.356463
1550.000000	57.334280
1540.000000	56.384334
1530.000000	55.906480
1520.000000	55.507030
1510.000000	55.446207
1500.000000	55.609892
1490.000000	55.989270
1480.000000	56.454551
1470.000000	57.164005
1460.000000	58.116497
1450.000000	59.532969
1440.000000	61.120796
1430.000000	63.100887
1420.000000	65.847690
1410.000000	68.722684
1400.000000	71.169249
1390.000000	72.481650
1380.000000	72.943620
1370.000000	73.494507
1360.000000	73.920885
1350.000000	74.332189
1340.000000	74.857262
1330.000000	75.671094
1320.000000	76.438914
1310.000000	76.920915
1300.000000	77.036766
1290.000000	76.965061
1280.000000	77.000956
1270.000000	76.948685
1260.000000	77.025608
1250.000000	77.010555
1240.000000	77.018717
1230.000000	76.787311
1220.000000	76.414882
1210.000000	76.155055
1200.000000	76.361029
1190.000000	76.786730
1180.000000	77.448131
1170.000000	78.233509
1160.000000	78.929886
1150.000000	79.463653
1140.000000	79.826573
1130.000000	80.063255
1120.000000	80.148963
1110.000000	80.408003
1100.000000	80.463347
1090.000000	80.529245
1080.000000	80.581777
1070.000000	80.731670
1060.000000	80.642832
1050.000000	80.736571
1040.000000	80.866223
1030.000000	81.165291
1020.000000	81.590076
1010.000000	82.076202
1000.000000	82.155237
990.000000	82.236239
980.000000	82.454845
970.000000	82.657847
960.000000	82.791351
950.000000	83.075729
940.000000	83.152153
930.000000	83.288710
920.000000	83.447686
910.000000	84.031584
900.000000	83.859989
890.000000	84.133683
880.000000	84.510743
870.000000	84.463993
860.000000	84.876642
850.000000	84.133444
840.000000	85.247063
830.000000	85.069048
820.000000	85.319961
810.000000	85.293938
800.000000	85.333583
790.000000	85.703843
780.000000	85.828153
770.000000	85.609926
760.000000	85.823040
750.000000	86.194931
740.000000	85.971713
730.000000	86.256081
720.000000	86.310670
710.000000	86.716575
700.000000	86.579333
690.000000	86.620912
680.000000	86.803643
670.000000	86.739423
660.000000	86.899411
650.000000	86.881558
640.000000	86.946820
630.000000	86.822507
620.000000	86.664018
610.000000	86.348703
600.000000	86.152453
590.000000	85.936316
580.000000	85.413641
570.000000	85.226722
560.000000	84.625279
550.000000	83.927520
540.000000	83.231485
530.000000	82.482638
520.000000	81.609401
510.000000	80.597320
500.000000	79.289779
490.000000	77.875420
480.000000	75.963204
470.000000	74.234241
460.000000	72.246873
450.000000	69.704862
440.000000	66.587442
430.000000	63.154784
420.000000	58.978991
410.000000	54.630596
400.000000	50.120567
390.000000	45.675703
380.000000	41.415327
370.000000	36.932485
360.000000	32.962347
350.000000	29.627611
340.000000	26.669657
330.000000	24.361838
320.000000	22.260629
310.000000	21.467899
300.000000	18.411750
290.000000	16.102537
280.000000	15.283668
270.000000	15.476951
260.000000	16.110172
250.000000	16.285369
