PE UV       SUBTECH     SPECTRUM    ASCII       PEDS        4.00        
   -1
S-11753-013.Sample.Raw.asc
23/05/05
16:17:57.00
23/05/05
16:17:57.00
Administrator

250.000000
1
Lambda 750
750N8071901
PerkinElmer UV WinLab 6.0.4.0738 / 1.61.00 Lambda 900

0
0
3350/servo 860.8/2
0
0
UV/VIS
1
1
1
CommonBeamDepol,150mm sphere / downward view
0
0
0
0
Program
Program
3350/servo 860.8/2
3350/0.2 860.8/0.2
3350/0.2 860.8/0.2
0
1
 
 
 
0
 
860.8
319.2
860.8
Front
100
on
 
 
0
0
0
 
0
 
 
 
0
 
 
0
0
0
0
0
 
 
 
 
0
0


0
0
#HDR
-1
-1
#GR
nm
%R
1.0
0.0
2500.000000
-10.000000
226
8
61.718469
21.201441
#DATA
2500.000000	24.637132
2490.000000	21.201441
2480.000000	22.823568
2470.000000	22.156767
2460.000000	27.748297
2450.000000	31.945424
2440.000000	30.177852
2430.000000	27.473093
2420.000000	26.311948
2410.000000	27.425843
2400.000000	28.587414
2390.000000	29.253161
2380.000000	31.139854
2370.000000	30.863451
2360.000000	31.819650
2350.000000	32.054640
2340.000000	30.737724
2330.000000	29.440547
2320.000000	26.894355
2310.000000	27.695251
2300.000000	24.798192
2290.000000	28.123876
2280.000000	30.126983
2270.000000	30.368851
2260.000000	33.327087
2250.000000	34.563803
2240.000000	33.133658
2230.000000	33.881886
2220.000000	31.414215
2210.000000	30.363863
2200.000000	31.529405
2190.000000	31.596546
2180.000000	31.206315
2170.000000	33.982978
2160.000000	33.042231
2150.000000	32.685798
2140.000000	35.183404
2130.000000	35.383243
2120.000000	35.852892
2110.000000	37.288332
2100.000000	36.289798
2090.000000	34.840443
2080.000000	34.010030
2070.000000	32.392188
2060.000000	31.405248
2050.000000	31.726116
2040.000000	31.959064
2030.000000	32.137683
2020.000000	31.594029
2010.000000	30.191593
2000.000000	29.419342
1990.000000	28.407842
1980.000000	26.910462
1970.000000	24.910808
1960.000000	24.603045
1950.000000	26.511280
1940.000000	28.732659
1930.000000	31.855067
1920.000000	35.621865
1910.000000	41.026796
1900.000000	44.746323
1890.000000	46.348935
1880.000000	48.666568
1870.000000	48.961320
1860.000000	49.139414
1850.000000	48.491059
1840.000000	48.666573
1830.000000	48.204187
1820.000000	48.217114
1810.000000	48.195502
1800.000000	47.696970
1790.000000	47.354085
1780.000000	47.242112
1770.000000	46.713081
1760.000000	46.318866
1750.000000	46.438483
1740.000000	46.541794
1730.000000	47.098570
1720.000000	47.685575
1710.000000	47.808727
1700.000000	48.840451
1690.000000	49.750061
1680.000000	50.597533
1670.000000	50.582120
1660.000000	50.702532
1650.000000	50.668427
1640.000000	50.267088
1630.000000	50.014743
1620.000000	49.480116
1610.000000	48.932737
1600.000000	48.532275
1590.000000	48.272893
1580.000000	47.811574
1570.000000	47.705517
1560.000000	47.281380
1550.000000	46.757070
1540.000000	45.946165
1530.000000	45.814718
1520.000000	45.499878
1510.000000	45.365559
1500.000000	45.207021
1490.000000	45.350771
1480.000000	45.707093
1470.000000	46.220229
1460.000000	46.498999
1450.000000	47.009924
1440.000000	46.979910
1430.000000	47.838549
1420.000000	50.342127
1410.000000	53.255680
1400.000000	55.654771
1390.000000	56.266302
1380.000000	55.969485
1370.000000	56.392342
1360.000000	56.073667
1350.000000	55.072453
1340.000000	54.062960
1330.000000	54.585322
1320.000000	55.945257
1310.000000	57.386767
1300.000000	58.317524
1290.000000	59.158329
1280.000000	58.569591
1270.000000	57.887950
1260.000000	57.319270
1250.000000	57.541265
1240.000000	57.734527
1230.000000	57.720377
1220.000000	57.295228
1210.000000	57.024203
1200.000000	57.131389
1190.000000	57.586122
1180.000000	57.720672
1170.000000	58.293689
1160.000000	58.358781
1150.000000	58.557518
1140.000000	58.775384
1130.000000	58.935283
1120.000000	58.538835
1110.000000	58.902003
1100.000000	59.002815
1090.000000	59.025518
1080.000000	59.056360
1070.000000	58.966671
1060.000000	59.269766
1050.000000	58.875577
1040.000000	59.089800
1030.000000	59.431157
1020.000000	60.070604
1010.000000	60.995439
1000.000000	60.894032
990.000000	60.487911
980.000000	60.826471
970.000000	60.538442
960.000000	60.638645
950.000000	60.610034
940.000000	60.164958
930.000000	60.054862
920.000000	60.216765
910.000000	59.810738
900.000000	59.935976
890.000000	61.017555
880.000000	60.038400
870.000000	60.243831
860.000000	60.092017
850.000000	60.433470
840.000000	60.105065
830.000000	60.654198
820.000000	60.978052
810.000000	60.585933
800.000000	60.796014
790.000000	61.014630
780.000000	60.879753
770.000000	61.109310
760.000000	61.244009
750.000000	61.155479
740.000000	61.427366
730.000000	61.350742
720.000000	61.383107
710.000000	61.425713
700.000000	61.633316
690.000000	61.347469
680.000000	61.675589
670.000000	61.424072
660.000000	61.718295
650.000000	61.647401
640.000000	61.423395
630.000000	61.718469
620.000000	61.598701
610.000000	61.524471
600.000000	61.536337
590.000000	61.410080
580.000000	61.340139
570.000000	61.301640
560.000000	61.197197
550.000000	61.007382
540.000000	60.855207
530.000000	60.564740
520.000000	60.561751
510.000000	60.288342
500.000000	60.038304
490.000000	59.563934
480.000000	59.026822
470.000000	58.764320
460.000000	58.089435
450.000000	57.367893
440.000000	56.422060
430.000000	55.052885
420.000000	53.225178
410.000000	51.048980
400.000000	48.556296
390.000000	46.271235
380.000000	43.570191
370.000000	40.865222
360.000000	38.739090
350.000000	35.664528
340.000000	32.568339
330.000000	30.034884
320.000000	28.363823
310.000000	24.945117
300.000000	26.252469
290.000000	24.084826
280.000000	23.186085
270.000000	24.634378
260.000000	27.207439
250.000000	30.334315
