PE UV       SUBTECH     SPECTRUM    ASCII       PEDS        4.00        
   -1
005-2G-BD1-NR001-C001.Sample.asc
24/01/08
16:40:50.00
24/01/08
16:40:50.00
Administrator

250.000000
1
Lambda 750
750N8071901
PerkinElmer UV WinLab 6.0.4.0738 / 1.61.00 Lambda 900

0
0
3350/servo 860.8/2
0
0
UV/VIS
1
1
1
CommonBeamDepol,150mm sphere / downward view
0
0
0
0
Program
Program
3350/servo 860.8/2
3350/0.2 860.8/0.2
3350/0.2 860.8/0.2
0
1
 
 
 
0
 
860.8
319.2
860.8
Front
100
on
 
 
0
0
0
 
0
 
 
 
0
 
 
0
0
0
0
0
 
 
 
 
0
0


0
0
#HDR
-1
-1
#GR
nm
%R
1.0
0.0
2500.000000
-10.000000
226
8
78.086560
0.000000
#DATA
2500.000000	0.000000
2490.000000	5.987139
2480.000000	5.061507
2470.000000	2.219834
2460.000000	4.759571
2450.000000	5.511448
2440.000000	6.806147
2430.000000	7.922307
2420.000000	6.089654
2410.000000	6.782001
2400.000000	7.131930
2390.000000	7.276476
2380.000000	7.385395
2370.000000	6.003051
2360.000000	7.927205
2350.000000	7.134493
2340.000000	7.677910
2330.000000	7.084532
2320.000000	6.984297
2310.000000	6.226802
2300.000000	6.346691
2290.000000	6.697378
2280.000000	6.863494
2270.000000	7.327113
2260.000000	8.979658
2250.000000	10.401457
2240.000000	11.376834
2230.000000	11.517690
2220.000000	10.922479
2210.000000	10.738505
2200.000000	10.028016
2190.000000	10.164975
2180.000000	9.595239
2170.000000	10.182012
2160.000000	10.142021
2150.000000	12.011699
2140.000000	13.304233
2130.000000	13.767801
2120.000000	14.385063
2110.000000	14.992906
2100.000000	14.739879
2090.000000	14.490910
2080.000000	13.793234
2070.000000	11.999341
2060.000000	11.062567
2050.000000	11.131197
2040.000000	11.642281
2030.000000	12.358590
2020.000000	12.400972
2010.000000	11.958336
2000.000000	10.835744
1990.000000	10.349697
1980.000000	9.660784
1970.000000	8.947376
1960.000000	8.713796
1950.000000	8.419941
1940.000000	8.678130
1930.000000	10.055274
1920.000000	12.363849
1910.000000	16.784664
1900.000000	23.084530
1890.000000	29.446848
1880.000000	34.815135
1870.000000	37.757909
1860.000000	39.248645
1850.000000	39.378544
1840.000000	38.775906
1830.000000	38.128286
1820.000000	37.559330
1810.000000	36.669080
1800.000000	36.038001
1790.000000	35.532893
1780.000000	34.405486
1770.000000	33.340200
1760.000000	32.450331
1750.000000	31.492644
1740.000000	30.540322
1730.000000	31.138057
1720.000000	32.759729
1710.000000	34.055202
1700.000000	35.122835
1690.000000	37.407686
1680.000000	41.151401
1670.000000	44.285399
1660.000000	45.702002
1650.000000	45.947936
1640.000000	45.397619
1630.000000	44.439864
1620.000000	43.285001
1610.000000	41.869655
1600.000000	40.629614
1590.000000	39.390295
1580.000000	38.385907
1570.000000	37.577137
1560.000000	36.954117
1550.000000	36.099719
1540.000000	34.631942
1530.000000	33.243058
1520.000000	32.378630
1510.000000	31.873652
1500.000000	31.742689
1490.000000	32.089871
1480.000000	32.841541
1470.000000	33.531792
1460.000000	34.439539
1450.000000	35.679984
1440.000000	37.533236
1430.000000	40.060682
1420.000000	43.777742
1410.000000	48.688120
1400.000000	53.704391
1390.000000	58.155854
1380.000000	61.178016
1370.000000	63.049382
1360.000000	65.043071
1350.000000	67.022916
1340.000000	68.940435
1330.000000	70.529779
1320.000000	71.588510
1310.000000	72.123169
1300.000000	72.143224
1290.000000	71.829087
1280.000000	71.564464
1270.000000	71.827829
1260.000000	71.891367
1250.000000	71.645390
1240.000000	70.915379
1230.000000	69.713494
1220.000000	68.663436
1210.000000	67.617136
1200.000000	66.705518
1190.000000	66.682212
1180.000000	67.896206
1170.000000	70.118870
1160.000000	72.501850
1150.000000	74.412354
1140.000000	76.050114
1130.000000	77.210024
1120.000000	77.642464
1110.000000	77.853743
1100.000000	77.932807
1090.000000	77.923758
1080.000000	77.753853
1070.000000	77.511501
1060.000000	77.262846
1050.000000	77.096333
1040.000000	76.907025
1030.000000	76.836149
1020.000000	76.799917
1010.000000	76.879225
1000.000000	77.110424
990.000000	77.264263
980.000000	77.411969
970.000000	77.682236
960.000000	77.953216
950.000000	78.086560
940.000000	78.066403
930.000000	77.980134
920.000000	77.726719
910.000000	77.586063
900.000000	77.661072
890.000000	77.555932
880.000000	77.771368
870.000000	78.083043
860.000000	77.806489
850.000000	76.903887
840.000000	77.309229
830.000000	77.245769
820.000000	76.919671
810.000000	76.059811
800.000000	75.656295
790.000000	75.473826
780.000000	74.750921
770.000000	74.020024
760.000000	73.471987
750.000000	72.644922
740.000000	71.710375
730.000000	70.734762
720.000000	69.682473
710.000000	68.545384
700.000000	67.145332
690.000000	65.785854
680.000000	64.208481
670.000000	62.506865
660.000000	60.736958
650.000000	59.028074
640.000000	57.138647
630.000000	55.355018
620.000000	53.601837
610.000000	51.789538
600.000000	49.869809
590.000000	48.038906
580.000000	46.291336
570.000000	44.556794
560.000000	42.887875
550.000000	41.313871
540.000000	39.689536
530.000000	38.024849
520.000000	36.480361
510.000000	34.948619
500.000000	33.488075
490.000000	31.865636
480.000000	30.296009
470.000000	28.778789
460.000000	27.272956
450.000000	25.880141
440.000000	24.221142
430.000000	22.765588
420.000000	21.319811
410.000000	20.044182
400.000000	18.994156
390.000000	18.231317
380.000000	17.531819
370.000000	16.852293
360.000000	16.157189
350.000000	14.875996
340.000000	14.540969
330.000000	13.175877
320.000000	12.619300
310.000000	12.215628
300.000000	11.681715
290.000000	11.191316
280.000000	7.919660
270.000000	5.504027
260.000000	4.476650
250.000000	4.111132
