PE UV       SUBTECH     SPECTRUM    ASCII       PEDS        4.00        
   -1
008-1S-XXX-NR001-F001.Sample.asc
24/01/08
17:28:47.00
24/01/08
17:28:47.00
Administrator

250.000000
1
Lambda 750
750N8071901
PerkinElmer UV WinLab 6.0.4.0738 / 1.61.00 Lambda 900

0
0
3350/servo 860.8/2
0
0
UV/VIS
1
1
1
CommonBeamDepol,150mm sphere / downward view
0
0
0
0
Program
Program
3350/servo 860.8/2
3350/0.2 860.8/0.2
3350/0.2 860.8/0.2
0
1
 
 
 
0
 
860.8
319.2
860.8
Front
100
on
 
 
0
0
0
 
0
 
 
 
0
 
 
0
0
0
0
0
 
 
 
 
0
0


0
0
#HDR
-1
-1
#GR
nm
%R
1.0
0.0
2500.000000
-10.000000
226
8
43.564260
-0.446818
#DATA
2500.000000	0.000000
2490.000000	0.566885
2480.000000	0.163206
2470.000000	-0.446818
2460.000000	3.134743
2450.000000	2.972301
2440.000000	4.685953
2430.000000	5.480081
2420.000000	2.284037
2410.000000	3.366976
2400.000000	3.161868
2390.000000	4.498630
2380.000000	3.279307
2370.000000	3.758671
2360.000000	4.846520
2350.000000	4.059266
2340.000000	4.460790
2330.000000	4.450926
2320.000000	3.602689
2310.000000	3.336978
2300.000000	3.911405
2290.000000	4.780488
2280.000000	5.334636
2270.000000	5.048400
2260.000000	7.108239
2250.000000	7.795751
2240.000000	8.510563
2230.000000	9.457176
2220.000000	8.636144
2210.000000	8.901001
2200.000000	7.765159
2190.000000	7.460986
2180.000000	7.605554
2170.000000	7.067329
2160.000000	7.823172
2150.000000	9.886711
2140.000000	10.125391
2130.000000	10.792206
2120.000000	11.403870
2110.000000	11.457488
2100.000000	11.545044
2090.000000	11.275419
2080.000000	10.468277
2070.000000	8.935007
2060.000000	8.273275
2050.000000	7.982469
2040.000000	8.450217
2030.000000	8.775716
2020.000000	9.093686
2010.000000	8.530327
2000.000000	7.643891
1990.000000	6.862211
1980.000000	6.066700
1970.000000	5.260807
1960.000000	4.832124
1950.000000	4.586545
1940.000000	4.987212
1930.000000	6.350685
1920.000000	8.526660
1910.000000	12.483140
1900.000000	16.819061
1890.000000	20.984521
1880.000000	24.179672
1870.000000	26.019532
1860.000000	26.299573
1850.000000	26.587549
1840.000000	26.365398
1830.000000	25.836748
1820.000000	25.675097
1810.000000	25.229531
1800.000000	24.887945
1790.000000	24.683611
1780.000000	23.895973
1770.000000	23.157367
1760.000000	22.861349
1750.000000	22.156721
1740.000000	21.303904
1730.000000	21.821896
1720.000000	22.840407
1710.000000	23.901870
1700.000000	24.662392
1690.000000	25.991673
1680.000000	27.738171
1670.000000	29.376021
1660.000000	30.036990
1650.000000	30.085372
1640.000000	29.830466
1630.000000	29.401527
1620.000000	28.929548
1610.000000	28.365812
1600.000000	27.717314
1590.000000	27.114691
1580.000000	26.674542
1570.000000	26.138593
1560.000000	25.878056
1550.000000	25.436755
1540.000000	24.686551
1530.000000	23.865716
1520.000000	23.416041
1510.000000	23.067773
1500.000000	22.988870
1490.000000	23.036762
1480.000000	23.335407
1470.000000	23.682326
1460.000000	24.092362
1450.000000	24.717371
1440.000000	25.717282
1430.000000	27.036260
1420.000000	28.872386
1410.000000	31.124122
1400.000000	33.423774
1390.000000	35.478158
1380.000000	36.830076
1370.000000	37.566097
1360.000000	38.258265
1350.000000	38.988961
1340.000000	39.620625
1330.000000	40.334877
1320.000000	41.010567
1310.000000	41.262201
1300.000000	41.273823
1290.000000	41.021432
1280.000000	40.769779
1270.000000	40.807447
1260.000000	40.860047
1250.000000	40.866761
1240.000000	40.596047
1230.000000	39.999409
1220.000000	39.459439
1210.000000	39.144470
1200.000000	38.997364
1190.000000	39.023259
1180.000000	39.515353
1170.000000	40.245976
1160.000000	41.173756
1150.000000	41.877820
1140.000000	42.394592
1130.000000	42.756875
1120.000000	42.893474
1110.000000	42.953607
1100.000000	43.053237
1090.000000	43.099699
1080.000000	43.017746
1070.000000	42.925025
1060.000000	42.807082
1050.000000	42.820419
1040.000000	42.700321
1030.000000	42.657856
1020.000000	42.581427
1010.000000	42.642499
1000.000000	42.866883
990.000000	42.864827
980.000000	42.879217
970.000000	43.060184
960.000000	43.143475
950.000000	43.170724
940.000000	43.255252
930.000000	43.296547
920.000000	43.108980
910.000000	43.301287
900.000000	43.167980
890.000000	43.279369
880.000000	43.299658
870.000000	43.492901
860.000000	43.564260
850.000000	43.102978
840.000000	43.176688
830.000000	43.032476
820.000000	43.016963
810.000000	42.952007
800.000000	42.797666
790.000000	42.815793
780.000000	42.481946
770.000000	42.603503
760.000000	42.375035
750.000000	42.281975
740.000000	41.921050
730.000000	41.822773
720.000000	41.493123
710.000000	41.315594
700.000000	40.835447
690.000000	40.624530
680.000000	40.245572
670.000000	39.751902
660.000000	39.195778
650.000000	38.711728
640.000000	38.059152
630.000000	37.358537
620.000000	36.631828
610.000000	35.939377
600.000000	35.273984
590.000000	34.651022
580.000000	34.038795
570.000000	33.391063
560.000000	32.706165
550.000000	32.151106
540.000000	31.482399
530.000000	30.696063
520.000000	29.922604
510.000000	29.124950
500.000000	28.282440
490.000000	27.109857
480.000000	25.805523
470.000000	24.265057
460.000000	22.749414
450.000000	20.999360
440.000000	18.894637
430.000000	16.679074
420.000000	14.154593
410.000000	11.543182
400.000000	9.876671
390.000000	9.284807
380.000000	8.625297
370.000000	7.764037
360.000000	6.881262
350.000000	5.690950
340.000000	5.491514
330.000000	4.720908
320.000000	4.419297
310.000000	4.086935
300.000000	3.956710
290.000000	3.308181
280.000000	2.756319
270.000000	2.605123
260.000000	2.748857
250.000000	3.067544
