PE UV       SUBTECH     SPECTRUM    ASCII       PEDS        4.00        
   -1
RTmsopph192.Sample.asc
18/03/21
09:42:13.00
18/03/21
09:42:13.00
Administrator

200.000000
1
Lambda 750
750N8071901
PerkinElmer UV WinLab 6.0.4.0738 / 1.61.00 Lambda 900

0
0
3350/servo 860.8/2
0
0
UV/VIS
1
1
1
CommonBeamDepol,150mm sphere / downward view
0
0
0
0
Program
Program
3350/servo 860.8/2
3350/0.2 860.8/0.2
3350/0.2 860.8/0.2
0
1
 
 
 
0
 
860.8
319.2
860.8
Front
100
on
 
 
0
0
0
 
0
 
 
 
0
 
 
0
0
0
0
0
 
 
 
 
0
0


0
0
#HDR
-1
-1
#GR
nm
%R
1.0
0.0
2350.000000
-1.000000
2151
8
66.992537
11.006624
#DATA
2350.000000	28.769868
2349.000000	28.511270
2348.000000	28.246035
2347.000000	29.054409
2346.000000	29.167030
2345.000000	28.789391
2344.000000	28.748045
2343.000000	28.355886
2342.000000	28.687613
2341.000000	28.801582
2340.000000	28.861903
2339.000000	28.872713
2338.000000	29.182479
2337.000000	29.340118
2336.000000	29.255455
2335.000000	29.144526
2334.000000	29.229964
2333.000000	29.323528
2332.000000	29.440974
2331.000000	29.471743
2330.000000	29.114327
2329.000000	29.282525
2328.000000	29.159557
2327.000000	29.123677
2326.000000	29.341192
2325.000000	29.060792
2324.000000	29.152801
2323.000000	28.896644
2322.000000	28.887151
2321.000000	29.185911
2320.000000	29.338502
2319.000000	29.054184
2318.000000	29.126984
2317.000000	29.066165
2316.000000	29.000015
2315.000000	28.815152
2314.000000	28.757315
2313.000000	28.768218
2312.000000	28.556804
2311.000000	28.486520
2310.000000	28.523027
2309.000000	28.444023
2308.000000	28.476833
2307.000000	28.440426
2306.000000	28.341416
2305.000000	28.213285
2304.000000	28.120864
2303.000000	28.005311
2302.000000	28.036866
2301.000000	28.013829
2300.000000	27.941765
2299.000000	27.852443
2298.000000	27.717146
2297.000000	27.601831
2296.000000	27.476125
2295.000000	27.427396
2294.000000	27.552469
2293.000000	27.417858
2292.000000	27.211396
2291.000000	27.294750
2290.000000	27.204135
2289.000000	27.105922
2288.000000	27.206884
2287.000000	27.084295
2286.000000	26.951243
2285.000000	26.964783
2284.000000	26.934430
2283.000000	26.761480
2282.000000	26.718560
2281.000000	26.745590
2280.000000	26.870938
2279.000000	26.983822
2278.000000	26.877173
2277.000000	27.047363
2276.000000	27.151293
2275.000000	27.098948
2274.000000	27.220221
2273.000000	27.331894
2272.000000	27.269552
2271.000000	27.184960
2270.000000	27.137188
2269.000000	27.217503
2268.000000	27.215930
2267.000000	27.403748
2266.000000	27.391989
2265.000000	27.459220
2264.000000	27.798108
2263.000000	27.875382
2262.000000	28.049689
2261.000000	28.285034
2260.000000	28.349015
2259.000000	28.450075
2258.000000	28.652945
2257.000000	28.958770
2256.000000	29.071773
2255.000000	29.065969
2254.000000	29.162892
2253.000000	29.433906
2252.000000	29.667372
2251.000000	29.776476
2250.000000	29.833848
2249.000000	30.134846
2248.000000	30.497026
2247.000000	30.659714
2246.000000	30.895973
2245.000000	31.045804
2244.000000	31.111136
2243.000000	31.284240
2242.000000	31.517157
2241.000000	31.724883
2240.000000	31.784691
2239.000000	31.908273
2238.000000	31.982937
2237.000000	32.107029
2236.000000	32.246920
2235.000000	32.355830
2234.000000	32.437936
2233.000000	32.480667
2232.000000	32.562589
2231.000000	32.606723
2230.000000	32.669240
2229.000000	32.726282
2228.000000	32.838659
2227.000000	32.788614
2226.000000	32.625552
2225.000000	32.658460
2224.000000	32.639019
2223.000000	32.585647
2222.000000	32.640317
2221.000000	32.641178
2220.000000	32.721033
2219.000000	32.683037
2218.000000	32.525940
2217.000000	32.638952
2216.000000	32.632656
2215.000000	32.491297
2214.000000	32.476003
2213.000000	32.570837
2212.000000	32.431338
2211.000000	32.138251
2210.000000	32.135462
2209.000000	32.082509
2208.000000	32.071792
2207.000000	32.150238
2206.000000	32.054496
2205.000000	31.969494
2204.000000	31.804863
2203.000000	31.857150
2202.000000	31.783244
2201.000000	31.642507
2200.000000	31.666118
2199.000000	31.581701
2198.000000	31.556504
2197.000000	31.429582
2196.000000	31.272588
2195.000000	31.259461
2194.000000	31.149145
2193.000000	31.129232
2192.000000	31.116906
2191.000000	30.980449
2190.000000	30.909718
2189.000000	30.782203
2188.000000	30.666351
2187.000000	30.630560
2186.000000	30.704031
2185.000000	30.631844
2184.000000	30.649620
2183.000000	30.640585
2182.000000	30.561467
2181.000000	30.451693
2180.000000	30.447080
2179.000000	30.480877
2178.000000	30.433643
2177.000000	30.439063
2176.000000	30.543376
2175.000000	30.512047
2174.000000	30.544765
2173.000000	30.532484
2172.000000	30.632969
2171.000000	30.628244
2170.000000	30.757723
2169.000000	30.903707
2168.000000	30.954602
2167.000000	30.834449
2166.000000	31.012327
2165.000000	31.144883
2164.000000	31.145769
2163.000000	31.180172
2162.000000	31.458549
2161.000000	31.450633
2160.000000	31.465718
2159.000000	31.734001
2158.000000	31.783229
2157.000000	32.129650
2156.000000	32.368402
2155.000000	32.142641
2154.000000	32.339210
2153.000000	32.764799
2152.000000	32.754968
2151.000000	32.860275
2150.000000	32.867752
2149.000000	33.031427
2148.000000	33.107062
2147.000000	33.321368
2146.000000	33.440905
2145.000000	33.627336
2144.000000	33.670557
2143.000000	33.839987
2142.000000	34.029689
2141.000000	34.149654
2140.000000	34.300817
2139.000000	34.212537
2138.000000	34.504136
2137.000000	34.523032
2136.000000	34.726865
2135.000000	34.786711
2134.000000	34.980383
2133.000000	34.814210
2132.000000	35.181488
2131.000000	35.237722
2130.000000	35.294831
2129.000000	35.337712
2128.000000	35.347352
2127.000000	35.336847
2126.000000	35.469671
2125.000000	35.445064
2124.000000	35.477380
2123.000000	35.537333
2122.000000	35.666684
2121.000000	35.767804
2120.000000	35.722939
2119.000000	35.849992
2118.000000	35.850281
2117.000000	35.892197
2116.000000	35.844016
2115.000000	36.015432
2114.000000	35.995922
2113.000000	35.937285
2112.000000	35.979748
2111.000000	36.128142
2110.000000	36.020835
2109.000000	36.094233
2108.000000	36.039260
2107.000000	36.054857
2106.000000	36.207871
2105.000000	36.192779
2104.000000	36.110850
2103.000000	36.099529
2102.000000	36.154913
2101.000000	36.179422
2100.000000	36.306195
2099.000000	36.252973
2098.000000	36.255976
2097.000000	36.250190
2096.000000	36.226485
2095.000000	36.150072
2094.000000	36.344825
2093.000000	36.267907
2092.000000	36.180685
2091.000000	36.259068
2090.000000	36.220179
2089.000000	36.122044
2088.000000	36.181456
2087.000000	36.199151
2086.000000	36.201194
2085.000000	36.235425
2084.000000	36.082277
2083.000000	36.035286
2082.000000	35.942243
2081.000000	35.940616
2080.000000	35.824766
2079.000000	35.719942
2078.000000	35.576043
2077.000000	35.564073
2076.000000	35.539084
2075.000000	35.453476
2074.000000	35.344141
2073.000000	35.309508
2072.000000	35.189803
2071.000000	35.002220
2070.000000	34.929125
2069.000000	34.761664
2068.000000	34.635518
2067.000000	34.498054
2066.000000	34.383250
2065.000000	34.278427
2064.000000	34.094460
2063.000000	33.877579
2062.000000	33.792265
2061.000000	33.635087
2060.000000	33.445294
2059.000000	33.253568
2058.000000	33.157030
2057.000000	33.050884
2056.000000	32.888531
2055.000000	32.812471
2054.000000	32.720429
2053.000000	32.524425
2052.000000	32.364425
2051.000000	32.279459
2050.000000	32.196508
2049.000000	32.067645
2048.000000	31.929163
2047.000000	31.925290
2046.000000	31.877866
2045.000000	31.789727
2044.000000	31.765347
2043.000000	31.711599
2042.000000	31.660950
2041.000000	31.749161
2040.000000	31.850978
2039.000000	31.821361
2038.000000	31.854879
2037.000000	31.897416
2036.000000	31.941283
2035.000000	32.085176
2034.000000	32.142730
2033.000000	32.217620
2032.000000	32.345022
2031.000000	32.424340
2030.000000	32.556964
2029.000000	32.690710
2028.000000	32.769281
2027.000000	32.873701
2026.000000	33.001429
2025.000000	33.118561
2024.000000	33.188340
2023.000000	33.247443
2022.000000	33.297499
2021.000000	33.321345
2020.000000	33.378774
2019.000000	33.406856
2018.000000	33.437476
2017.000000	33.464129
2016.000000	33.444791
2015.000000	33.440918
2014.000000	33.462831
2013.000000	33.442779
2012.000000	33.377642
2011.000000	33.341193
2010.000000	33.263472
2009.000000	33.193520
2008.000000	33.160510
2007.000000	33.079914
2006.000000	32.988085
2005.000000	32.922467
2004.000000	32.826392
2003.000000	32.732606
2002.000000	32.677513
2001.000000	32.569957
2000.000000	32.454499
1999.000000	32.382815
1998.000000	32.328278
1997.000000	32.213565
1996.000000	32.127106
1995.000000	32.055539
1994.000000	31.924362
1993.000000	31.810033
1992.000000	31.738411
1991.000000	31.653324
1990.000000	31.559626
1989.000000	31.422855
1988.000000	31.291334
1987.000000	31.208141
1986.000000	31.154534
1985.000000	31.056037
1984.000000	30.935417
1983.000000	30.822123
1982.000000	30.727124
1981.000000	30.631549
1980.000000	30.536945
1979.000000	30.428164
1978.000000	30.347576
1977.000000	30.244177
1976.000000	30.174467
1975.000000	30.059345
1974.000000	29.914047
1973.000000	29.850716
1972.000000	29.793400
1971.000000	29.671997
1970.000000	29.589098
1969.000000	29.524786
1968.000000	29.443558
1967.000000	29.359229
1966.000000	29.289878
1965.000000	29.166187
1964.000000	29.109258
1963.000000	29.040575
1962.000000	28.930752
1961.000000	28.836310
1960.000000	28.754665
1959.000000	28.699142
1958.000000	28.597209
1957.000000	28.557951
1956.000000	28.449470
1955.000000	28.425615
1954.000000	28.393738
1953.000000	28.298788
1952.000000	28.255168
1951.000000	28.264161
1950.000000	28.200717
1949.000000	28.129027
1948.000000	28.148580
1947.000000	28.073511
1946.000000	28.092322
1945.000000	28.056542
1944.000000	28.089374
1943.000000	28.107707
1942.000000	28.190171
1941.000000	28.198864
1940.000000	28.270608
1939.000000	28.350522
1938.000000	28.357615
1937.000000	28.425674
1936.000000	28.597174
1935.000000	28.657265
1934.000000	28.706167
1933.000000	28.804950
1932.000000	28.979464
1931.000000	29.115042
1930.000000	29.261377
1929.000000	29.447753
1928.000000	29.684153
1927.000000	29.828993
1926.000000	30.065963
1925.000000	30.311889
1924.000000	30.562677
1923.000000	30.740689
1922.000000	30.984702
1921.000000	31.267194
1920.000000	31.474299
1919.000000	31.837573
1918.000000	32.119093
1917.000000	32.474798
1916.000000	32.666472
1915.000000	33.136617
1914.000000	33.524567
1913.000000	33.864177
1912.000000	34.217652
1911.000000	34.693666
1910.000000	35.023092
1909.000000	35.414775
1908.000000	35.904851
1907.000000	36.375528
1906.000000	36.883347
1905.000000	37.290281
1904.000000	37.823482
1903.000000	38.381900
1902.000000	38.887952
1901.000000	39.435918
1900.000000	39.956364
1899.000000	40.515065
1898.000000	41.094851
1897.000000	41.536988
1896.000000	42.060572
1895.000000	42.630312
1894.000000	43.146019
1893.000000	43.667573
1892.000000	44.209432
1891.000000	44.722464
1890.000000	45.193880
1889.000000	45.708836
1888.000000	46.160303
1887.000000	46.618638
1886.000000	47.031611
1885.000000	47.494721
1884.000000	47.958334
1883.000000	48.330398
1882.000000	48.721301
1881.000000	49.143163
1880.000000	49.504011
1879.000000	49.770487
1878.000000	50.114905
1877.000000	50.451992
1876.000000	50.768750
1875.000000	51.055531
1874.000000	51.310429
1873.000000	51.531034
1872.000000	51.742883
1871.000000	51.976175
1870.000000	52.152182
1869.000000	52.343815
1868.000000	52.483628
1867.000000	52.619866
1866.000000	52.778897
1865.000000	52.871402
1864.000000	52.974702
1863.000000	53.045988
1862.000000	53.200478
1861.000000	53.253689
1860.000000	53.319795
1859.000000	53.365336
1858.000000	53.431073
1857.000000	53.484759
1856.000000	53.526943
1855.000000	53.539546
1854.000000	53.563317
1853.000000	53.606549
1852.000000	53.611898
1851.000000	53.624755
1850.000000	53.666912
1849.000000	53.657590
1848.000000	53.635266
1847.000000	53.681814
1846.000000	53.653810
1845.000000	53.622525
1844.000000	53.602620
1843.000000	53.604785
1842.000000	53.594393
1841.000000	53.534290
1840.000000	53.491028
1839.000000	53.504537
1838.000000	53.450185
1837.000000	53.401429
1836.000000	53.344341
1835.000000	53.277501
1834.000000	53.228046
1833.000000	53.214817
1832.000000	53.197873
1831.000000	53.132164
1830.000000	53.078373
1829.000000	53.033316
1828.000000	52.978363
1827.000000	52.951143
1826.000000	52.916331
1825.000000	52.859295
1824.000000	52.837498
1823.000000	52.797849
1822.000000	52.740198
1821.000000	52.710329
1820.000000	52.679638
1819.000000	52.620030
1818.000000	52.574479
1817.000000	52.537789
1816.000000	52.509804
1815.000000	52.476286
1814.000000	52.439710
1813.000000	52.410021
1812.000000	52.344457
1811.000000	52.294421
1810.000000	52.276929
1809.000000	52.272621
1808.000000	52.226119
1807.000000	52.164271
1806.000000	52.134022
1805.000000	52.101932
1804.000000	52.060097
1803.000000	52.038683
1802.000000	51.992751
1801.000000	51.954264
1800.000000	51.929216
1799.000000	51.880962
1798.000000	51.865588
1797.000000	51.840151
1796.000000	51.790574
1795.000000	51.768138
1794.000000	51.755939
1793.000000	51.702894
1792.000000	51.664569
1791.000000	51.638558
1790.000000	51.607142
1789.000000	51.586644
1788.000000	51.567560
1787.000000	51.555204
1786.000000	51.539683
1785.000000	51.502590
1784.000000	51.453321
1783.000000	51.415675
1782.000000	51.397960
1781.000000	51.373875
1780.000000	51.321550
1779.000000	51.257121
1778.000000	51.202977
1777.000000	51.160896
1776.000000	51.124220
1775.000000	51.033205
1774.000000	50.965755
1773.000000	50.916626
1772.000000	50.853339
1771.000000	50.805855
1770.000000	50.749779
1769.000000	50.682715
1768.000000	50.605896
1767.000000	50.558088
1766.000000	50.512638
1765.000000	50.447978
1764.000000	50.419980
1763.000000	50.357204
1762.000000	50.294791
1761.000000	50.228411
1760.000000	50.173540
1759.000000	50.090833
1758.000000	50.046235
1757.000000	49.987220
1756.000000	49.933555
1755.000000	49.880582
1754.000000	49.805986
1753.000000	49.750814
1752.000000	49.716590
1751.000000	49.635584
1750.000000	49.576458
1749.000000	49.541735
1748.000000	49.481307
1747.000000	49.391101
1746.000000	49.340556
1745.000000	49.239990
1744.000000	49.202390
1743.000000	49.144941
1742.000000	49.065830
1741.000000	49.023313
1740.000000	48.950502
1739.000000	48.907262
1738.000000	48.864226
1737.000000	48.834385
1736.000000	48.832959
1735.000000	48.794260
1734.000000	48.777645
1733.000000	48.781806
1732.000000	48.787920
1731.000000	48.826094
1730.000000	48.828467
1729.000000	48.857286
1728.000000	48.935416
1727.000000	48.974794
1726.000000	49.036630
1725.000000	49.138259
1724.000000	49.255686
1723.000000	49.324873
1722.000000	49.471268
1721.000000	49.554917
1720.000000	49.652938
1719.000000	49.798190
1718.000000	49.893398
1717.000000	50.012371
1716.000000	50.109404
1715.000000	50.209275
1714.000000	50.273651
1713.000000	50.397384
1712.000000	50.465358
1711.000000	50.581883
1710.000000	50.605625
1709.000000	50.681124
1708.000000	50.747966
1707.000000	50.789157
1706.000000	50.815066
1705.000000	50.848689
1704.000000	50.898113
1703.000000	50.885177
1702.000000	50.930539
1701.000000	50.942065
1700.000000	50.944040
1699.000000	50.961685
1698.000000	50.993032
1697.000000	51.054647
1696.000000	51.089309
1695.000000	51.106245
1694.000000	51.144583
1693.000000	51.224580
1692.000000	51.289654
1691.000000	51.337235
1690.000000	51.441080
1689.000000	51.539324
1688.000000	51.648381
1687.000000	51.767903
1686.000000	51.897757
1685.000000	52.059595
1684.000000	52.221484
1683.000000	52.415499
1682.000000	52.594457
1681.000000	52.809787
1680.000000	52.957001
1679.000000	53.155101
1678.000000	53.367772
1677.000000	53.543800
1676.000000	53.735487
1675.000000	53.966189
1674.000000	54.138316
1673.000000	54.321389
1672.000000	54.513792
1671.000000	54.706248
1670.000000	54.880935
1669.000000	55.094981
1668.000000	55.233596
1667.000000	55.366586
1666.000000	55.473502
1665.000000	55.616841
1664.000000	55.699078
1663.000000	55.766293
1662.000000	55.884073
1661.000000	55.975391
1660.000000	56.032687
1659.000000	56.097199
1658.000000	56.153565
1657.000000	56.178908
1656.000000	56.231699
1655.000000	56.251926
1654.000000	56.293040
1653.000000	56.332355
1652.000000	56.337799
1651.000000	56.335836
1650.000000	56.337989
1649.000000	56.352677
1648.000000	56.329024
1647.000000	56.326002
1646.000000	56.311393
1645.000000	56.288352
1644.000000	56.268439
1643.000000	56.252689
1642.000000	56.236648
1641.000000	56.188860
1640.000000	56.162836
1639.000000	56.128535
1638.000000	56.119171
1637.000000	56.091301
1636.000000	56.007727
1635.000000	55.972796
1634.000000	55.949448
1633.000000	55.899564
1632.000000	55.831005
1631.000000	55.786953
1630.000000	55.753712
1629.000000	55.718677
1628.000000	55.671322
1627.000000	55.626059
1626.000000	55.558483
1625.000000	55.514569
1624.000000	55.468850
1623.000000	55.424244
1622.000000	55.362727
1621.000000	55.298475
1620.000000	55.235699
1619.000000	55.169415
1618.000000	55.099514
1617.000000	55.038574
1616.000000	54.985601
1615.000000	54.909804
1614.000000	54.834047
1613.000000	54.774871
1612.000000	54.718862
1611.000000	54.639824
1610.000000	54.565049
1609.000000	54.505307
1608.000000	54.442597
1607.000000	54.371845
1606.000000	54.289821
1605.000000	54.227955
1604.000000	54.145398
1603.000000	54.073755
1602.000000	54.009627
1601.000000	53.928358
1600.000000	53.853641
1599.000000	53.793902
1598.000000	53.719082
1597.000000	53.645098
1596.000000	53.589670
1595.000000	53.532312
1594.000000	53.465225
1593.000000	53.393853
1592.000000	53.328845
1591.000000	53.275139
1590.000000	53.225475
1589.000000	53.163140
1588.000000	53.113448
1587.000000	53.059973
1586.000000	52.992539
1585.000000	52.949781
1584.000000	52.907456
1583.000000	52.850662
1582.000000	52.798022
1581.000000	52.738779
1580.000000	52.679722
1579.000000	52.630225
1578.000000	52.591777
1577.000000	52.536436
1576.000000	52.463501
1575.000000	52.426933
1574.000000	52.377354
1573.000000	52.310474
1572.000000	52.263800
1571.000000	52.216448
1570.000000	52.170287
1569.000000	52.134238
1568.000000	52.085683
1567.000000	52.039434
1566.000000	52.000537
1565.000000	51.964579
1564.000000	51.940199
1563.000000	51.929381
1562.000000	51.889261
1561.000000	51.855773
1560.000000	51.843384
1559.000000	51.803632
1558.000000	51.787122
1557.000000	51.775339
1556.000000	51.741701
1555.000000	51.724636
1554.000000	51.686583
1553.000000	51.658739
1552.000000	51.623510
1551.000000	51.589421
1550.000000	51.561633
1549.000000	51.538947
1548.000000	51.494640
1547.000000	51.427836
1546.000000	51.338647
1545.000000	51.289597
1544.000000	51.218753
1543.000000	51.128390
1542.000000	51.032439
1541.000000	50.949426
1540.000000	50.848466
1539.000000	50.764139
1538.000000	50.671384
1537.000000	50.554013
1536.000000	50.458023
1535.000000	50.357196
1534.000000	50.251194
1533.000000	50.161907
1532.000000	50.070616
1531.000000	49.985408
1530.000000	49.894753
1529.000000	49.795245
1528.000000	49.724087
1527.000000	49.642235
1526.000000	49.563669
1525.000000	49.490545
1524.000000	49.441212
1523.000000	49.382250
1522.000000	49.306563
1521.000000	49.258349
1520.000000	49.219269
1519.000000	49.159496
1518.000000	49.102259
1517.000000	49.064200
1516.000000	49.024133
1515.000000	48.984243
1514.000000	48.965329
1513.000000	48.997529
1512.000000	49.011296
1511.000000	49.024351
1510.000000	49.005690
1509.000000	48.968543
1508.000000	48.931198
1507.000000	48.896395
1506.000000	48.847433
1505.000000	48.844813
1504.000000	48.810575
1503.000000	48.804916
1502.000000	48.796783
1501.000000	48.768111
1500.000000	48.765853
1499.000000	48.762198
1498.000000	48.779490
1497.000000	48.766487
1496.000000	48.782597
1495.000000	48.787183
1494.000000	48.821412
1493.000000	48.825884
1492.000000	48.866305
1491.000000	48.894770
1490.000000	48.946801
1489.000000	48.962670
1488.000000	49.012006
1487.000000	49.080721
1486.000000	49.096336
1485.000000	49.150189
1484.000000	49.225478
1483.000000	49.273688
1482.000000	49.312279
1481.000000	49.372506
1480.000000	49.444553
1479.000000	49.500687
1478.000000	49.560431
1477.000000	49.634274
1476.000000	49.688129
1475.000000	49.751519
1474.000000	49.813320
1473.000000	49.856217
1472.000000	49.930756
1471.000000	49.984950
1470.000000	50.034522
1469.000000	50.099205
1468.000000	50.153632
1467.000000	50.201025
1466.000000	50.264829
1465.000000	50.330568
1464.000000	50.379443
1463.000000	50.442231
1462.000000	50.483286
1461.000000	50.542649
1460.000000	50.623661
1459.000000	50.662154
1458.000000	50.727077
1457.000000	50.772925
1456.000000	50.862254
1455.000000	50.916567
1454.000000	50.976832
1453.000000	51.066805
1452.000000	51.137431
1451.000000	51.217642
1450.000000	51.289901
1449.000000	51.366127
1448.000000	51.451651
1447.000000	51.528543
1446.000000	51.629658
1445.000000	51.707721
1444.000000	51.810978
1443.000000	51.904927
1442.000000	51.989329
1441.000000	52.076074
1440.000000	52.194943
1439.000000	52.297773
1438.000000	52.417231
1437.000000	52.532850
1436.000000	52.638561
1435.000000	52.768042
1434.000000	52.888359
1433.000000	53.010014
1432.000000	53.152272
1431.000000	53.290286
1430.000000	53.418561
1429.000000	53.579738
1428.000000	53.724057
1427.000000	53.880649
1426.000000	54.045525
1425.000000	54.230429
1424.000000	54.399500
1423.000000	54.583982
1422.000000	54.760589
1421.000000	54.944628
1420.000000	55.128231
1419.000000	55.319890
1418.000000	55.533494
1417.000000	55.739824
1416.000000	55.953425
1415.000000	56.159861
1414.000000	56.391454
1413.000000	56.587659
1412.000000	56.790067
1411.000000	57.017291
1410.000000	57.240628
1409.000000	57.462207
1408.000000	57.652172
1407.000000	57.850846
1406.000000	58.065534
1405.000000	58.277537
1404.000000	58.493226
1403.000000	58.694074
1402.000000	58.900689
1401.000000	59.108228
1400.000000	59.296394
1399.000000	59.483828
1398.000000	59.668307
1397.000000	59.836946
1396.000000	60.008594
1395.000000	60.189188
1394.000000	60.360633
1393.000000	60.522852
1392.000000	60.668758
1391.000000	60.814105
1390.000000	60.955054
1389.000000	61.100946
1388.000000	61.237568
1387.000000	61.364935
1386.000000	61.501146
1385.000000	61.644853
1384.000000	61.767543
1383.000000	61.866181
1382.000000	61.979667
1381.000000	62.080988
1380.000000	62.154703
1379.000000	62.247486
1378.000000	62.323420
1377.000000	62.393709
1376.000000	62.465026
1375.000000	62.531044
1374.000000	62.600330
1373.000000	62.646886
1372.000000	62.684172
1371.000000	62.729905
1370.000000	62.799091
1369.000000	62.870680
1368.000000	62.916761
1367.000000	62.965751
1366.000000	63.016502
1365.000000	63.078045
1364.000000	63.138791
1363.000000	63.181765
1362.000000	63.233179
1361.000000	63.299959
1360.000000	63.347801
1359.000000	63.402649
1358.000000	63.471221
1357.000000	63.550043
1356.000000	63.634189
1355.000000	63.705670
1354.000000	63.763917
1353.000000	63.805089
1352.000000	63.864267
1351.000000	63.931909
1350.000000	64.018445
1349.000000	64.077572
1348.000000	64.117757
1347.000000	64.193852
1346.000000	64.279132
1345.000000	64.334753
1344.000000	64.388782
1343.000000	64.439551
1342.000000	64.507218
1341.000000	64.573143
1340.000000	64.613622
1339.000000	64.657091
1338.000000	64.723788
1337.000000	64.766902
1336.000000	64.805556
1335.000000	64.848364
1334.000000	64.887392
1333.000000	64.937923
1332.000000	64.982240
1331.000000	64.995567
1330.000000	65.031375
1329.000000	65.076254
1328.000000	65.131636
1327.000000	65.146579
1326.000000	65.180993
1325.000000	65.183590
1324.000000	65.202125
1323.000000	65.236331
1322.000000	65.235185
1321.000000	65.268447
1320.000000	65.311826
1319.000000	65.326906
1318.000000	65.342192
1317.000000	65.346651
1316.000000	65.351381
1315.000000	65.379878
1314.000000	65.404860
1313.000000	65.425226
1312.000000	65.451844
1311.000000	65.453302
1310.000000	65.443036
1309.000000	65.470538
1308.000000	65.484233
1307.000000	65.493124
1306.000000	65.497239
1305.000000	65.520247
1304.000000	65.529657
1303.000000	65.548678
1302.000000	65.544163
1301.000000	65.556982
1300.000000	65.562735
1299.000000	65.573839
1298.000000	65.578228
1297.000000	65.588947
1296.000000	65.596197
1295.000000	65.579973
1294.000000	65.595408
1293.000000	65.578770
1292.000000	65.571984
1291.000000	65.558125
1290.000000	65.524247
1289.000000	65.550604
1288.000000	65.517182
1287.000000	65.533162
1286.000000	65.517444
1285.000000	65.508154
1284.000000	65.505856
1283.000000	65.486867
1282.000000	65.479422
1281.000000	65.477847
1280.000000	65.490902
1279.000000	65.499007
1278.000000	65.521417
1277.000000	65.497274
1276.000000	65.489874
1275.000000	65.498503
1274.000000	65.476142
1273.000000	65.465046
1272.000000	65.495403
1271.000000	65.502912
1270.000000	65.504388
1269.000000	65.505616
1268.000000	65.516361
1267.000000	65.530459
1266.000000	65.533150
1265.000000	65.531709
1264.000000	65.546213
1263.000000	65.563884
1262.000000	65.554630
1261.000000	65.561608
1260.000000	65.564886
1259.000000	65.581064
1258.000000	65.585060
1257.000000	65.618607
1256.000000	65.607387
1255.000000	65.613867
1254.000000	65.599991
1253.000000	65.645882
1252.000000	65.631567
1251.000000	65.637697
1250.000000	65.636642
1249.000000	65.635087
1248.000000	65.617240
1247.000000	65.603485
1246.000000	65.606878
1245.000000	65.599076
1244.000000	65.551003
1243.000000	65.550071
1242.000000	65.535260
1241.000000	65.513430
1240.000000	65.501524
1239.000000	65.475554
1238.000000	65.461778
1237.000000	65.429200
1236.000000	65.408981
1235.000000	65.361220
1234.000000	65.353670
1233.000000	65.330823
1232.000000	65.314441
1231.000000	65.267714
1230.000000	65.261030
1229.000000	65.228487
1228.000000	65.213466
1227.000000	65.207722
1226.000000	65.186159
1225.000000	65.143286
1224.000000	65.132040
1223.000000	65.114877
1222.000000	65.104801
1221.000000	65.081263
1220.000000	65.061268
1219.000000	65.024594
1218.000000	65.015982
1217.000000	64.989342
1216.000000	64.946667
1215.000000	64.908158
1214.000000	64.903269
1213.000000	64.869277
1212.000000	64.835039
1211.000000	64.801593
1210.000000	64.791670
1209.000000	64.733809
1208.000000	64.689341
1207.000000	64.672637
1206.000000	64.643285
1205.000000	64.580259
1204.000000	64.556121
1203.000000	64.522133
1202.000000	64.474337
1201.000000	64.440943
1200.000000	64.415646
1199.000000	64.390405
1198.000000	64.352263
1197.000000	64.306593
1196.000000	64.266354
1195.000000	64.245701
1194.000000	64.230617
1193.000000	64.190317
1192.000000	64.170297
1191.000000	64.154978
1190.000000	64.120265
1189.000000	64.071114
1188.000000	64.075994
1187.000000	64.077453
1186.000000	64.073323
1185.000000	64.075479
1184.000000	64.069901
1183.000000	64.066333
1182.000000	64.094296
1181.000000	64.118223
1180.000000	64.145790
1179.000000	64.174507
1178.000000	64.208875
1177.000000	64.253293
1176.000000	64.292097
1175.000000	64.344672
1174.000000	64.403617
1173.000000	64.451811
1172.000000	64.508477
1171.000000	64.572025
1170.000000	64.647598
1169.000000	64.714942
1168.000000	64.779534
1167.000000	64.854496
1166.000000	64.919244
1165.000000	64.987753
1164.000000	65.068126
1163.000000	65.129680
1162.000000	65.188949
1161.000000	65.277281
1160.000000	65.358703
1159.000000	65.433215
1158.000000	65.513786
1157.000000	65.581023
1156.000000	65.633936
1155.000000	65.701644
1154.000000	65.764063
1153.000000	65.825424
1152.000000	65.885321
1151.000000	65.930833
1150.000000	65.979661
1149.000000	66.034039
1148.000000	66.092584
1147.000000	66.126333
1146.000000	66.162425
1145.000000	66.212589
1144.000000	66.252846
1143.000000	66.290789
1142.000000	66.336793
1141.000000	66.369566
1140.000000	66.389443
1139.000000	66.428749
1138.000000	66.473411
1137.000000	66.511594
1136.000000	66.545569
1135.000000	66.601290
1134.000000	66.643336
1133.000000	66.678532
1132.000000	66.713752
1131.000000	66.734319
1130.000000	66.756048
1129.000000	66.780326
1128.000000	66.809011
1127.000000	66.817915
1126.000000	66.836665
1125.000000	66.854801
1124.000000	66.867121
1123.000000	66.886077
1122.000000	66.901983
1121.000000	66.918521
1120.000000	66.907179
1119.000000	66.930140
1118.000000	66.947883
1117.000000	66.939646
1116.000000	66.955722
1115.000000	66.966443
1114.000000	66.968967
1113.000000	66.958040
1112.000000	66.965472
1111.000000	66.973594
1110.000000	66.966323
1109.000000	66.971888
1108.000000	66.979499
1107.000000	66.992537
1106.000000	66.975942
1105.000000	66.961582
1104.000000	66.979696
1103.000000	66.986351
1102.000000	66.983070
1101.000000	66.984822
1100.000000	66.987365
1099.000000	66.969194
1098.000000	66.985536
1097.000000	66.989764
1096.000000	66.965310
1095.000000	66.975857
1094.000000	66.979973
1093.000000	66.977671
1092.000000	66.986460
1091.000000	66.968677
1090.000000	66.963736
1089.000000	66.964358
1088.000000	66.954073
1087.000000	66.946184
1086.000000	66.932958
1085.000000	66.936472
1084.000000	66.957213
1083.000000	66.947751
1082.000000	66.925229
1081.000000	66.917184
1080.000000	66.913496
1079.000000	66.917724
1078.000000	66.904542
1077.000000	66.896087
1076.000000	66.879515
1075.000000	66.869064
1074.000000	66.873003
1073.000000	66.854649
1072.000000	66.858591
1071.000000	66.853106
1070.000000	66.856561
1069.000000	66.837925
1068.000000	66.817805
1067.000000	66.814533
1066.000000	66.823486
1065.000000	66.823289
1064.000000	66.807396
1063.000000	66.790369
1062.000000	66.778503
1061.000000	66.759491
1060.000000	66.753253
1059.000000	66.746668
1058.000000	66.736014
1057.000000	66.721192
1056.000000	66.724259
1055.000000	66.700108
1054.000000	66.707357
1053.000000	66.674411
1052.000000	66.683345
1051.000000	66.678378
1050.000000	66.643912
1049.000000	66.648941
1048.000000	66.609677
1047.000000	66.631076
1046.000000	66.605483
1045.000000	66.603934
1044.000000	66.573287
1043.000000	66.613701
1042.000000	66.590800
1041.000000	66.574383
1040.000000	66.576096
1039.000000	66.573383
1038.000000	66.564810
1037.000000	66.557157
1036.000000	66.541029
1035.000000	66.534574
1034.000000	66.527724
1033.000000	66.527482
1032.000000	66.544397
1031.000000	66.515733
1030.000000	66.525353
1029.000000	66.502446
1028.000000	66.496077
1027.000000	66.492718
1026.000000	66.483935
1025.000000	66.500789
1024.000000	66.485321
1023.000000	66.491338
1022.000000	66.492671
1021.000000	66.488100
1020.000000	66.466415
1019.000000	66.449377
1018.000000	66.471075
1017.000000	66.478310
1016.000000	66.471515
1015.000000	66.472478
1014.000000	66.480345
1013.000000	66.487767
1012.000000	66.455671
1011.000000	66.464001
1010.000000	66.470907
1009.000000	66.445489
1008.000000	66.465658
1007.000000	66.472930
1006.000000	66.463014
1005.000000	66.469330
1004.000000	66.465970
1003.000000	66.441714
1002.000000	66.452790
1001.000000	66.441807
1000.000000	66.462900
999.000000	66.472871
998.000000	66.461845
997.000000	66.444729
996.000000	66.454221
995.000000	66.457001
994.000000	66.453606
993.000000	66.463172
992.000000	66.462714
991.000000	66.478350
990.000000	66.476196
989.000000	66.467850
988.000000	66.474517
987.000000	66.466927
986.000000	66.475806
985.000000	66.493060
984.000000	66.487907
983.000000	66.487545
982.000000	66.489187
981.000000	66.491612
980.000000	66.495860
979.000000	66.511109
978.000000	66.518462
977.000000	66.512975
976.000000	66.523201
975.000000	66.532411
974.000000	66.528437
973.000000	66.535696
972.000000	66.536892
971.000000	66.534224
970.000000	66.540059
969.000000	66.546317
968.000000	66.548591
967.000000	66.547881
966.000000	66.547156
965.000000	66.556525
964.000000	66.552338
963.000000	66.546719
962.000000	66.566679
961.000000	66.569555
960.000000	66.567044
959.000000	66.572272
958.000000	66.569499
957.000000	66.570712
956.000000	66.576994
955.000000	66.584949
954.000000	66.562099
953.000000	66.555318
952.000000	66.556080
951.000000	66.555193
950.000000	66.564993
949.000000	66.576111
948.000000	66.579941
947.000000	66.579864
946.000000	66.583451
945.000000	66.567764
944.000000	66.563688
943.000000	66.561608
942.000000	66.572796
941.000000	66.577436
940.000000	66.552504
939.000000	66.549236
938.000000	66.529018
937.000000	66.515262
936.000000	66.525020
935.000000	66.516764
934.000000	66.526197
933.000000	66.522666
932.000000	66.531978
931.000000	66.547424
930.000000	66.516866
929.000000	66.498073
928.000000	66.501862
927.000000	66.490833
926.000000	66.476252
925.000000	66.466971
924.000000	66.441915
923.000000	66.442323
922.000000	66.434507
921.000000	66.429464
920.000000	66.420221
919.000000	66.403907
918.000000	66.397714
917.000000	66.400431
916.000000	66.406472
915.000000	66.389725
914.000000	66.359753
913.000000	66.317553
912.000000	66.308467
911.000000	66.355027
910.000000	66.351454
909.000000	66.353537
908.000000	66.323199
907.000000	66.286642
906.000000	66.290925
905.000000	66.288139
904.000000	66.293886
903.000000	66.276200
902.000000	66.300291
901.000000	66.320825
900.000000	66.297143
899.000000	66.308641
898.000000	66.290051
897.000000	66.313013
896.000000	66.319409
895.000000	66.259890
894.000000	66.257096
893.000000	66.241758
892.000000	66.251638
891.000000	66.243989
890.000000	66.267191
889.000000	66.249001
888.000000	66.233634
887.000000	66.215232
886.000000	66.239348
885.000000	66.240331
884.000000	66.261547
883.000000	66.286961
882.000000	66.239323
881.000000	66.270682
880.000000	66.222652
879.000000	66.172788
878.000000	66.158318
877.000000	66.229729
876.000000	66.279890
875.000000	66.216154
874.000000	66.155006
873.000000	66.086118
872.000000	66.139155
871.000000	66.142130
870.000000	66.147097
869.000000	66.170469
868.000000	66.193733
867.000000	66.177951
866.000000	66.159124
865.000000	66.158566
864.000000	66.154800
863.000000	66.034579
862.000000	66.088159
861.000000	66.095677
860.000000	66.094528
859.000000	65.809622
858.000000	65.360682
857.000000	65.561137
856.000000	65.521133
855.000000	65.998468
854.000000	66.143398
853.000000	65.543431
852.000000	65.382421
851.000000	65.876038
850.000000	65.507619
849.000000	65.708010
848.000000	65.390428
847.000000	65.621385
846.000000	65.597989
845.000000	65.766876
844.000000	65.656378
843.000000	65.694102
842.000000	65.349603
841.000000	65.405364
840.000000	65.488039
839.000000	65.321535
838.000000	65.634066
837.000000	65.358827
836.000000	65.426864
835.000000	65.311656
834.000000	65.223979
833.000000	65.219225
832.000000	65.403354
831.000000	65.364061
830.000000	65.345573
829.000000	65.167822
828.000000	65.392510
827.000000	65.174147
826.000000	65.207892
825.000000	65.372555
824.000000	65.194146
823.000000	65.031000
822.000000	65.308294
821.000000	65.014822
820.000000	65.204772
819.000000	65.173383
818.000000	65.127425
817.000000	65.125446
816.000000	64.999578
815.000000	65.014957
814.000000	65.021069
813.000000	65.095032
812.000000	65.147848
811.000000	65.006103
810.000000	64.916210
809.000000	64.928605
808.000000	64.901616
807.000000	64.797424
806.000000	64.877854
805.000000	64.817316
804.000000	64.803181
803.000000	64.858345
802.000000	64.716526
801.000000	64.751592
800.000000	64.674556
799.000000	64.697093
798.000000	64.710666
797.000000	64.662559
796.000000	64.739997
795.000000	64.635314
794.000000	64.511439
793.000000	64.619558
792.000000	64.585219
791.000000	64.543116
790.000000	64.556408
789.000000	64.527349
788.000000	64.484128
787.000000	64.459970
786.000000	64.405029
785.000000	64.589997
784.000000	64.509761
783.000000	64.477636
782.000000	64.332837
781.000000	64.358719
780.000000	64.368619
779.000000	64.215819
778.000000	64.165645
777.000000	64.149827
776.000000	64.217620
775.000000	64.180327
774.000000	64.157271
773.000000	64.208774
772.000000	64.170326
771.000000	64.135528
770.000000	63.973429
769.000000	63.981417
768.000000	63.956459
767.000000	64.031594
766.000000	63.980812
765.000000	63.890184
764.000000	63.904742
763.000000	63.869044
762.000000	63.849679
761.000000	63.774933
760.000000	63.755015
759.000000	63.731332
758.000000	63.728253
757.000000	63.684447
756.000000	63.608081
755.000000	63.657814
754.000000	63.681184
753.000000	63.555039
752.000000	63.483131
751.000000	63.516834
750.000000	63.461815
749.000000	63.449396
748.000000	63.411314
747.000000	63.378449
746.000000	63.258158
745.000000	63.283346
744.000000	63.267969
743.000000	63.223126
742.000000	63.102400
741.000000	63.137035
740.000000	63.161643
739.000000	63.136137
738.000000	63.094869
737.000000	63.032316
736.000000	62.981733
735.000000	62.963889
734.000000	62.950006
733.000000	62.926010
732.000000	62.841594
731.000000	62.782754
730.000000	62.786685
729.000000	62.702263
728.000000	62.627778
727.000000	62.661113
726.000000	62.587673
725.000000	62.524773
724.000000	62.495312
723.000000	62.480624
722.000000	62.442936
721.000000	62.427516
720.000000	62.417683
719.000000	62.338076
718.000000	62.270125
717.000000	62.250975
716.000000	62.201361
715.000000	62.158304
714.000000	62.170911
713.000000	62.106897
712.000000	62.025213
711.000000	61.992585
710.000000	61.953294
709.000000	61.936959
708.000000	61.841164
707.000000	61.798510
706.000000	61.844400
705.000000	61.733474
704.000000	61.625016
703.000000	61.607132
702.000000	61.582602
701.000000	61.504557
700.000000	61.447798
699.000000	61.460295
698.000000	61.405237
697.000000	61.317614
696.000000	61.233803
695.000000	61.162226
694.000000	61.147589
693.000000	61.171853
692.000000	61.103935
691.000000	61.010512
690.000000	60.978187
689.000000	60.869221
688.000000	60.750393
687.000000	60.733691
686.000000	60.674181
685.000000	60.581826
684.000000	60.513316
683.000000	60.502227
682.000000	60.417164
681.000000	60.390050
680.000000	60.334376
679.000000	60.292586
678.000000	60.211578
677.000000	60.137004
676.000000	60.079044
675.000000	60.060041
674.000000	59.983000
673.000000	59.919002
672.000000	59.841935
671.000000	59.826910
670.000000	59.737884
669.000000	59.655972
668.000000	59.592617
667.000000	59.567250
666.000000	59.491705
665.000000	59.416208
664.000000	59.340828
663.000000	59.263403
662.000000	59.170474
661.000000	59.114098
660.000000	59.118147
659.000000	59.063887
658.000000	58.956664
657.000000	58.944638
656.000000	58.836761
655.000000	58.731189
654.000000	58.644894
653.000000	58.592081
652.000000	58.540524
651.000000	58.470735
650.000000	58.392276
649.000000	58.354474
648.000000	58.307276
647.000000	58.209290
646.000000	58.159049
645.000000	58.031630
644.000000	58.003696
643.000000	57.946617
642.000000	57.832657
641.000000	57.795789
640.000000	57.741761
639.000000	57.679518
638.000000	57.569587
637.000000	57.501783
636.000000	57.421020
635.000000	57.403429
634.000000	57.268088
633.000000	57.185903
632.000000	57.145504
631.000000	57.021319
630.000000	56.948700
629.000000	56.897025
628.000000	56.828442
627.000000	56.733386
626.000000	56.674111
625.000000	56.609140
624.000000	56.496123
623.000000	56.440244
622.000000	56.324639
621.000000	56.290513
620.000000	56.197645
619.000000	56.122983
618.000000	56.043043
617.000000	55.989770
616.000000	55.864790
615.000000	55.753631
614.000000	55.702358
613.000000	55.679840
612.000000	55.532167
611.000000	55.436568
610.000000	55.319272
609.000000	55.272882
608.000000	55.170073
607.000000	55.131793
606.000000	55.019049
605.000000	54.942739
604.000000	54.856631
603.000000	54.754894
602.000000	54.628141
601.000000	54.582031
600.000000	54.507002
599.000000	54.358682
598.000000	54.285319
597.000000	54.201519
596.000000	54.106013
595.000000	54.029689
594.000000	53.892452
593.000000	53.806336
592.000000	53.749407
591.000000	53.690512
590.000000	53.556827
589.000000	53.395645
588.000000	53.326106
587.000000	53.281298
586.000000	53.115765
585.000000	53.002761
584.000000	52.929694
583.000000	52.850633
582.000000	52.719938
581.000000	52.663120
580.000000	52.545267
579.000000	52.456216
578.000000	52.346817
577.000000	52.171940
576.000000	52.098949
575.000000	52.011145
574.000000	51.887132
573.000000	51.803255
572.000000	51.647114
571.000000	51.569298
570.000000	51.478972
569.000000	51.340592
568.000000	51.230736
567.000000	51.100495
566.000000	50.971578
565.000000	50.867087
564.000000	50.751647
563.000000	50.643417
562.000000	50.509356
561.000000	50.433629
560.000000	50.281654
559.000000	50.202690
558.000000	50.101988
557.000000	49.932226
556.000000	49.833848
555.000000	49.724360
554.000000	49.535964
553.000000	49.450009
552.000000	49.305851
551.000000	49.216342
550.000000	49.056604
549.000000	48.941465
548.000000	48.801475
547.000000	48.647644
546.000000	48.525901
545.000000	48.413925
544.000000	48.251756
543.000000	48.135745
542.000000	48.025299
541.000000	47.884436
540.000000	47.719384
539.000000	47.615517
538.000000	47.485680
537.000000	47.363163
536.000000	47.211994
535.000000	47.064259
534.000000	46.911591
533.000000	46.814528
532.000000	46.660776
531.000000	46.541356
530.000000	46.376396
529.000000	46.264677
528.000000	46.113440
527.000000	45.971477
526.000000	45.822479
525.000000	45.692104
524.000000	45.540122
523.000000	45.398533
522.000000	45.252356
521.000000	45.108060
520.000000	44.982245
519.000000	44.828705
518.000000	44.686993
517.000000	44.547327
516.000000	44.397180
515.000000	44.264294
514.000000	44.122660
513.000000	43.970327
512.000000	43.801985
511.000000	43.684119
510.000000	43.518646
509.000000	43.380320
508.000000	43.246549
507.000000	43.088234
506.000000	42.944347
505.000000	42.798340
504.000000	42.657618
503.000000	42.516071
502.000000	42.382433
501.000000	42.215240
500.000000	42.045990
499.000000	41.937821
498.000000	41.780442
497.000000	41.614983
496.000000	41.441036
495.000000	41.315953
494.000000	41.160179
493.000000	41.003698
492.000000	40.819605
491.000000	40.682632
490.000000	40.538865
489.000000	40.365829
488.000000	40.196958
487.000000	40.039834
486.000000	39.873773
485.000000	39.733272
484.000000	39.563545
483.000000	39.407447
482.000000	39.290661
481.000000	39.142531
480.000000	38.998896
479.000000	38.862463
478.000000	38.730503
477.000000	38.575543
476.000000	38.423868
475.000000	38.276416
474.000000	38.151868
473.000000	38.000253
472.000000	37.836305
471.000000	37.703985
470.000000	37.556029
469.000000	37.386784
468.000000	37.211866
467.000000	37.079348
466.000000	36.960726
465.000000	36.788038
464.000000	36.605548
463.000000	36.466252
462.000000	36.323480
461.000000	36.160532
460.000000	36.013841
459.000000	35.858717
458.000000	35.671248
457.000000	35.488392
456.000000	35.335119
455.000000	35.179829
454.000000	34.989006
453.000000	34.807557
452.000000	34.636031
451.000000	34.478576
450.000000	34.291979
449.000000	34.084913
448.000000	33.913241
447.000000	33.733344
446.000000	33.520404
445.000000	33.348025
444.000000	33.188398
443.000000	33.016270
442.000000	32.828365
441.000000	32.630563
440.000000	32.449445
439.000000	32.259845
438.000000	32.071426
437.000000	31.863611
436.000000	31.663098
435.000000	31.490409
434.000000	31.292103
433.000000	31.111115
432.000000	30.918764
431.000000	30.727495
430.000000	30.532811
429.000000	30.322384
428.000000	30.093860
427.000000	29.881009
426.000000	29.711552
425.000000	29.523282
424.000000	29.328013
423.000000	29.153183
422.000000	28.931958
421.000000	28.752219
420.000000	28.549935
419.000000	28.325588
418.000000	28.148015
417.000000	27.940703
416.000000	27.730362
415.000000	27.546496
414.000000	27.366444
413.000000	27.164284
412.000000	26.978030
411.000000	26.753670
410.000000	26.552559
409.000000	26.334823
408.000000	26.173899
407.000000	25.956529
406.000000	25.760273
405.000000	25.614221
404.000000	25.431630
403.000000	25.227092
402.000000	25.045578
401.000000	24.852727
400.000000	24.660602
399.000000	24.474152
398.000000	24.303029
397.000000	24.132236
396.000000	23.946222
395.000000	23.752274
394.000000	23.570245
393.000000	23.382458
392.000000	23.227236
391.000000	23.051884
390.000000	22.874113
389.000000	22.669559
388.000000	22.516202
387.000000	22.289491
386.000000	22.104754
385.000000	21.904105
384.000000	21.757822
383.000000	21.573704
382.000000	21.369715
381.000000	21.207742
380.000000	21.021534
379.000000	20.839593
378.000000	20.589465
377.000000	20.471298
376.000000	20.273108
375.000000	20.107603
374.000000	20.032484
373.000000	19.812411
372.000000	19.592535
371.000000	19.374367
370.000000	19.248296
369.000000	19.066148
368.000000	18.944657
367.000000	18.755795
366.000000	18.576086
365.000000	18.364378
364.000000	18.294883
363.000000	18.096349
362.000000	17.991280
361.000000	17.818175
360.000000	17.707751
359.000000	17.556454
358.000000	17.447400
357.000000	17.282471
356.000000	17.200331
355.000000	17.002266
354.000000	16.906664
353.000000	16.750675
352.000000	16.596591
351.000000	16.404368
350.000000	16.370842
349.000000	16.245810
348.000000	16.149041
347.000000	16.011435
346.000000	15.917672
345.000000	15.730339
344.000000	15.627642
343.000000	15.608908
342.000000	15.458517
341.000000	15.261215
340.000000	15.221747
339.000000	15.110231
338.000000	14.978265
337.000000	14.894332
336.000000	14.830791
335.000000	14.575770
334.000000	14.579601
333.000000	14.474406
332.000000	14.373823
331.000000	14.228428
330.000000	14.086443
329.000000	14.080593
328.000000	13.876494
327.000000	13.835005
326.000000	13.761025
325.000000	13.720818
324.000000	13.583993
323.000000	13.606860
322.000000	13.484117
321.000000	13.426230
320.000000	13.379778
319.000000	13.452896
318.000000	13.244572
317.000000	13.249087
316.000000	13.145379
315.000000	13.061552
314.000000	13.029931
313.000000	12.970029
312.000000	13.030831
311.000000	12.848574
310.000000	12.821299
309.000000	12.782998
308.000000	12.772418
307.000000	12.747134
306.000000	12.705101
305.000000	12.613093
304.000000	12.549863
303.000000	12.564420
302.000000	12.583496
301.000000	12.540771
300.000000	12.471449
299.000000	12.354468
298.000000	12.321994
297.000000	12.230866
296.000000	12.209504
295.000000	12.115605
294.000000	12.068719
293.000000	11.949927
292.000000	11.899985
291.000000	11.737184
290.000000	11.656901
289.000000	11.596999
288.000000	11.580348
287.000000	11.477927
286.000000	11.398481
285.000000	11.365220
284.000000	11.333446
283.000000	11.310607
282.000000	11.358408
281.000000	11.375522
280.000000	11.353733
279.000000	11.378103
278.000000	11.409934
277.000000	11.472963
276.000000	11.512489
275.000000	11.524737
274.000000	11.589311
273.000000	11.648261
272.000000	11.745242
271.000000	11.749082
270.000000	11.808573
269.000000	11.888220
268.000000	11.942778
267.000000	12.102993
266.000000	12.151610
265.000000	12.186783
264.000000	12.341909
263.000000	12.459782
262.000000	12.548056
261.000000	12.644368
260.000000	12.818413
259.000000	12.956305
258.000000	13.027254
257.000000	13.211216
256.000000	13.358959
255.000000	13.541972
254.000000	13.703951
253.000000	13.860586
252.000000	13.996513
251.000000	14.136268
250.000000	14.224632
249.000000	14.343269
248.000000	14.514316
247.000000	14.605300
246.000000	14.548440
245.000000	14.524312
244.000000	14.526384
243.000000	14.369815
242.000000	14.085297
241.000000	13.962861
240.000000	13.759629
239.000000	13.527162
238.000000	13.311279
237.000000	13.027479
236.000000	12.771922
235.000000	12.551235
234.000000	12.344142
233.000000	12.158456
232.000000	11.961170
231.000000	11.738647
230.000000	11.540826
229.000000	11.366858
228.000000	11.252125
227.000000	11.210543
226.000000	11.140609
225.000000	11.048067
224.000000	11.006624
223.000000	11.051105
222.000000	11.046283
221.000000	11.092467
220.000000	11.179104
219.000000	11.154282
218.000000	11.245071
217.000000	11.323326
216.000000	11.416214
215.000000	11.592769
214.000000	11.665149
213.000000	11.733769
212.000000	11.834654
211.000000	11.950270
210.000000	12.189670
209.000000	12.431660
208.000000	12.623272
207.000000	12.859639
206.000000	13.059376
205.000000	13.462519
204.000000	13.962145
203.000000	14.094067
202.000000	14.359278
201.000000	15.135311
200.000000	15.395642
