PE UV       SUBTECH     SPECTRUM    ASCII       PEDS        4.00        
   -1
RTms1556132.Sample.asc
18/03/21
11:28:57.00
18/03/21
11:28:57.00
Administrator

200.000000
1
Lambda 750
750N8071901
PerkinElmer UV WinLab 6.0.4.0738 / 1.61.00 Lambda 900

0
0
3350/servo 860.8/2
0
0
UV/VIS
1
1
1
CommonBeamDepol,150mm sphere / downward view
0
0
0
0
Program
Program
3350/servo 860.8/2
3350/0.2 860.8/0.2
3350/0.2 860.8/0.2
0
1
 
 
 
0
 
860.8
319.2
860.8
Front
100
on
 
 
0
0
0
 
0
 
 
 
0
 
 
0
0
0
0
0
 
 
 
 
0
0


0
0
#HDR
-1
-1
#GR
nm
%R
1.0
0.0
2350.000000
-1.000000
2151
8
63.310450
11.051944
#DATA
2350.000000	39.936590
2349.000000	40.105314
2348.000000	40.094794
2347.000000	40.626109
2346.000000	40.141312
2345.000000	40.031121
2344.000000	40.293717
2343.000000	39.809561
2342.000000	40.124414
2341.000000	40.329007
2340.000000	40.346787
2339.000000	40.437882
2338.000000	40.554855
2337.000000	40.556758
2336.000000	40.924138
2335.000000	40.796380
2334.000000	40.742121
2333.000000	40.727843
2332.000000	40.952294
2331.000000	40.892324
2330.000000	40.944575
2329.000000	40.514772
2328.000000	40.474643
2327.000000	40.584642
2326.000000	40.666275
2325.000000	40.517260
2324.000000	40.517566
2323.000000	40.443754
2322.000000	40.159041
2321.000000	40.277762
2320.000000	40.274362
2319.000000	40.234902
2318.000000	40.157539
2317.000000	40.069891
2316.000000	40.144037
2315.000000	39.920863
2314.000000	39.950166
2313.000000	39.979623
2312.000000	39.750389
2311.000000	39.998396
2310.000000	40.012415
2309.000000	39.677276
2308.000000	39.765732
2307.000000	39.473331
2306.000000	39.469248
2305.000000	39.609475
2304.000000	39.350426
2303.000000	39.275654
2302.000000	39.344002
2301.000000	39.234861
2300.000000	39.139684
2299.000000	39.037018
2298.000000	38.820371
2297.000000	38.839674
2296.000000	38.765696
2295.000000	38.760091
2294.000000	38.657305
2293.000000	38.502249
2292.000000	38.405814
2291.000000	38.475775
2290.000000	38.451777
2289.000000	38.390862
2288.000000	38.468835
2287.000000	38.441381
2286.000000	38.239068
2285.000000	38.303290
2284.000000	38.273650
2283.000000	38.201278
2282.000000	38.022067
2281.000000	38.028581
2280.000000	38.091176
2279.000000	38.336157
2278.000000	38.387122
2277.000000	38.258573
2276.000000	38.280448
2275.000000	38.324149
2274.000000	38.363126
2273.000000	38.423912
2272.000000	38.360966
2271.000000	38.458845
2270.000000	38.613695
2269.000000	38.595779
2268.000000	38.683028
2267.000000	38.761565
2266.000000	38.766841
2265.000000	38.840403
2264.000000	38.995516
2263.000000	39.093235
2262.000000	39.164544
2261.000000	39.291598
2260.000000	39.559797
2259.000000	39.699725
2258.000000	39.820828
2257.000000	39.893825
2256.000000	39.895866
2255.000000	40.070056
2254.000000	40.355894
2253.000000	40.512916
2252.000000	40.598087
2251.000000	40.605476
2250.000000	40.696703
2249.000000	40.877391
2248.000000	41.078270
2247.000000	41.214693
2246.000000	41.308379
2245.000000	41.446942
2244.000000	41.582765
2243.000000	41.757762
2242.000000	41.852153
2241.000000	42.005448
2240.000000	42.114804
2239.000000	42.206270
2238.000000	42.426009
2237.000000	42.514213
2236.000000	42.550241
2235.000000	42.716208
2234.000000	42.773435
2233.000000	42.775336
2232.000000	42.845132
2231.000000	42.846051
2230.000000	42.904496
2229.000000	42.947836
2228.000000	42.937827
2227.000000	42.915477
2226.000000	42.988694
2225.000000	43.088903
2224.000000	43.103180
2223.000000	43.015527
2222.000000	42.919199
2221.000000	42.940560
2220.000000	43.035943
2219.000000	43.024600
2218.000000	42.919012
2217.000000	42.819619
2216.000000	42.746974
2215.000000	42.769250
2214.000000	42.823905
2213.000000	42.749598
2212.000000	42.652590
2211.000000	42.606026
2210.000000	42.688112
2209.000000	42.636274
2208.000000	42.512232
2207.000000	42.611758
2206.000000	42.587894
2205.000000	42.437825
2204.000000	42.397279
2203.000000	42.393189
2202.000000	42.318098
2201.000000	42.197652
2200.000000	42.148848
2199.000000	42.159937
2198.000000	42.122031
2197.000000	42.115648
2196.000000	42.009206
2195.000000	41.977465
2194.000000	41.941528
2193.000000	41.907037
2192.000000	41.755290
2191.000000	41.699177
2190.000000	41.715387
2189.000000	41.715881
2188.000000	41.659290
2187.000000	41.577815
2186.000000	41.474449
2185.000000	41.475190
2184.000000	41.499420
2183.000000	41.567924
2182.000000	41.376753
2181.000000	41.445011
2180.000000	41.414511
2179.000000	41.335299
2178.000000	41.344947
2177.000000	41.279906
2176.000000	41.448071
2175.000000	41.509289
2174.000000	41.488704
2173.000000	41.487561
2172.000000	41.575999
2171.000000	41.608794
2170.000000	41.661786
2169.000000	41.706862
2168.000000	41.760972
2167.000000	41.859386
2166.000000	41.958674
2165.000000	41.964807
2164.000000	42.132497
2163.000000	42.152407
2162.000000	42.407557
2161.000000	42.364859
2160.000000	42.470140
2159.000000	42.609773
2158.000000	42.676584
2157.000000	42.911861
2156.000000	42.990188
2155.000000	43.137671
2154.000000	43.211583
2153.000000	43.401374
2152.000000	43.574241
2151.000000	43.657452
2150.000000	43.650868
2149.000000	43.875184
2148.000000	43.906787
2147.000000	43.956613
2146.000000	44.013171
2145.000000	44.138065
2144.000000	44.280452
2143.000000	44.339917
2142.000000	44.494797
2141.000000	44.603228
2140.000000	44.634155
2139.000000	45.014451
2138.000000	45.066420
2137.000000	45.138536
2136.000000	45.204620
2135.000000	45.122099
2134.000000	45.339808
2133.000000	45.249612
2132.000000	45.369357
2131.000000	45.462756
2130.000000	45.452131
2129.000000	45.551385
2128.000000	45.619466
2127.000000	45.589178
2126.000000	45.603546
2125.000000	45.721741
2124.000000	45.810969
2123.000000	45.939892
2122.000000	45.970875
2121.000000	45.822461
2120.000000	45.884255
2119.000000	46.026224
2118.000000	45.790205
2117.000000	45.950359
2116.000000	46.044730
2115.000000	46.076413
2114.000000	45.889931
2113.000000	46.029010
2112.000000	45.960441
2111.000000	46.087059
2110.000000	46.088531
2109.000000	46.153799
2108.000000	46.101402
2107.000000	46.249654
2106.000000	46.196933
2105.000000	46.058214
2104.000000	46.129091
2103.000000	46.115237
2102.000000	46.116621
2101.000000	46.197521
2100.000000	46.274258
2099.000000	46.126903
2098.000000	46.169459
2097.000000	46.066075
2096.000000	46.175609
2095.000000	46.120863
2094.000000	46.190576
2093.000000	46.242747
2092.000000	46.130402
2091.000000	46.185103
2090.000000	46.052493
2089.000000	46.050116
2088.000000	46.087661
2087.000000	46.088410
2086.000000	46.101314
2085.000000	46.106617
2084.000000	45.989642
2083.000000	45.893977
2082.000000	45.882018
2081.000000	45.897937
2080.000000	45.775188
2079.000000	45.844871
2078.000000	45.748460
2077.000000	45.649226
2076.000000	45.556538
2075.000000	45.446795
2074.000000	45.363431
2073.000000	45.334345
2072.000000	45.234783
2071.000000	45.219350
2070.000000	45.144330
2069.000000	45.019834
2068.000000	44.840174
2067.000000	44.794369
2066.000000	44.676791
2065.000000	44.539955
2064.000000	44.495231
2063.000000	44.346115
2062.000000	44.229290
2061.000000	44.102725
2060.000000	43.936056
2059.000000	43.869572
2058.000000	43.768309
2057.000000	43.712652
2056.000000	43.609328
2055.000000	43.495397
2054.000000	43.401246
2053.000000	43.239768
2052.000000	43.152837
2051.000000	43.090379
2050.000000	42.993656
2049.000000	42.871157
2048.000000	42.805400
2047.000000	42.812757
2046.000000	42.776965
2045.000000	42.711142
2044.000000	42.637061
2043.000000	42.605904
2042.000000	42.584941
2041.000000	42.585747
2040.000000	42.614475
2039.000000	42.577953
2038.000000	42.662802
2037.000000	42.734670
2036.000000	42.767348
2035.000000	42.831674
2034.000000	42.847395
2033.000000	42.918177
2032.000000	43.025341
2031.000000	43.057315
2030.000000	43.162341
2029.000000	43.279113
2028.000000	43.291515
2027.000000	43.374305
2026.000000	43.479881
2025.000000	43.529503
2024.000000	43.537187
2023.000000	43.582811
2022.000000	43.638896
2021.000000	43.654763
2020.000000	43.703489
2019.000000	43.727566
2018.000000	43.787294
2017.000000	43.842574
2016.000000	43.778533
2015.000000	43.720202
2014.000000	43.707305
2013.000000	43.709758
2012.000000	43.657191
2011.000000	43.607872
2010.000000	43.572076
2009.000000	43.513823
2008.000000	43.450829
2007.000000	43.397468
2006.000000	43.322663
2005.000000	43.291901
2004.000000	43.212572
2003.000000	43.118388
2002.000000	43.062064
2001.000000	42.972672
2000.000000	42.885918
1999.000000	42.780969
1998.000000	42.697421
1997.000000	42.650282
1996.000000	42.577831
1995.000000	42.492926
1994.000000	42.389085
1993.000000	42.259199
1992.000000	42.184363
1991.000000	42.109801
1990.000000	42.019385
1989.000000	41.926823
1988.000000	41.825812
1987.000000	41.769648
1986.000000	41.649677
1985.000000	41.573449
1984.000000	41.476439
1983.000000	41.410893
1982.000000	41.326793
1981.000000	41.233027
1980.000000	41.153499
1979.000000	41.023726
1978.000000	40.925831
1977.000000	40.857185
1976.000000	40.777091
1975.000000	40.671461
1974.000000	40.597243
1973.000000	40.499819
1972.000000	40.421346
1971.000000	40.351750
1970.000000	40.302718
1969.000000	40.221232
1968.000000	40.129287
1967.000000	40.025523
1966.000000	39.940187
1965.000000	39.859459
1964.000000	39.810925
1963.000000	39.742430
1962.000000	39.675983
1961.000000	39.548675
1960.000000	39.519799
1959.000000	39.417219
1958.000000	39.362423
1957.000000	39.283352
1956.000000	39.163766
1955.000000	39.130386
1954.000000	39.119212
1953.000000	39.096228
1952.000000	39.019594
1951.000000	38.945185
1950.000000	38.934432
1949.000000	38.863093
1948.000000	38.890177
1947.000000	38.861782
1946.000000	38.846526
1945.000000	38.844853
1944.000000	38.859313
1943.000000	38.838038
1942.000000	38.834350
1941.000000	38.870068
1940.000000	38.969868
1939.000000	38.992399
1938.000000	39.028604
1937.000000	39.141415
1936.000000	39.295385
1935.000000	39.256460
1934.000000	39.376302
1933.000000	39.504736
1932.000000	39.594250
1931.000000	39.682498
1930.000000	39.858972
1929.000000	39.956172
1928.000000	40.121756
1927.000000	40.331045
1926.000000	40.505883
1925.000000	40.677147
1924.000000	40.883191
1923.000000	41.133601
1922.000000	41.343782
1921.000000	41.621078
1920.000000	41.905933
1919.000000	42.037713
1918.000000	42.314910
1917.000000	42.566016
1916.000000	42.773938
1915.000000	43.118898
1914.000000	43.459232
1913.000000	43.756566
1912.000000	43.975248
1911.000000	44.324808
1910.000000	44.628689
1909.000000	44.922157
1908.000000	45.252977
1907.000000	45.606906
1906.000000	45.970063
1905.000000	46.303645
1904.000000	46.596658
1903.000000	46.956269
1902.000000	47.381115
1901.000000	47.758919
1900.000000	48.090048
1899.000000	48.485837
1898.000000	48.891146
1897.000000	49.181976
1896.000000	49.489441
1895.000000	49.899058
1894.000000	50.171891
1893.000000	50.475631
1892.000000	50.900301
1891.000000	51.199015
1890.000000	51.506649
1889.000000	51.785676
1888.000000	52.037862
1887.000000	52.349512
1886.000000	52.652767
1885.000000	52.895597
1884.000000	53.125895
1883.000000	53.385412
1882.000000	53.628669
1881.000000	53.802206
1880.000000	54.050647
1879.000000	54.245183
1878.000000	54.429438
1877.000000	54.673293
1876.000000	54.808252
1875.000000	54.961910
1874.000000	55.144786
1873.000000	55.252071
1872.000000	55.383548
1871.000000	55.516659
1870.000000	55.607302
1869.000000	55.737252
1868.000000	55.793475
1867.000000	55.874542
1866.000000	55.961391
1865.000000	56.006508
1864.000000	56.062244
1863.000000	56.094513
1862.000000	56.178442
1861.000000	56.206225
1860.000000	56.242689
1859.000000	56.267635
1858.000000	56.289582
1857.000000	56.338330
1856.000000	56.377766
1855.000000	56.387531
1854.000000	56.412001
1853.000000	56.430954
1852.000000	56.423735
1851.000000	56.436130
1850.000000	56.462917
1849.000000	56.469926
1848.000000	56.465341
1847.000000	56.505697
1846.000000	56.497355
1845.000000	56.486135
1844.000000	56.458312
1843.000000	56.418394
1842.000000	56.426228
1841.000000	56.430066
1840.000000	56.415470
1839.000000	56.404557
1838.000000	56.383517
1837.000000	56.332565
1836.000000	56.299194
1835.000000	56.310081
1834.000000	56.270168
1833.000000	56.234032
1832.000000	56.247211
1831.000000	56.206711
1830.000000	56.179153
1829.000000	56.181820
1828.000000	56.129328
1827.000000	56.105115
1826.000000	56.074699
1825.000000	56.067425
1824.000000	56.071669
1823.000000	56.047656
1822.000000	56.009708
1821.000000	55.990527
1820.000000	55.967400
1819.000000	55.949621
1818.000000	55.931686
1817.000000	55.893500
1816.000000	55.889746
1815.000000	55.883080
1814.000000	55.840201
1813.000000	55.815808
1812.000000	55.808850
1811.000000	55.797197
1810.000000	55.800006
1809.000000	55.787805
1808.000000	55.758924
1807.000000	55.724421
1806.000000	55.720369
1805.000000	55.688751
1804.000000	55.659160
1803.000000	55.661628
1802.000000	55.644025
1801.000000	55.641749
1800.000000	55.638264
1799.000000	55.607355
1798.000000	55.596968
1797.000000	55.585409
1796.000000	55.573203
1795.000000	55.553633
1794.000000	55.554187
1793.000000	55.533451
1792.000000	55.514349
1791.000000	55.514364
1790.000000	55.501264
1789.000000	55.493529
1788.000000	55.489615
1787.000000	55.476236
1786.000000	55.469534
1785.000000	55.451001
1784.000000	55.418248
1783.000000	55.398321
1782.000000	55.381977
1781.000000	55.382201
1780.000000	55.372512
1779.000000	55.333603
1778.000000	55.291225
1777.000000	55.281693
1776.000000	55.277867
1775.000000	55.226615
1774.000000	55.177283
1773.000000	55.167909
1772.000000	55.113721
1771.000000	55.101303
1770.000000	55.072514
1769.000000	55.034477
1768.000000	55.016246
1767.000000	54.974728
1766.000000	54.953603
1765.000000	54.924604
1764.000000	54.924477
1763.000000	54.884334
1762.000000	54.857331
1761.000000	54.823122
1760.000000	54.779480
1759.000000	54.753375
1758.000000	54.735043
1757.000000	54.703616
1756.000000	54.666607
1755.000000	54.650572
1754.000000	54.609248
1753.000000	54.620713
1752.000000	54.603196
1751.000000	54.558897
1750.000000	54.500342
1749.000000	54.520343
1748.000000	54.471088
1747.000000	54.422547
1746.000000	54.389129
1745.000000	54.336513
1744.000000	54.323347
1743.000000	54.297697
1742.000000	54.248459
1741.000000	54.225660
1740.000000	54.185419
1739.000000	54.181849
1738.000000	54.163180
1737.000000	54.154883
1736.000000	54.136396
1735.000000	54.096991
1734.000000	54.095142
1733.000000	54.102401
1732.000000	54.104680
1731.000000	54.131937
1730.000000	54.120396
1729.000000	54.149025
1728.000000	54.195905
1727.000000	54.225755
1726.000000	54.259590
1725.000000	54.322450
1724.000000	54.366261
1723.000000	54.392905
1722.000000	54.448525
1721.000000	54.532126
1720.000000	54.599672
1719.000000	54.668103
1718.000000	54.712601
1717.000000	54.773403
1716.000000	54.817272
1715.000000	54.862282
1714.000000	54.920164
1713.000000	55.000947
1712.000000	55.034147
1711.000000	55.080716
1710.000000	55.162801
1709.000000	55.167943
1708.000000	55.192908
1707.000000	55.228492
1706.000000	55.276172
1705.000000	55.275187
1704.000000	55.300029
1703.000000	55.295799
1702.000000	55.352943
1701.000000	55.368570
1700.000000	55.360789
1699.000000	55.359546
1698.000000	55.391340
1697.000000	55.432366
1696.000000	55.465784
1695.000000	55.449777
1694.000000	55.449147
1693.000000	55.525602
1692.000000	55.522305
1691.000000	55.557184
1690.000000	55.624458
1689.000000	55.687205
1688.000000	55.739557
1687.000000	55.797686
1686.000000	55.856478
1685.000000	55.896337
1684.000000	55.984714
1683.000000	56.093758
1682.000000	56.197056
1681.000000	56.281455
1680.000000	56.358793
1679.000000	56.483223
1678.000000	56.585557
1677.000000	56.664258
1676.000000	56.769858
1675.000000	56.862386
1674.000000	56.939020
1673.000000	57.064395
1672.000000	57.152308
1671.000000	57.237074
1670.000000	57.335496
1669.000000	57.428548
1668.000000	57.537659
1667.000000	57.589090
1666.000000	57.635642
1665.000000	57.699500
1664.000000	57.742728
1663.000000	57.807061
1662.000000	57.843176
1661.000000	57.899139
1660.000000	57.930822
1659.000000	57.969191
1658.000000	58.005581
1657.000000	58.019674
1656.000000	58.046780
1655.000000	58.067944
1654.000000	58.087216
1653.000000	58.112626
1652.000000	58.101229
1651.000000	58.112143
1650.000000	58.130154
1649.000000	58.135898
1648.000000	58.102671
1647.000000	58.123491
1646.000000	58.117772
1645.000000	58.113973
1644.000000	58.103618
1643.000000	58.089277
1642.000000	58.079340
1641.000000	58.063853
1640.000000	58.049837
1639.000000	58.026005
1638.000000	58.026498
1637.000000	58.039821
1636.000000	57.998960
1635.000000	57.984293
1634.000000	57.977359
1633.000000	57.932114
1632.000000	57.917557
1631.000000	57.920902
1630.000000	57.891118
1629.000000	57.863347
1628.000000	57.849935
1627.000000	57.831698
1626.000000	57.818623
1625.000000	57.794478
1624.000000	57.766255
1623.000000	57.746151
1622.000000	57.724142
1621.000000	57.693681
1620.000000	57.657341
1619.000000	57.616669
1618.000000	57.585695
1617.000000	57.556741
1616.000000	57.527051
1615.000000	57.487520
1614.000000	57.469090
1613.000000	57.442891
1612.000000	57.429131
1611.000000	57.405735
1610.000000	57.367956
1609.000000	57.324919
1608.000000	57.285732
1607.000000	57.255927
1606.000000	57.215614
1605.000000	57.190743
1604.000000	57.161879
1603.000000	57.134603
1602.000000	57.098432
1601.000000	57.056498
1600.000000	57.024231
1599.000000	56.989148
1598.000000	56.945036
1597.000000	56.916270
1596.000000	56.895896
1595.000000	56.871369
1594.000000	56.852285
1593.000000	56.823963
1592.000000	56.791230
1591.000000	56.761691
1590.000000	56.728936
1589.000000	56.688655
1588.000000	56.669481
1587.000000	56.657787
1586.000000	56.639972
1585.000000	56.616955
1584.000000	56.582372
1583.000000	56.554655
1582.000000	56.532413
1581.000000	56.515735
1580.000000	56.492540
1579.000000	56.468016
1578.000000	56.454600
1577.000000	56.432706
1576.000000	56.391943
1575.000000	56.365454
1574.000000	56.349629
1573.000000	56.324476
1572.000000	56.301883
1571.000000	56.278426
1570.000000	56.265446
1569.000000	56.234286
1568.000000	56.206912
1567.000000	56.203321
1566.000000	56.173263
1565.000000	56.160982
1564.000000	56.148972
1563.000000	56.140242
1562.000000	56.124399
1561.000000	56.094909
1560.000000	56.088202
1559.000000	56.066087
1558.000000	56.069359
1557.000000	56.056127
1556.000000	56.039164
1555.000000	56.032133
1554.000000	56.023466
1553.000000	56.002144
1552.000000	55.969815
1551.000000	55.952997
1550.000000	55.964668
1549.000000	55.953325
1548.000000	55.920043
1547.000000	55.869712
1546.000000	55.840052
1545.000000	55.816992
1544.000000	55.777321
1543.000000	55.738647
1542.000000	55.693160
1541.000000	55.652123
1540.000000	55.611566
1539.000000	55.560764
1538.000000	55.515921
1537.000000	55.456513
1536.000000	55.413207
1535.000000	55.368011
1534.000000	55.312999
1533.000000	55.279807
1532.000000	55.219701
1531.000000	55.158613
1530.000000	55.117562
1529.000000	55.079619
1528.000000	55.036409
1527.000000	54.985882
1526.000000	54.945965
1525.000000	54.920091
1524.000000	54.892082
1523.000000	54.858283
1522.000000	54.829753
1521.000000	54.777230
1520.000000	54.773327
1519.000000	54.726147
1518.000000	54.692714
1517.000000	54.695784
1516.000000	54.663492
1515.000000	54.635970
1514.000000	54.642821
1513.000000	54.675910
1512.000000	54.708372
1511.000000	54.708892
1510.000000	54.700090
1509.000000	54.668161
1508.000000	54.648806
1507.000000	54.623281
1506.000000	54.597402
1505.000000	54.588503
1504.000000	54.566550
1503.000000	54.564027
1502.000000	54.556535
1501.000000	54.542532
1500.000000	54.539720
1499.000000	54.547692
1498.000000	54.536947
1497.000000	54.547498
1496.000000	54.550818
1495.000000	54.544909
1494.000000	54.557957
1493.000000	54.585120
1492.000000	54.596877
1491.000000	54.615295
1490.000000	54.640118
1489.000000	54.641112
1488.000000	54.663571
1487.000000	54.698819
1486.000000	54.717754
1485.000000	54.752329
1484.000000	54.762009
1483.000000	54.827266
1482.000000	54.855845
1481.000000	54.865390
1480.000000	54.928754
1479.000000	54.922630
1478.000000	54.973734
1477.000000	55.009269
1476.000000	55.040520
1475.000000	55.074432
1474.000000	55.092313
1473.000000	55.136940
1472.000000	55.154157
1471.000000	55.195322
1470.000000	55.219715
1469.000000	55.263064
1468.000000	55.286206
1467.000000	55.315797
1466.000000	55.336082
1465.000000	55.376629
1464.000000	55.433492
1463.000000	55.467374
1462.000000	55.462970
1461.000000	55.501989
1460.000000	55.542396
1459.000000	55.564684
1458.000000	55.589884
1457.000000	55.608509
1456.000000	55.655818
1455.000000	55.688531
1454.000000	55.733397
1453.000000	55.775108
1452.000000	55.811007
1451.000000	55.863271
1450.000000	55.901863
1449.000000	55.919646
1448.000000	55.950284
1447.000000	55.991111
1446.000000	56.054642
1445.000000	56.111015
1444.000000	56.155171
1443.000000	56.199337
1442.000000	56.246855
1441.000000	56.293191
1440.000000	56.331498
1439.000000	56.383030
1438.000000	56.459336
1437.000000	56.528962
1436.000000	56.585602
1435.000000	56.642000
1434.000000	56.701554
1433.000000	56.759315
1432.000000	56.822121
1431.000000	56.901498
1430.000000	56.961171
1429.000000	57.043037
1428.000000	57.105803
1427.000000	57.180072
1426.000000	57.276112
1425.000000	57.365115
1424.000000	57.435124
1423.000000	57.535451
1422.000000	57.623119
1421.000000	57.705331
1420.000000	57.780313
1419.000000	57.875294
1418.000000	57.985399
1417.000000	58.095384
1416.000000	58.192204
1415.000000	58.279396
1414.000000	58.369332
1413.000000	58.481881
1412.000000	58.584438
1411.000000	58.681546
1410.000000	58.787097
1409.000000	58.907864
1408.000000	59.014867
1407.000000	59.121373
1406.000000	59.213073
1405.000000	59.296269
1404.000000	59.396653
1403.000000	59.492952
1402.000000	59.595780
1401.000000	59.707535
1400.000000	59.798984
1399.000000	59.892613
1398.000000	59.970519
1397.000000	60.046769
1396.000000	60.126866
1395.000000	60.208748
1394.000000	60.298815
1393.000000	60.370347
1392.000000	60.434780
1391.000000	60.501822
1390.000000	60.564603
1389.000000	60.626304
1388.000000	60.693513
1387.000000	60.767437
1386.000000	60.824665
1385.000000	60.892569
1384.000000	60.952204
1383.000000	60.995490
1382.000000	61.053595
1381.000000	61.100072
1380.000000	61.129995
1379.000000	61.178910
1378.000000	61.224620
1377.000000	61.242983
1376.000000	61.259135
1375.000000	61.314007
1374.000000	61.359988
1373.000000	61.362566
1372.000000	61.374743
1371.000000	61.409343
1370.000000	61.447104
1369.000000	61.466674
1368.000000	61.483727
1367.000000	61.521020
1366.000000	61.541376
1365.000000	61.556851
1364.000000	61.581896
1363.000000	61.596808
1362.000000	61.620155
1361.000000	61.655136
1360.000000	61.673272
1359.000000	61.684152
1358.000000	61.713733
1357.000000	61.756485
1356.000000	61.797609
1355.000000	61.820933
1354.000000	61.852469
1353.000000	61.882283
1352.000000	61.897749
1351.000000	61.918016
1350.000000	61.945711
1349.000000	61.965264
1348.000000	61.985605
1347.000000	62.015287
1346.000000	62.052229
1345.000000	62.080351
1344.000000	62.092427
1343.000000	62.123365
1342.000000	62.143042
1341.000000	62.159068
1340.000000	62.188268
1339.000000	62.199875
1338.000000	62.228962
1337.000000	62.264048
1336.000000	62.287789
1335.000000	62.301144
1334.000000	62.299053
1333.000000	62.307519
1332.000000	62.328978
1331.000000	62.346838
1330.000000	62.383309
1329.000000	62.387415
1328.000000	62.400298
1327.000000	62.407377
1326.000000	62.431460
1325.000000	62.440998
1324.000000	62.439356
1323.000000	62.463838
1322.000000	62.481245
1321.000000	62.479989
1320.000000	62.503298
1319.000000	62.523720
1318.000000	62.528504
1317.000000	62.511466
1316.000000	62.516590
1315.000000	62.528179
1314.000000	62.552527
1313.000000	62.557779
1312.000000	62.556710
1311.000000	62.566477
1310.000000	62.587030
1309.000000	62.566606
1308.000000	62.588964
1307.000000	62.595772
1306.000000	62.593695
1305.000000	62.602323
1304.000000	62.594246
1303.000000	62.612284
1302.000000	62.636003
1301.000000	62.648463
1300.000000	62.638778
1299.000000	62.643391
1298.000000	62.635475
1297.000000	62.636525
1296.000000	62.639649
1295.000000	62.622618
1294.000000	62.631915
1293.000000	62.625120
1292.000000	62.650359
1291.000000	62.653518
1290.000000	62.653703
1289.000000	62.662373
1288.000000	62.652400
1287.000000	62.613740
1286.000000	62.595895
1285.000000	62.606547
1284.000000	62.604962
1283.000000	62.621507
1282.000000	62.627295
1281.000000	62.622733
1280.000000	62.622168
1279.000000	62.642382
1278.000000	62.637130
1277.000000	62.638222
1276.000000	62.627220
1275.000000	62.636586
1274.000000	62.631355
1273.000000	62.637340
1272.000000	62.643020
1271.000000	62.634415
1270.000000	62.628140
1269.000000	62.631675
1268.000000	62.617788
1267.000000	62.635821
1266.000000	62.623329
1265.000000	62.628391
1264.000000	62.654102
1263.000000	62.676036
1262.000000	62.681843
1261.000000	62.683457
1260.000000	62.667925
1259.000000	62.670223
1258.000000	62.667133
1257.000000	62.701612
1256.000000	62.696411
1255.000000	62.716245
1254.000000	62.699831
1253.000000	62.706366
1252.000000	62.703485
1251.000000	62.709192
1250.000000	62.705684
1249.000000	62.705545
1248.000000	62.697110
1247.000000	62.692209
1246.000000	62.680367
1245.000000	62.712486
1244.000000	62.704348
1243.000000	62.700989
1242.000000	62.690227
1241.000000	62.662134
1240.000000	62.655719
1239.000000	62.674878
1238.000000	62.664454
1237.000000	62.640036
1236.000000	62.614180
1235.000000	62.605351
1234.000000	62.593027
1233.000000	62.570400
1232.000000	62.575431
1231.000000	62.575692
1230.000000	62.582290
1229.000000	62.547323
1228.000000	62.533500
1227.000000	62.530077
1226.000000	62.520071
1225.000000	62.529999
1224.000000	62.540916
1223.000000	62.525784
1222.000000	62.522103
1221.000000	62.514414
1220.000000	62.494020
1219.000000	62.481645
1218.000000	62.474479
1217.000000	62.470573
1216.000000	62.436879
1215.000000	62.419944
1214.000000	62.409182
1213.000000	62.386827
1212.000000	62.408876
1211.000000	62.415050
1210.000000	62.399606
1209.000000	62.373161
1208.000000	62.388195
1207.000000	62.370435
1206.000000	62.355733
1205.000000	62.334499
1204.000000	62.318989
1203.000000	62.308583
1202.000000	62.303978
1201.000000	62.293720
1200.000000	62.262562
1199.000000	62.277670
1198.000000	62.274991
1197.000000	62.254997
1196.000000	62.243304
1195.000000	62.223963
1194.000000	62.208818
1193.000000	62.197286
1192.000000	62.197719
1191.000000	62.182481
1190.000000	62.171980
1189.000000	62.150327
1188.000000	62.150070
1187.000000	62.169627
1186.000000	62.156866
1185.000000	62.162433
1184.000000	62.151099
1183.000000	62.156568
1182.000000	62.164538
1181.000000	62.171436
1180.000000	62.186250
1179.000000	62.196939
1178.000000	62.214426
1177.000000	62.237167
1176.000000	62.251876
1175.000000	62.265540
1174.000000	62.292080
1173.000000	62.313303
1172.000000	62.329932
1171.000000	62.354080
1170.000000	62.389898
1169.000000	62.418311
1168.000000	62.443794
1167.000000	62.474774
1166.000000	62.494451
1165.000000	62.514678
1164.000000	62.540892
1163.000000	62.575521
1162.000000	62.600757
1161.000000	62.645699
1160.000000	62.672162
1159.000000	62.689277
1158.000000	62.727096
1157.000000	62.758639
1156.000000	62.781680
1155.000000	62.781482
1154.000000	62.797647
1153.000000	62.836919
1152.000000	62.860506
1151.000000	62.881439
1150.000000	62.898057
1149.000000	62.921803
1148.000000	62.946728
1147.000000	62.968319
1146.000000	62.983828
1145.000000	62.985997
1144.000000	63.005800
1143.000000	63.028374
1142.000000	63.037823
1141.000000	63.059592
1140.000000	63.069302
1139.000000	63.085961
1138.000000	63.111306
1137.000000	63.124399
1136.000000	63.119129
1135.000000	63.133290
1134.000000	63.150019
1133.000000	63.164801
1132.000000	63.178854
1131.000000	63.189967
1130.000000	63.205951
1129.000000	63.222307
1128.000000	63.221424
1127.000000	63.219192
1126.000000	63.243797
1125.000000	63.266649
1124.000000	63.254729
1123.000000	63.259981
1122.000000	63.246216
1121.000000	63.258601
1120.000000	63.269872
1119.000000	63.268384
1118.000000	63.264239
1117.000000	63.262650
1116.000000	63.274278
1115.000000	63.280102
1114.000000	63.272228
1113.000000	63.271966
1112.000000	63.282306
1111.000000	63.293172
1110.000000	63.289719
1109.000000	63.285765
1108.000000	63.301408
1107.000000	63.299152
1106.000000	63.297323
1105.000000	63.304112
1104.000000	63.310450
1103.000000	63.280119
1102.000000	63.271495
1101.000000	63.283256
1100.000000	63.295744
1099.000000	63.299516
1098.000000	63.296060
1097.000000	63.296289
1096.000000	63.290507
1095.000000	63.281487
1094.000000	63.286451
1093.000000	63.264532
1092.000000	63.274601
1091.000000	63.282449
1090.000000	63.269520
1089.000000	63.277978
1088.000000	63.263476
1087.000000	63.258992
1086.000000	63.253646
1085.000000	63.264533
1084.000000	63.280043
1083.000000	63.292659
1082.000000	63.282989
1081.000000	63.250490
1080.000000	63.246891
1079.000000	63.255880
1078.000000	63.262463
1077.000000	63.265801
1076.000000	63.257242
1075.000000	63.256523
1074.000000	63.213586
1073.000000	63.213968
1072.000000	63.235281
1071.000000	63.232386
1070.000000	63.231686
1069.000000	63.224760
1068.000000	63.242089
1067.000000	63.212262
1066.000000	63.215047
1065.000000	63.198154
1064.000000	63.211335
1063.000000	63.204049
1062.000000	63.199216
1061.000000	63.193745
1060.000000	63.196973
1059.000000	63.180715
1058.000000	63.151089
1057.000000	63.170845
1056.000000	63.179972
1055.000000	63.191453
1054.000000	63.169579
1053.000000	63.160210
1052.000000	63.170435
1051.000000	63.162538
1050.000000	63.161169
1049.000000	63.150443
1048.000000	63.116812
1047.000000	63.144662
1046.000000	63.136435
1045.000000	63.138387
1044.000000	63.105039
1043.000000	63.125266
1042.000000	63.132524
1041.000000	63.125438
1040.000000	63.102146
1039.000000	63.100869
1038.000000	63.091565
1037.000000	63.097303
1036.000000	63.087297
1035.000000	63.082048
1034.000000	63.073335
1033.000000	63.065220
1032.000000	63.090176
1031.000000	63.064138
1030.000000	63.069268
1029.000000	63.073343
1028.000000	63.060114
1027.000000	63.058659
1026.000000	63.058401
1025.000000	63.066147
1024.000000	63.048054
1023.000000	63.052278
1022.000000	63.058982
1021.000000	63.050308
1020.000000	63.033534
1019.000000	63.032059
1018.000000	63.030496
1017.000000	63.033317
1016.000000	63.031713
1015.000000	63.035751
1014.000000	63.027541
1013.000000	63.038651
1012.000000	63.019798
1011.000000	63.015414
1010.000000	63.023261
1009.000000	63.009575
1008.000000	63.006128
1007.000000	63.007616
1006.000000	62.994070
1005.000000	63.017458
1004.000000	63.014959
1003.000000	62.994437
1002.000000	62.995037
1001.000000	62.986307
1000.000000	62.998904
999.000000	62.994119
998.000000	62.980164
997.000000	62.981921
996.000000	62.997227
995.000000	62.998977
994.000000	62.996595
993.000000	63.000247
992.000000	62.990481
991.000000	62.992724
990.000000	62.989996
989.000000	62.972327
988.000000	62.994629
987.000000	62.990996
986.000000	62.998725
985.000000	62.999351
984.000000	62.989126
983.000000	63.011752
982.000000	62.997380
981.000000	63.003814
980.000000	62.993456
979.000000	62.998856
978.000000	62.994875
977.000000	63.000882
976.000000	63.014502
975.000000	63.018372
974.000000	63.011325
973.000000	63.003441
972.000000	62.993573
971.000000	62.991880
970.000000	63.000815
969.000000	63.011953
968.000000	63.005833
967.000000	62.997424
966.000000	63.005494
965.000000	63.010745
964.000000	63.002751
963.000000	62.996875
962.000000	63.010286
961.000000	63.004444
960.000000	62.996284
959.000000	63.000301
958.000000	62.997659
957.000000	62.990636
956.000000	63.001643
955.000000	63.009032
954.000000	62.986626
953.000000	62.974357
952.000000	62.970966
951.000000	62.969634
950.000000	62.975678
949.000000	62.983256
948.000000	62.998348
947.000000	63.001736
946.000000	62.974425
945.000000	62.958332
944.000000	62.972015
943.000000	62.983594
942.000000	62.978279
941.000000	62.964363
940.000000	62.966553
939.000000	62.974904
938.000000	62.956936
937.000000	62.945772
936.000000	62.966045
935.000000	62.972663
934.000000	62.964490
933.000000	62.947498
932.000000	62.944493
931.000000	62.970154
930.000000	62.933062
929.000000	62.916325
928.000000	62.941795
927.000000	62.929489
926.000000	62.915565
925.000000	62.903729
924.000000	62.884291
923.000000	62.894599
922.000000	62.882365
921.000000	62.895413
920.000000	62.900014
919.000000	62.861416
918.000000	62.855226
917.000000	62.874242
916.000000	62.867998
915.000000	62.862466
914.000000	62.842414
913.000000	62.835071
912.000000	62.846704
911.000000	62.855520
910.000000	62.844898
909.000000	62.861944
908.000000	62.842011
907.000000	62.775308
906.000000	62.804353
905.000000	62.816586
904.000000	62.840455
903.000000	62.824028
902.000000	62.817539
901.000000	62.785948
900.000000	62.765566
899.000000	62.814238
898.000000	62.820472
897.000000	62.803560
896.000000	62.805120
895.000000	62.784199
894.000000	62.753342
893.000000	62.721061
892.000000	62.737582
891.000000	62.755734
890.000000	62.760956
889.000000	62.730660
888.000000	62.744275
887.000000	62.770431
886.000000	62.779346
885.000000	62.711417
884.000000	62.813130
883.000000	62.799796
882.000000	62.727773
881.000000	62.762648
880.000000	62.808574
879.000000	62.777666
878.000000	62.703621
877.000000	62.711968
876.000000	62.711347
875.000000	62.698055
874.000000	62.731335
873.000000	62.648951
872.000000	62.730298
871.000000	62.673846
870.000000	62.650816
869.000000	62.642649
868.000000	62.680536
867.000000	62.692649
866.000000	62.672716
865.000000	62.597407
864.000000	62.680572
863.000000	62.581623
862.000000	62.537194
861.000000	62.528922
860.000000	62.533094
859.000000	62.532327
858.000000	62.747967
857.000000	62.581698
856.000000	62.521313
855.000000	63.158967
854.000000	63.031735
853.000000	62.972873
852.000000	62.732210
851.000000	63.003776
850.000000	62.823495
849.000000	62.491627
848.000000	62.575546
847.000000	62.677569
846.000000	62.835228
845.000000	62.740032
844.000000	62.724441
843.000000	62.928617
842.000000	62.617658
841.000000	62.522617
840.000000	62.594834
839.000000	62.402276
838.000000	62.671943
837.000000	62.624375
836.000000	62.561504
835.000000	62.655237
834.000000	62.528329
833.000000	62.428235
832.000000	62.523380
831.000000	62.755762
830.000000	62.578842
829.000000	62.568641
828.000000	62.525194
827.000000	62.474752
826.000000	62.409072
825.000000	62.583658
824.000000	62.398959
823.000000	62.395429
822.000000	62.476163
821.000000	62.271124
820.000000	62.426206
819.000000	62.270871
818.000000	62.268744
817.000000	62.417361
816.000000	62.314825
815.000000	62.310574
814.000000	62.205914
813.000000	62.199267
812.000000	62.290801
811.000000	62.174394
810.000000	62.166547
809.000000	62.214658
808.000000	62.188170
807.000000	62.268710
806.000000	62.283908
805.000000	62.197818
804.000000	62.100252
803.000000	62.231764
802.000000	62.229605
801.000000	62.099162
800.000000	62.036185
799.000000	62.197294
798.000000	62.028598
797.000000	61.986861
796.000000	62.135673
795.000000	61.974951
794.000000	61.898513
793.000000	62.011164
792.000000	62.036655
791.000000	61.972001
790.000000	61.879881
789.000000	61.990671
788.000000	62.007991
787.000000	62.001034
786.000000	61.950958
785.000000	61.949378
784.000000	61.857007
783.000000	61.972506
782.000000	61.896604
781.000000	61.899473
780.000000	61.888151
779.000000	61.855790
778.000000	61.765556
777.000000	61.704370
776.000000	61.686987
775.000000	61.615457
774.000000	61.656419
773.000000	61.744650
772.000000	61.815053
771.000000	61.686863
770.000000	61.565721
769.000000	61.544228
768.000000	61.574555
767.000000	61.571034
766.000000	61.598979
765.000000	61.447398
764.000000	61.489076
763.000000	61.519551
762.000000	61.497550
761.000000	61.402670
760.000000	61.363003
759.000000	61.349857
758.000000	61.364676
757.000000	61.363534
756.000000	61.339903
755.000000	61.356595
754.000000	61.314641
753.000000	61.283772
752.000000	61.216850
751.000000	61.134839
750.000000	61.153649
749.000000	61.138213
748.000000	61.124815
747.000000	61.081230
746.000000	61.012852
745.000000	61.019965
744.000000	61.142673
743.000000	61.045091
742.000000	60.929873
741.000000	60.942148
740.000000	60.949119
739.000000	60.941168
738.000000	60.933153
737.000000	60.862535
736.000000	60.763650
735.000000	60.727480
734.000000	60.818209
733.000000	60.790715
732.000000	60.703557
731.000000	60.705223
730.000000	60.696097
729.000000	60.649900
728.000000	60.617852
727.000000	60.580577
726.000000	60.539865
725.000000	60.521393
724.000000	60.494927
723.000000	60.462460
722.000000	60.406943
721.000000	60.392073
720.000000	60.374815
719.000000	60.353059
718.000000	60.293972
717.000000	60.251367
716.000000	60.182074
715.000000	60.167330
714.000000	60.100870
713.000000	60.051196
712.000000	60.055032
711.000000	60.023679
710.000000	59.983241
709.000000	59.942033
708.000000	59.939919
707.000000	59.897850
706.000000	59.866821
705.000000	59.781178
704.000000	59.695215
703.000000	59.736464
702.000000	59.707216
701.000000	59.606161
700.000000	59.575932
699.000000	59.576411
698.000000	59.559740
697.000000	59.487819
696.000000	59.416320
695.000000	59.380228
694.000000	59.329118
693.000000	59.334232
692.000000	59.310015
691.000000	59.244133
690.000000	59.146493
689.000000	59.064790
688.000000	59.021288
687.000000	58.963167
686.000000	58.890229
685.000000	58.856379
684.000000	58.832616
683.000000	58.789209
682.000000	58.704276
681.000000	58.706795
680.000000	58.668769
679.000000	58.620811
678.000000	58.544579
677.000000	58.456791
676.000000	58.376691
675.000000	58.384253
674.000000	58.356285
673.000000	58.300608
672.000000	58.263315
671.000000	58.226550
670.000000	58.158455
669.000000	58.057499
668.000000	58.034293
667.000000	58.026289
666.000000	57.971855
665.000000	57.880852
664.000000	57.793477
663.000000	57.726428
662.000000	57.645887
661.000000	57.642595
660.000000	57.589003
659.000000	57.557524
658.000000	57.541229
657.000000	57.503637
656.000000	57.399518
655.000000	57.339498
654.000000	57.305177
653.000000	57.249047
652.000000	57.200623
651.000000	57.112274
650.000000	57.054471
649.000000	56.984903
648.000000	56.957780
647.000000	56.855185
646.000000	56.800872
645.000000	56.758125
644.000000	56.703451
643.000000	56.647085
642.000000	56.559493
641.000000	56.507539
640.000000	56.446120
639.000000	56.417726
638.000000	56.365180
637.000000	56.258004
636.000000	56.168571
635.000000	56.171386
634.000000	56.018334
633.000000	56.044115
632.000000	55.959761
631.000000	55.850719
630.000000	55.801968
629.000000	55.713271
628.000000	55.655929
627.000000	55.674438
626.000000	55.540896
625.000000	55.500115
624.000000	55.392116
623.000000	55.377095
622.000000	55.303897
621.000000	55.251554
620.000000	55.188527
619.000000	55.101670
618.000000	55.011732
617.000000	54.964480
616.000000	54.863439
615.000000	54.786172
614.000000	54.765899
613.000000	54.700005
612.000000	54.555680
611.000000	54.437610
610.000000	54.377734
609.000000	54.368257
608.000000	54.292492
607.000000	54.194156
606.000000	54.103574
605.000000	54.045359
604.000000	53.969479
603.000000	53.917961
602.000000	53.788946
601.000000	53.741458
600.000000	53.634333
599.000000	53.519040
598.000000	53.472077
597.000000	53.430797
596.000000	53.326587
595.000000	53.257031
594.000000	53.115616
593.000000	53.002680
592.000000	52.985153
591.000000	52.912686
590.000000	52.805998
589.000000	52.646967
588.000000	52.603143
587.000000	52.622800
586.000000	52.461843
585.000000	52.340564
584.000000	52.242842
583.000000	52.190747
582.000000	52.128313
581.000000	52.023776
580.000000	51.862462
579.000000	51.812520
578.000000	51.744163
577.000000	51.596050
576.000000	51.480422
575.000000	51.465886
574.000000	51.296361
573.000000	51.239216
572.000000	51.084267
571.000000	51.012006
570.000000	50.952622
569.000000	50.823838
568.000000	50.694081
567.000000	50.576579
566.000000	50.451966
565.000000	50.380964
564.000000	50.287430
563.000000	50.161920
562.000000	50.034113
561.000000	49.986684
560.000000	49.876680
559.000000	49.771428
558.000000	49.634201
557.000000	49.494086
556.000000	49.410055
555.000000	49.322201
554.000000	49.155626
553.000000	49.082598
552.000000	48.940066
551.000000	48.861148
550.000000	48.728959
549.000000	48.625372
548.000000	48.500542
547.000000	48.361456
546.000000	48.245742
545.000000	48.131536
544.000000	48.013447
543.000000	47.876003
542.000000	47.728904
541.000000	47.664536
540.000000	47.530963
539.000000	47.432034
538.000000	47.282485
537.000000	47.179693
536.000000	47.046469
535.000000	46.925269
534.000000	46.793119
533.000000	46.682465
532.000000	46.535990
531.000000	46.425438
530.000000	46.297020
529.000000	46.189132
528.000000	46.060826
527.000000	45.917760
526.000000	45.794955
525.000000	45.661662
524.000000	45.534860
523.000000	45.387163
522.000000	45.252356
521.000000	45.156726
520.000000	45.035901
519.000000	44.897610
518.000000	44.752513
517.000000	44.622804
516.000000	44.483854
515.000000	44.366769
514.000000	44.219577
513.000000	44.091974
512.000000	43.932263
511.000000	43.803872
510.000000	43.652291
509.000000	43.540525
508.000000	43.403359
507.000000	43.245428
506.000000	43.105768
505.000000	42.998320
504.000000	42.849497
503.000000	42.715367
502.000000	42.568652
501.000000	42.411972
500.000000	42.294969
499.000000	42.194648
498.000000	42.020178
497.000000	41.877021
496.000000	41.721097
495.000000	41.588141
494.000000	41.436475
493.000000	41.304513
492.000000	41.122372
491.000000	41.005071
490.000000	40.856691
489.000000	40.721428
488.000000	40.587319
487.000000	40.425190
486.000000	40.269349
485.000000	40.118799
484.000000	39.975483
483.000000	39.818482
482.000000	39.696697
481.000000	39.556964
480.000000	39.434404
479.000000	39.326347
478.000000	39.193484
477.000000	39.053782
476.000000	38.928485
475.000000	38.789184
474.000000	38.645025
473.000000	38.502959
472.000000	38.361769
471.000000	38.233096
470.000000	38.092639
469.000000	37.940642
468.000000	37.812581
467.000000	37.701585
466.000000	37.561911
465.000000	37.393885
464.000000	37.240952
463.000000	37.106417
462.000000	36.963767
461.000000	36.811379
460.000000	36.661208
459.000000	36.514899
458.000000	36.346380
457.000000	36.170603
456.000000	36.041031
455.000000	35.903797
454.000000	35.710513
453.000000	35.500521
452.000000	35.348200
451.000000	35.216527
450.000000	35.001315
449.000000	34.818496
448.000000	34.672998
447.000000	34.505171
446.000000	34.335080
445.000000	34.171272
444.000000	33.986207
443.000000	33.768575
442.000000	33.594858
441.000000	33.436534
440.000000	33.235558
439.000000	33.028723
438.000000	32.854293
437.000000	32.675252
436.000000	32.469165
435.000000	32.278636
434.000000	32.103770
433.000000	31.903482
432.000000	31.715685
431.000000	31.490191
430.000000	31.307150
429.000000	31.126895
428.000000	30.898284
427.000000	30.680222
426.000000	30.501859
425.000000	30.303266
424.000000	30.108036
423.000000	29.930190
422.000000	29.722070
421.000000	29.545778
420.000000	29.336568
419.000000	29.109681
418.000000	28.930526
417.000000	28.736244
416.000000	28.545659
415.000000	28.280050
414.000000	28.102883
413.000000	27.947848
412.000000	27.756646
411.000000	27.517881
410.000000	27.333150
409.000000	27.146132
408.000000	26.968258
407.000000	26.752496
406.000000	26.532690
405.000000	26.336538
404.000000	26.144038
403.000000	25.934055
402.000000	25.730462
401.000000	25.544143
400.000000	25.331118
399.000000	25.100952
398.000000	24.924474
397.000000	24.739509
396.000000	24.559546
395.000000	24.339585
394.000000	24.149867
393.000000	23.949717
392.000000	23.745641
391.000000	23.537525
390.000000	23.351454
389.000000	23.099622
388.000000	22.902227
387.000000	22.683497
386.000000	22.503105
385.000000	22.294448
384.000000	22.110388
383.000000	21.883586
382.000000	21.665919
381.000000	21.486863
380.000000	21.291691
379.000000	21.050465
378.000000	20.803579
377.000000	20.665730
376.000000	20.501521
375.000000	20.334292
374.000000	20.114123
373.000000	19.922416
372.000000	19.728865
371.000000	19.577846
370.000000	19.401429
369.000000	19.152404
368.000000	19.020430
367.000000	18.826638
366.000000	18.608090
365.000000	18.489994
364.000000	18.403954
363.000000	18.198973
362.000000	18.052149
361.000000	17.900120
360.000000	17.665050
359.000000	17.562164
358.000000	17.333769
357.000000	17.221567
356.000000	17.109736
355.000000	16.911015
354.000000	16.814373
353.000000	16.679919
352.000000	16.544380
351.000000	16.346319
350.000000	16.167649
349.000000	16.017246
348.000000	15.904085
347.000000	15.794872
346.000000	15.735519
345.000000	15.508934
344.000000	15.389746
343.000000	15.261374
342.000000	15.150737
341.000000	15.080948
340.000000	14.939303
339.000000	14.791296
338.000000	14.555832
337.000000	14.521871
336.000000	14.422215
335.000000	14.178196
334.000000	14.106823
333.000000	14.083123
332.000000	13.829688
331.000000	13.757141
330.000000	13.667898
329.000000	13.575495
328.000000	13.524037
327.000000	13.477313
326.000000	13.289001
325.000000	13.169939
324.000000	13.055422
323.000000	13.101521
322.000000	12.920077
321.000000	12.912728
320.000000	12.795767
319.000000	12.782880
318.000000	12.646457
317.000000	12.608607
316.000000	12.505695
315.000000	12.506005
314.000000	12.426509
313.000000	12.367837
312.000000	12.272673
311.000000	12.170814
310.000000	12.175918
309.000000	12.149905
308.000000	12.074952
307.000000	12.000026
306.000000	11.975654
305.000000	11.951625
304.000000	11.896335
303.000000	11.843617
302.000000	11.801876
301.000000	11.792869
300.000000	11.781100
299.000000	11.668941
298.000000	11.692897
297.000000	11.640452
296.000000	11.526269
295.000000	11.464902
294.000000	11.481466
293.000000	11.483899
292.000000	11.377081
291.000000	11.294971
290.000000	11.262116
289.000000	11.216578
288.000000	11.196340
287.000000	11.132284
286.000000	11.127075
285.000000	11.141958
284.000000	11.091193
283.000000	11.069955
282.000000	11.098414
281.000000	11.063503
280.000000	11.053073
279.000000	11.051944
278.000000	11.108224
277.000000	11.120181
276.000000	11.105638
275.000000	11.167234
274.000000	11.187330
273.000000	11.197669
272.000000	11.297712
271.000000	11.338818
270.000000	11.337948
269.000000	11.410228
268.000000	11.412608
267.000000	11.499783
266.000000	11.565421
265.000000	11.632055
264.000000	11.711831
263.000000	11.740837
262.000000	11.793842
261.000000	11.864639
260.000000	12.047140
259.000000	12.107841
258.000000	12.151819
257.000000	12.214289
256.000000	12.287007
255.000000	12.386900
254.000000	12.497770
253.000000	12.566287
252.000000	12.663931
251.000000	12.801288
250.000000	12.873661
249.000000	12.929249
248.000000	13.024651
247.000000	13.092467
246.000000	13.184250
245.000000	13.261569
244.000000	13.280637
243.000000	13.232962
242.000000	13.240576
241.000000	13.252938
240.000000	13.245993
239.000000	13.179185
238.000000	13.137470
237.000000	13.064585
236.000000	12.947501
235.000000	12.906242
234.000000	12.887499
233.000000	12.812693
232.000000	12.750702
231.000000	12.666560
230.000000	12.572212
229.000000	12.512513
228.000000	12.446290
227.000000	12.427051
226.000000	12.431663
225.000000	12.450777
224.000000	12.455747
223.000000	12.425168
222.000000	12.415820
221.000000	12.519158
220.000000	12.550188
219.000000	12.532679
218.000000	12.671903
217.000000	12.741899
216.000000	12.783392
215.000000	12.900826
214.000000	13.028500
213.000000	13.141900
212.000000	13.235561
211.000000	13.412632
210.000000	13.663882
209.000000	13.921017
208.000000	14.199188
207.000000	14.426403
206.000000	14.642473
205.000000	15.065251
204.000000	15.475567
203.000000	15.853583
202.000000	16.418504
201.000000	17.198811
200.000000	17.582119
