PE UV       SUBTECH     SPECTRUM    ASCII       PEDS        4.00        
   -1
TDmsopph192.Sample.asc
18/03/21
09:17:52.00
18/03/21
09:17:52.00
Administrator

200.000000
1
Lambda 750
750N8071901
PerkinElmer UV WinLab 6.0.4.0738 / 1.61.00 Lambda 900

0
0
3350/servo 860.8/2
0
0
UV/VIS
1
1
1
CommonBeamDepol,150mm sphere / downward view
0
0
0
0
Program
Program
3350/servo 860.8/2
3350/0.2 860.8/0.2
3350/0.2 860.8/0.2
0
1
 
 
 
0
 
860.8
319.2
860.8
Front
100
on
 
 
0
0
0
 
0
 
 
 
0
 
 
0
0
0
0
0
 
 
 
 
0
0


0
0
#HDR
-1
-1
#GR
nm
%T
1.0
0.0
2350.000000
-1.000000
2151
8
12.194788
-0.013090
#DATA
2350.000000	2.738805
2349.000000	2.967666
2348.000000	2.679106
2347.000000	3.182859
2346.000000	2.542399
2345.000000	2.484739
2344.000000	2.690987
2343.000000	2.715109
2342.000000	2.844839
2341.000000	3.126128
2340.000000	3.278270
2339.000000	3.560461
2338.000000	3.609916
2337.000000	3.823737
2336.000000	3.778876
2335.000000	3.849309
2334.000000	3.817365
2333.000000	4.231100
2332.000000	4.048896
2331.000000	3.839570
2330.000000	3.873646
2329.000000	3.673510
2328.000000	3.739983
2327.000000	3.232648
2326.000000	3.784963
2325.000000	3.495937
2324.000000	3.548062
2323.000000	3.406081
2322.000000	3.709090
2321.000000	3.546337
2320.000000	3.632341
2319.000000	3.563596
2318.000000	3.633164
2317.000000	3.597388
2316.000000	3.485203
2315.000000	3.363425
2314.000000	3.587442
2313.000000	3.390239
2312.000000	3.588378
2311.000000	3.435061
2310.000000	3.141671
2309.000000	3.187718
2308.000000	3.264256
2307.000000	3.348886
2306.000000	3.460325
2305.000000	3.414246
2304.000000	3.324750
2303.000000	3.231682
2302.000000	3.305810
2301.000000	3.207995
2300.000000	3.021162
2299.000000	2.938658
2298.000000	3.077765
2297.000000	2.850661
2296.000000	2.868601
2295.000000	3.055686
2294.000000	2.895164
2293.000000	2.674896
2292.000000	2.808564
2291.000000	2.920332
2290.000000	3.093892
2289.000000	2.951183
2288.000000	2.811273
2287.000000	2.925556
2286.000000	2.925130
2285.000000	2.705301
2284.000000	2.788774
2283.000000	2.763088
2282.000000	2.947394
2281.000000	3.011701
2280.000000	3.055628
2279.000000	2.917637
2278.000000	2.969215
2277.000000	2.933974
2276.000000	2.869981
2275.000000	2.927118
2274.000000	2.928827
2273.000000	3.046638
2272.000000	3.136369
2271.000000	3.098024
2270.000000	3.054757
2269.000000	2.989200
2268.000000	2.973899
2267.000000	3.073906
2266.000000	3.155621
2265.000000	3.076728
2264.000000	3.028383
2263.000000	3.082148
2262.000000	3.174469
2261.000000	3.176198
2260.000000	3.268728
2259.000000	3.334335
2258.000000	3.427154
2257.000000	3.530632
2256.000000	3.541890
2255.000000	3.459756
2254.000000	3.432374
2253.000000	3.531699
2252.000000	3.659289
2251.000000	3.791606
2250.000000	3.816550
2249.000000	3.716893
2248.000000	3.809500
2247.000000	3.933268
2246.000000	3.989265
2245.000000	3.918379
2244.000000	3.920982
2243.000000	4.003278
2242.000000	4.041400
2241.000000	4.115471
2240.000000	4.201858
2239.000000	4.173559
2238.000000	4.042876
2237.000000	4.145162
2236.000000	4.285550
2235.000000	4.225285
2234.000000	4.249886
2233.000000	4.347782
2232.000000	4.368477
2231.000000	4.414266
2230.000000	4.475883
2229.000000	4.422048
2228.000000	4.348973
2227.000000	4.349096
2226.000000	4.406093
2225.000000	4.431614
2224.000000	4.337795
2223.000000	4.428148
2222.000000	4.412459
2221.000000	4.396412
2220.000000	4.409945
2219.000000	4.305027
2218.000000	4.340464
2217.000000	4.419921
2216.000000	4.474208
2215.000000	4.410502
2214.000000	4.385132
2213.000000	4.475674
2212.000000	4.320788
2211.000000	4.172641
2210.000000	4.140182
2209.000000	4.173892
2208.000000	4.084975
2207.000000	4.128930
2206.000000	4.159185
2205.000000	4.142245
2204.000000	4.103559
2203.000000	4.073284
2202.000000	4.033413
2201.000000	3.935060
2200.000000	3.861541
2199.000000	4.006802
2198.000000	4.087656
2197.000000	4.056260
2196.000000	3.976293
2195.000000	3.884303
2194.000000	3.702971
2193.000000	3.781213
2192.000000	3.799053
2191.000000	3.696389
2190.000000	3.799711
2189.000000	3.793284
2188.000000	3.678626
2187.000000	3.745007
2186.000000	3.701559
2185.000000	3.648156
2184.000000	3.668063
2183.000000	3.738004
2182.000000	3.674745
2181.000000	3.737440
2180.000000	3.604331
2179.000000	3.621850
2178.000000	3.558476
2177.000000	3.672093
2176.000000	3.611468
2175.000000	3.712020
2174.000000	3.638979
2173.000000	3.655366
2172.000000	3.737839
2171.000000	3.665543
2170.000000	3.673461
2169.000000	3.763078
2168.000000	3.758597
2167.000000	3.743172
2166.000000	3.679095
2165.000000	3.908805
2164.000000	3.778172
2163.000000	3.938013
2162.000000	3.952271
2161.000000	3.800344
2160.000000	3.778084
2159.000000	3.995083
2158.000000	4.006500
2157.000000	4.005696
2156.000000	4.133614
2155.000000	4.114228
2154.000000	4.256084
2153.000000	4.307172
2152.000000	4.136023
2151.000000	4.159731
2150.000000	4.258710
2149.000000	4.241878
2148.000000	4.286293
2147.000000	4.251752
2146.000000	4.367146
2145.000000	4.402870
2144.000000	4.489502
2143.000000	4.372908
2142.000000	4.459459
2141.000000	4.494239
2140.000000	4.517645
2139.000000	4.455008
2138.000000	4.539989
2137.000000	4.824660
2136.000000	4.647329
2135.000000	4.797094
2134.000000	4.555066
2133.000000	4.364114
2132.000000	4.827712
2131.000000	4.961509
2130.000000	4.593469
2129.000000	4.805377
2128.000000	4.752811
2127.000000	4.492537
2126.000000	4.678237
2125.000000	4.801161
2124.000000	4.642547
2123.000000	4.703173
2122.000000	4.841786
2121.000000	4.875313
2120.000000	4.677495
2119.000000	4.770188
2118.000000	4.769373
2117.000000	4.761929
2116.000000	4.925975
2115.000000	4.824946
2114.000000	4.867645
2113.000000	4.914524
2112.000000	4.876011
2111.000000	5.008666
2110.000000	4.900317
2109.000000	4.859702
2108.000000	4.871944
2107.000000	4.896635
2106.000000	4.840699
2105.000000	4.789235
2104.000000	4.975127
2103.000000	4.939493
2102.000000	4.843190
2101.000000	4.923914
2100.000000	4.944427
2099.000000	4.930996
2098.000000	5.026964
2097.000000	4.959968
2096.000000	4.892299
2095.000000	4.965413
2094.000000	4.934123
2093.000000	4.775102
2092.000000	4.763486
2091.000000	4.841227
2090.000000	4.838491
2089.000000	4.983265
2088.000000	4.932146
2087.000000	4.899644
2086.000000	4.856908
2085.000000	4.874269
2084.000000	4.909037
2083.000000	4.787034
2082.000000	4.804127
2081.000000	4.821846
2080.000000	4.722358
2079.000000	4.724818
2078.000000	4.645157
2077.000000	4.690797
2076.000000	4.694826
2075.000000	4.626345
2074.000000	4.567982
2073.000000	4.588894
2072.000000	4.558963
2071.000000	4.583728
2070.000000	4.567841
2069.000000	4.484395
2068.000000	4.416218
2067.000000	4.344443
2066.000000	4.314995
2065.000000	4.267670
2064.000000	4.214083
2063.000000	4.162205
2062.000000	4.104535
2061.000000	4.038332
2060.000000	4.002300
2059.000000	3.955475
2058.000000	3.940368
2057.000000	3.972964
2056.000000	3.950872
2055.000000	3.923959
2054.000000	3.900749
2053.000000	3.757037
2052.000000	3.663560
2051.000000	3.668810
2050.000000	3.614338
2049.000000	3.587070
2048.000000	3.578972
2047.000000	3.559390
2046.000000	3.545042
2045.000000	3.488384
2044.000000	3.518563
2043.000000	3.551117
2042.000000	3.522874
2041.000000	3.571157
2040.000000	3.573726
2039.000000	3.499123
2038.000000	3.503933
2037.000000	3.560402
2036.000000	3.590825
2035.000000	3.597970
2034.000000	3.618315
2033.000000	3.622796
2032.000000	3.668805
2031.000000	3.716485
2030.000000	3.704967
2029.000000	3.744352
2028.000000	3.814003
2027.000000	3.875264
2026.000000	3.902638
2025.000000	3.916987
2024.000000	3.920505
2023.000000	3.883342
2022.000000	3.902918
2021.000000	3.899439
2020.000000	3.917073
2019.000000	3.939213
2018.000000	3.912346
2017.000000	3.915723
2016.000000	3.899456
2015.000000	3.887990
2014.000000	3.930547
2013.000000	3.957531
2012.000000	3.974952
2011.000000	3.951795
2010.000000	3.899180
2009.000000	3.888412
2008.000000	3.865606
2007.000000	3.823651
2006.000000	3.853897
2005.000000	3.835611
2004.000000	3.769573
2003.000000	3.745177
2002.000000	3.747959
2001.000000	3.706559
2000.000000	3.687341
1999.000000	3.643045
1998.000000	3.579174
1997.000000	3.585285
1996.000000	3.579004
1995.000000	3.562224
1994.000000	3.558852
1993.000000	3.530265
1992.000000	3.485105
1991.000000	3.436531
1990.000000	3.425113
1989.000000	3.381401
1988.000000	3.332258
1987.000000	3.332808
1986.000000	3.342653
1985.000000	3.301590
1984.000000	3.281439
1983.000000	3.252994
1982.000000	3.262478
1981.000000	3.269158
1980.000000	3.217779
1979.000000	3.195836
1978.000000	3.149894
1977.000000	3.183078
1976.000000	3.166128
1975.000000	3.107053
1974.000000	3.050335
1973.000000	3.031287
1972.000000	3.047073
1971.000000	3.031145
1970.000000	3.012223
1969.000000	3.006855
1968.000000	2.993836
1967.000000	2.983632
1966.000000	2.982197
1965.000000	2.892150
1964.000000	2.875318
1963.000000	2.863977
1962.000000	2.855618
1961.000000	2.841726
1960.000000	2.838331
1959.000000	2.825169
1958.000000	2.831333
1957.000000	2.823095
1956.000000	2.791889
1955.000000	2.793124
1954.000000	2.784462
1953.000000	2.789055
1952.000000	2.791365
1951.000000	2.775455
1950.000000	2.767346
1949.000000	2.777018
1948.000000	2.750195
1947.000000	2.785737
1946.000000	2.757105
1945.000000	2.714237
1944.000000	2.737442
1943.000000	2.797798
1942.000000	2.795660
1941.000000	2.827524
1940.000000	2.837047
1939.000000	2.861043
1938.000000	2.827930
1937.000000	2.805746
1936.000000	2.870705
1935.000000	2.951520
1934.000000	2.948086
1933.000000	2.928374
1932.000000	2.989509
1931.000000	2.991825
1930.000000	2.980209
1929.000000	2.983015
1928.000000	3.175235
1927.000000	3.150585
1926.000000	3.218279
1925.000000	3.275869
1924.000000	3.354649
1923.000000	3.338490
1922.000000	3.391606
1921.000000	3.463989
1920.000000	3.606664
1919.000000	3.646875
1918.000000	3.669949
1917.000000	3.685169
1916.000000	3.755517
1915.000000	3.958023
1914.000000	4.048111
1913.000000	4.207128
1912.000000	4.205505
1911.000000	4.337089
1910.000000	4.417152
1909.000000	4.482972
1908.000000	4.666548
1907.000000	4.725106
1906.000000	4.972343
1905.000000	5.007142
1904.000000	5.084799
1903.000000	5.334531
1902.000000	5.422880
1901.000000	5.612766
1900.000000	5.782293
1899.000000	5.943352
1898.000000	6.132176
1897.000000	6.222126
1896.000000	6.322879
1895.000000	6.573085
1894.000000	6.665115
1893.000000	6.804907
1892.000000	7.023485
1891.000000	7.104993
1890.000000	7.315134
1889.000000	7.480369
1888.000000	7.604495
1887.000000	7.805449
1886.000000	7.926912
1885.000000	8.029405
1884.000000	8.210758
1883.000000	8.369742
1882.000000	8.467064
1881.000000	8.620756
1880.000000	8.715037
1879.000000	8.775178
1878.000000	8.868617
1877.000000	9.010916
1876.000000	9.142575
1875.000000	9.171246
1874.000000	9.260188
1873.000000	9.357794
1872.000000	9.430732
1871.000000	9.507922
1870.000000	9.522505
1869.000000	9.614046
1868.000000	9.726069
1867.000000	9.696543
1866.000000	9.715356
1865.000000	9.735302
1864.000000	9.768300
1863.000000	9.778588
1862.000000	9.795201
1861.000000	9.811691
1860.000000	9.862927
1859.000000	9.895737
1858.000000	9.850385
1857.000000	9.862998
1856.000000	9.872109
1855.000000	9.903622
1854.000000	9.909626
1853.000000	9.885521
1852.000000	9.931577
1851.000000	9.956516
1850.000000	9.964623
1849.000000	9.939953
1848.000000	9.918562
1847.000000	9.936758
1846.000000	9.942252
1845.000000	9.932655
1844.000000	9.895704
1843.000000	9.893931
1842.000000	9.880913
1841.000000	9.869536
1840.000000	9.852798
1839.000000	9.853141
1838.000000	9.834514
1837.000000	9.789752
1836.000000	9.797990
1835.000000	9.776693
1834.000000	9.737208
1833.000000	9.730647
1832.000000	9.696011
1831.000000	9.670657
1830.000000	9.655870
1829.000000	9.644168
1828.000000	9.642170
1827.000000	9.605230
1826.000000	9.577265
1825.000000	9.563508
1824.000000	9.559497
1823.000000	9.525881
1822.000000	9.495782
1821.000000	9.477357
1820.000000	9.458175
1819.000000	9.449332
1818.000000	9.446537
1817.000000	9.420405
1816.000000	9.403920
1815.000000	9.409347
1814.000000	9.380591
1813.000000	9.364109
1812.000000	9.359415
1811.000000	9.356744
1810.000000	9.343077
1809.000000	9.312148
1808.000000	9.268117
1807.000000	9.237907
1806.000000	9.249348
1805.000000	9.241720
1804.000000	9.208043
1803.000000	9.210566
1802.000000	9.228717
1801.000000	9.199621
1800.000000	9.160811
1799.000000	9.176042
1798.000000	9.175639
1797.000000	9.158808
1796.000000	9.158983
1795.000000	9.172167
1794.000000	9.175553
1793.000000	9.153405
1792.000000	9.152737
1791.000000	9.144178
1790.000000	9.125620
1789.000000	9.133308
1788.000000	9.134594
1787.000000	9.115942
1786.000000	9.103039
1785.000000	9.080826
1784.000000	9.093122
1783.000000	9.097750
1782.000000	9.089845
1781.000000	9.085669
1780.000000	9.069624
1779.000000	9.057831
1778.000000	9.026094
1777.000000	8.995533
1776.000000	8.985105
1775.000000	8.947590
1774.000000	8.936097
1773.000000	8.935423
1772.000000	8.925084
1771.000000	8.866896
1770.000000	8.854194
1769.000000	8.844343
1768.000000	8.817441
1767.000000	8.788377
1766.000000	8.764537
1765.000000	8.743085
1764.000000	8.678428
1763.000000	8.662527
1762.000000	8.627174
1761.000000	8.624734
1760.000000	8.592269
1759.000000	8.586910
1758.000000	8.570026
1757.000000	8.562342
1756.000000	8.547783
1755.000000	8.530657
1754.000000	8.513712
1753.000000	8.485161
1752.000000	8.451480
1751.000000	8.431324
1750.000000	8.439083
1749.000000	8.417279
1748.000000	8.368543
1747.000000	8.329914
1746.000000	8.298745
1745.000000	8.255052
1744.000000	8.250104
1743.000000	8.239441
1742.000000	8.228660
1741.000000	8.227649
1740.000000	8.171006
1739.000000	8.179631
1738.000000	8.161954
1737.000000	8.118585
1736.000000	8.112319
1735.000000	8.141555
1734.000000	8.161176
1733.000000	8.118170
1732.000000	8.102151
1731.000000	8.129672
1730.000000	8.112404
1729.000000	8.123657
1728.000000	8.122735
1727.000000	8.146361
1726.000000	8.135624
1725.000000	8.207054
1724.000000	8.197284
1723.000000	8.245668
1722.000000	8.288640
1721.000000	8.330372
1720.000000	8.344363
1719.000000	8.360554
1718.000000	8.397461
1717.000000	8.454780
1716.000000	8.436450
1715.000000	8.472680
1714.000000	8.504800
1713.000000	8.511526
1712.000000	8.524056
1711.000000	8.607403
1710.000000	8.602650
1709.000000	8.607454
1708.000000	8.625244
1707.000000	8.641082
1706.000000	8.657394
1705.000000	8.675593
1704.000000	8.687700
1703.000000	8.660246
1702.000000	8.671324
1701.000000	8.687074
1700.000000	8.650880
1699.000000	8.661783
1698.000000	8.707451
1697.000000	8.697303
1696.000000	8.693298
1695.000000	8.739292
1694.000000	8.704692
1693.000000	8.740297
1692.000000	8.735752
1691.000000	8.787092
1690.000000	8.801410
1689.000000	8.836790
1688.000000	8.860924
1687.000000	8.885677
1686.000000	8.932205
1685.000000	8.963218
1684.000000	9.035802
1683.000000	9.102928
1682.000000	9.165494
1681.000000	9.246482
1680.000000	9.281697
1679.000000	9.363932
1678.000000	9.419034
1677.000000	9.486574
1676.000000	9.542570
1675.000000	9.577723
1674.000000	9.626559
1673.000000	9.701953
1672.000000	9.769959
1671.000000	9.834402
1670.000000	9.874413
1669.000000	9.944243
1668.000000	9.968668
1667.000000	10.030723
1666.000000	10.044858
1665.000000	10.046804
1664.000000	10.069834
1663.000000	10.113212
1662.000000	10.138647
1661.000000	10.177205
1660.000000	10.186568
1659.000000	10.211217
1658.000000	10.249211
1657.000000	10.258820
1656.000000	10.267929
1655.000000	10.280228
1654.000000	10.293449
1653.000000	10.316783
1652.000000	10.322019
1651.000000	10.312893
1650.000000	10.301719
1649.000000	10.293405
1648.000000	10.285930
1647.000000	10.279358
1646.000000	10.284573
1645.000000	10.271229
1644.000000	10.259157
1643.000000	10.235456
1642.000000	10.223976
1641.000000	10.227272
1640.000000	10.200773
1639.000000	10.188526
1638.000000	10.177429
1637.000000	10.169479
1636.000000	10.131939
1635.000000	10.132855
1634.000000	10.108934
1633.000000	10.083822
1632.000000	10.051658
1631.000000	10.034862
1630.000000	10.025115
1629.000000	10.004862
1628.000000	9.990650
1627.000000	9.966580
1626.000000	9.933791
1625.000000	9.937354
1624.000000	9.908425
1623.000000	9.899541
1622.000000	9.889519
1621.000000	9.858430
1620.000000	9.828679
1619.000000	9.806106
1618.000000	9.790616
1617.000000	9.765771
1616.000000	9.742020
1615.000000	9.720239
1614.000000	9.708779
1613.000000	9.678108
1612.000000	9.647372
1611.000000	9.624688
1610.000000	9.603793
1609.000000	9.570427
1608.000000	9.552419
1607.000000	9.538331
1606.000000	9.496317
1605.000000	9.470159
1604.000000	9.446466
1603.000000	9.420880
1602.000000	9.397539
1601.000000	9.372826
1600.000000	9.346994
1599.000000	9.328696
1598.000000	9.311716
1597.000000	9.291116
1596.000000	9.267685
1595.000000	9.240992
1594.000000	9.209679
1593.000000	9.195912
1592.000000	9.179088
1591.000000	9.157717
1590.000000	9.136422
1589.000000	9.112092
1588.000000	9.087673
1587.000000	9.059940
1586.000000	9.037420
1585.000000	9.028526
1584.000000	9.020738
1583.000000	9.004915
1582.000000	8.990344
1581.000000	8.971199
1580.000000	8.948134
1579.000000	8.925760
1578.000000	8.918119
1577.000000	8.903741
1576.000000	8.879140
1575.000000	8.859410
1574.000000	8.846387
1573.000000	8.818723
1572.000000	8.807442
1571.000000	8.784936
1570.000000	8.762105
1569.000000	8.740877
1568.000000	8.728067
1567.000000	8.714121
1566.000000	8.690179
1565.000000	8.688118
1564.000000	8.686429
1563.000000	8.673339
1562.000000	8.646922
1561.000000	8.637629
1560.000000	8.631919
1559.000000	8.615617
1558.000000	8.602713
1557.000000	8.596560
1556.000000	8.581199
1555.000000	8.570354
1554.000000	8.551535
1553.000000	8.537110
1552.000000	8.523631
1551.000000	8.509176
1550.000000	8.503058
1549.000000	8.493899
1548.000000	8.474083
1547.000000	8.437479
1546.000000	8.398941
1545.000000	8.385764
1544.000000	8.354492
1543.000000	8.313735
1542.000000	8.276292
1541.000000	8.248555
1540.000000	8.225593
1539.000000	8.190844
1538.000000	8.157272
1537.000000	8.106311
1536.000000	8.082751
1535.000000	8.055398
1534.000000	8.019599
1533.000000	7.972859
1532.000000	7.947778
1531.000000	7.904758
1530.000000	7.865381
1529.000000	7.846276
1528.000000	7.809678
1527.000000	7.787247
1526.000000	7.756643
1525.000000	7.740223
1524.000000	7.728339
1523.000000	7.699444
1522.000000	7.679172
1521.000000	7.667610
1520.000000	7.635533
1519.000000	7.630337
1518.000000	7.624929
1517.000000	7.605918
1516.000000	7.589871
1515.000000	7.574215
1514.000000	7.560496
1513.000000	7.556253
1512.000000	7.553758
1511.000000	7.533108
1510.000000	7.529643
1509.000000	7.533841
1508.000000	7.524143
1507.000000	7.523195
1506.000000	7.494256
1505.000000	7.501190
1504.000000	7.479990
1503.000000	7.475429
1502.000000	7.477717
1501.000000	7.480866
1500.000000	7.472842
1499.000000	7.461800
1498.000000	7.476047
1497.000000	7.514806
1496.000000	7.536142
1495.000000	7.543385
1494.000000	7.551753
1493.000000	7.537678
1492.000000	7.538198
1491.000000	7.537655
1490.000000	7.553352
1489.000000	7.556509
1488.000000	7.571500
1487.000000	7.571692
1486.000000	7.572653
1485.000000	7.578624
1484.000000	7.602230
1483.000000	7.614632
1482.000000	7.653512
1481.000000	7.656014
1480.000000	7.688091
1479.000000	7.677011
1478.000000	7.696500
1477.000000	7.707139
1476.000000	7.726070
1475.000000	7.739803
1474.000000	7.749857
1473.000000	7.768149
1472.000000	7.768247
1471.000000	7.777272
1470.000000	7.799804
1469.000000	7.812349
1468.000000	7.829506
1467.000000	7.877048
1466.000000	7.896671
1465.000000	7.898339
1464.000000	7.895293
1463.000000	7.907884
1462.000000	7.949965
1461.000000	7.973118
1460.000000	7.969383
1459.000000	7.972076
1458.000000	8.009287
1457.000000	8.050090
1456.000000	8.040552
1455.000000	8.041678
1454.000000	8.057439
1453.000000	8.098139
1452.000000	8.118205
1451.000000	8.121207
1450.000000	8.142973
1449.000000	8.152025
1448.000000	8.196500
1447.000000	8.236881
1446.000000	8.244768
1445.000000	8.266457
1444.000000	8.274808
1443.000000	8.303739
1442.000000	8.357572
1441.000000	8.373536
1440.000000	8.394896
1439.000000	8.426268
1438.000000	8.449381
1437.000000	8.494077
1436.000000	8.514901
1435.000000	8.528054
1434.000000	8.575724
1433.000000	8.619123
1432.000000	8.663856
1431.000000	8.697447
1430.000000	8.739388
1429.000000	8.790747
1428.000000	8.837179
1427.000000	8.896205
1426.000000	8.941713
1425.000000	8.992571
1424.000000	9.056981
1423.000000	9.097550
1422.000000	9.146016
1421.000000	9.212669
1420.000000	9.281016
1419.000000	9.348823
1418.000000	9.381062
1417.000000	9.431583
1416.000000	9.514962
1415.000000	9.591921
1414.000000	9.643602
1413.000000	9.691665
1412.000000	9.760182
1411.000000	9.845885
1410.000000	9.926882
1409.000000	9.983431
1408.000000	10.037395
1407.000000	10.108226
1406.000000	10.173378
1405.000000	10.245530
1404.000000	10.321427
1403.000000	10.396570
1402.000000	10.457396
1401.000000	10.499784
1400.000000	10.534518
1399.000000	10.586443
1398.000000	10.650116
1397.000000	10.708573
1396.000000	10.768289
1395.000000	10.826741
1394.000000	10.875042
1393.000000	10.929446
1392.000000	10.976102
1391.000000	11.025570
1390.000000	11.087922
1389.000000	11.147853
1388.000000	11.197093
1387.000000	11.218828
1386.000000	11.241830
1385.000000	11.287404
1384.000000	11.336519
1383.000000	11.365488
1382.000000	11.402037
1381.000000	11.446549
1380.000000	11.458309
1379.000000	11.453578
1378.000000	11.463877
1377.000000	11.496217
1376.000000	11.518669
1375.000000	11.532822
1374.000000	11.558520
1373.000000	11.568411
1372.000000	11.571669
1371.000000	11.577035
1370.000000	11.582870
1369.000000	11.584899
1368.000000	11.596680
1367.000000	11.614178
1366.000000	11.623023
1365.000000	11.654047
1364.000000	11.692669
1363.000000	11.709281
1362.000000	11.716784
1361.000000	11.724278
1360.000000	11.727172
1359.000000	11.735468
1358.000000	11.751885
1357.000000	11.773309
1356.000000	11.788941
1355.000000	11.795784
1354.000000	11.792993
1353.000000	11.813376
1352.000000	11.846983
1351.000000	11.854213
1350.000000	11.855467
1349.000000	11.884751
1348.000000	11.910627
1347.000000	11.918945
1346.000000	11.924853
1345.000000	11.959364
1344.000000	11.977441
1343.000000	11.984026
1342.000000	11.993201
1341.000000	11.995782
1340.000000	12.007425
1339.000000	12.010980
1338.000000	12.015663
1337.000000	12.055739
1336.000000	12.093501
1335.000000	12.101122
1334.000000	12.097319
1333.000000	12.099514
1332.000000	12.095672
1331.000000	12.115940
1330.000000	12.136433
1329.000000	12.123463
1328.000000	12.126393
1327.000000	12.149305
1326.000000	12.169882
1325.000000	12.164913
1324.000000	12.143824
1323.000000	12.147502
1322.000000	12.165687
1321.000000	12.155247
1320.000000	12.157941
1319.000000	12.164595
1318.000000	12.184226
1317.000000	12.194788
1316.000000	12.180328
1315.000000	12.150665
1314.000000	12.150219
1313.000000	12.159328
1312.000000	12.172350
1311.000000	12.179693
1310.000000	12.153960
1309.000000	12.146547
1308.000000	12.133943
1307.000000	12.141942
1306.000000	12.136004
1305.000000	12.137822
1304.000000	12.117713
1303.000000	12.156752
1302.000000	12.174015
1301.000000	12.156114
1300.000000	12.130966
1299.000000	12.116922
1298.000000	12.098649
1297.000000	12.089613
1296.000000	12.100540
1295.000000	12.105353
1294.000000	12.099280
1293.000000	12.084148
1292.000000	12.103221
1291.000000	12.088356
1290.000000	12.075931
1289.000000	12.078749
1288.000000	12.063705
1287.000000	12.048984
1286.000000	12.020675
1285.000000	12.029319
1284.000000	12.024945
1283.000000	12.021362
1282.000000	12.013438
1281.000000	12.036353
1280.000000	12.021928
1279.000000	12.032284
1278.000000	12.037593
1277.000000	12.028342
1276.000000	12.014099
1275.000000	12.013279
1274.000000	12.022895
1273.000000	12.009209
1272.000000	12.007872
1271.000000	11.997202
1270.000000	11.981055
1269.000000	11.996310
1268.000000	11.975023
1267.000000	11.981123
1266.000000	12.005355
1265.000000	11.956629
1264.000000	11.988438
1263.000000	12.011832
1262.000000	12.016708
1261.000000	12.003142
1260.000000	11.978189
1259.000000	11.978285
1258.000000	11.966784
1257.000000	11.970893
1256.000000	11.986277
1255.000000	12.000251
1254.000000	11.975297
1253.000000	11.960870
1252.000000	11.964018
1251.000000	11.963941
1250.000000	11.944466
1249.000000	11.942755
1248.000000	11.967761
1247.000000	11.928035
1246.000000	11.937110
1245.000000	11.956991
1244.000000	11.942088
1243.000000	11.934427
1242.000000	11.899833
1241.000000	11.870637
1240.000000	11.876920
1239.000000	11.864422
1238.000000	11.868642
1237.000000	11.830569
1236.000000	11.827898
1235.000000	11.830134
1234.000000	11.801472
1233.000000	11.777542
1232.000000	11.775152
1231.000000	11.777115
1230.000000	11.796194
1229.000000	11.758370
1228.000000	11.740845
1227.000000	11.759760
1226.000000	11.757558
1225.000000	11.738293
1224.000000	11.746064
1223.000000	11.751019
1222.000000	11.738321
1221.000000	11.726061
1220.000000	11.714752
1219.000000	11.694470
1218.000000	11.673440
1217.000000	11.669983
1216.000000	11.648690
1215.000000	11.626254
1214.000000	11.611984
1213.000000	11.605117
1212.000000	11.624030
1211.000000	11.613588
1210.000000	11.597668
1209.000000	11.591888
1208.000000	11.573757
1207.000000	11.552660
1206.000000	11.544317
1205.000000	11.534839
1204.000000	11.500229
1203.000000	11.475178
1202.000000	11.469243
1201.000000	11.454955
1200.000000	11.419845
1199.000000	11.409578
1198.000000	11.409933
1197.000000	11.396577
1196.000000	11.379632
1195.000000	11.347708
1194.000000	11.316575
1193.000000	11.305364
1192.000000	11.309457
1191.000000	11.297444
1190.000000	11.263383
1189.000000	11.212071
1188.000000	11.218590
1187.000000	11.234715
1186.000000	11.219305
1185.000000	11.212681
1184.000000	11.207057
1183.000000	11.210474
1182.000000	11.224359
1181.000000	11.226578
1180.000000	11.245264
1179.000000	11.269512
1178.000000	11.281683
1177.000000	11.296810
1176.000000	11.307444
1175.000000	11.322145
1174.000000	11.341565
1173.000000	11.368060
1172.000000	11.385102
1171.000000	11.394939
1170.000000	11.409516
1169.000000	11.432692
1168.000000	11.444492
1167.000000	11.458569
1166.000000	11.477940
1165.000000	11.498009
1164.000000	11.522201
1163.000000	11.551054
1162.000000	11.571682
1161.000000	11.590273
1160.000000	11.611158
1159.000000	11.625595
1158.000000	11.650271
1157.000000	11.680337
1156.000000	11.696789
1155.000000	11.705444
1154.000000	11.697662
1153.000000	11.684951
1152.000000	11.699219
1151.000000	11.731594
1150.000000	11.761168
1149.000000	11.786872
1148.000000	11.802423
1147.000000	11.810878
1146.000000	11.822400
1145.000000	11.838691
1144.000000	11.845472
1143.000000	11.861737
1142.000000	11.878065
1141.000000	11.886538
1140.000000	11.898171
1139.000000	11.910241
1138.000000	11.918070
1137.000000	11.923883
1136.000000	11.915545
1135.000000	11.927385
1134.000000	11.934880
1133.000000	11.941958
1132.000000	11.960943
1131.000000	11.973534
1130.000000	11.974428
1129.000000	11.982401
1128.000000	12.001563
1127.000000	12.009639
1126.000000	12.012557
1125.000000	12.009098
1124.000000	12.010069
1123.000000	12.016182
1122.000000	12.022004
1121.000000	11.995413
1120.000000	11.983184
1119.000000	11.979897
1118.000000	11.972670
1117.000000	11.974376
1116.000000	12.004741
1115.000000	12.013352
1114.000000	12.002035
1113.000000	12.005473
1112.000000	12.013121
1111.000000	12.023635
1110.000000	12.014927
1109.000000	12.014844
1108.000000	12.013981
1107.000000	12.008337
1106.000000	12.012203
1105.000000	12.010325
1104.000000	12.011475
1103.000000	11.982342
1102.000000	11.961198
1101.000000	11.963300
1100.000000	11.968143
1099.000000	11.976493
1098.000000	11.998506
1097.000000	11.990755
1096.000000	11.987000
1095.000000	11.957837
1094.000000	11.951631
1093.000000	11.945558
1092.000000	11.950687
1091.000000	11.958310
1090.000000	11.960756
1089.000000	11.953715
1088.000000	11.929811
1087.000000	11.926912
1086.000000	11.941626
1085.000000	11.930727
1084.000000	11.947108
1083.000000	11.949469
1082.000000	11.941892
1081.000000	11.914483
1080.000000	11.898147
1079.000000	11.918188
1078.000000	11.917291
1077.000000	11.929937
1076.000000	11.914365
1075.000000	11.917766
1074.000000	11.873163
1073.000000	11.879068
1072.000000	11.886109
1071.000000	11.878242
1070.000000	11.895414
1069.000000	11.892152
1068.000000	11.902317
1067.000000	11.854328
1066.000000	11.854253
1065.000000	11.845000
1064.000000	11.850719
1063.000000	11.858059
1062.000000	11.858874
1061.000000	11.868314
1060.000000	11.844622
1059.000000	11.834447
1058.000000	11.849259
1057.000000	11.840285
1056.000000	11.827603
1055.000000	11.799583
1054.000000	11.807328
1053.000000	11.806704
1052.000000	11.810033
1051.000000	11.820763
1050.000000	11.840791
1049.000000	11.801414
1048.000000	11.759969
1047.000000	11.793153
1046.000000	11.811334
1045.000000	11.768431
1044.000000	11.751449
1043.000000	11.762445
1042.000000	11.759742
1041.000000	11.774654
1040.000000	11.759623
1039.000000	11.747726
1038.000000	11.751817
1037.000000	11.768051
1036.000000	11.744268
1035.000000	11.736197
1034.000000	11.742413
1033.000000	11.755941
1032.000000	11.727851
1031.000000	11.727210
1030.000000	11.741964
1029.000000	11.708354
1028.000000	11.714045
1027.000000	11.738610
1026.000000	11.739674
1025.000000	11.711948
1024.000000	11.713825
1023.000000	11.714357
1022.000000	11.706297
1021.000000	11.711059
1020.000000	11.720417
1019.000000	11.725273
1018.000000	11.707275
1017.000000	11.709889
1016.000000	11.715222
1015.000000	11.701441
1014.000000	11.705625
1013.000000	11.711928
1012.000000	11.712891
1011.000000	11.690597
1010.000000	11.692493
1009.000000	11.683148
1008.000000	11.686011
1007.000000	11.683698
1006.000000	11.696240
1005.000000	11.719639
1004.000000	11.738722
1003.000000	11.731271
1002.000000	11.723810
1001.000000	11.743520
1000.000000	11.752896
999.000000	11.759573
998.000000	11.774284
997.000000	11.764080
996.000000	11.742072
995.000000	11.756248
994.000000	11.759372
993.000000	11.746773
992.000000	11.752443
991.000000	11.763927
990.000000	11.765548
989.000000	11.744648
988.000000	11.753229
987.000000	11.753578
986.000000	11.759784
985.000000	11.753888
984.000000	11.728825
983.000000	11.742449
982.000000	11.746660
981.000000	11.743957
980.000000	11.747645
979.000000	11.726311
978.000000	11.745743
977.000000	11.746480
976.000000	11.725731
975.000000	11.723138
974.000000	11.731188
973.000000	11.738580
972.000000	11.738707
971.000000	11.725743
970.000000	11.714054
969.000000	11.741816
968.000000	11.758273
967.000000	11.745983
966.000000	11.750780
965.000000	11.724824
964.000000	11.715829
963.000000	11.743103
962.000000	11.734625
961.000000	11.718081
960.000000	11.719229
959.000000	11.724145
958.000000	11.710069
957.000000	11.705750
956.000000	11.729099
955.000000	11.719280
954.000000	11.707066
953.000000	11.702166
952.000000	11.705974
951.000000	11.716083
950.000000	11.706311
949.000000	11.712694
948.000000	11.724899
947.000000	11.695732
946.000000	11.697317
945.000000	11.708324
944.000000	11.688119
943.000000	11.686133
942.000000	11.693681
941.000000	11.698149
940.000000	11.709281
939.000000	11.705315
938.000000	11.685159
937.000000	11.677619
936.000000	11.679340
935.000000	11.654908
934.000000	11.631946
933.000000	11.643555
932.000000	11.646130
931.000000	11.635096
930.000000	11.636068
929.000000	11.639573
928.000000	11.646429
927.000000	11.643809
926.000000	11.635107
925.000000	11.638195
924.000000	11.629710
923.000000	11.608062
922.000000	11.592909
921.000000	11.595312
920.000000	11.600206
919.000000	11.616470
918.000000	11.600779
917.000000	11.581247
916.000000	11.553634
915.000000	11.565542
914.000000	11.581564
913.000000	11.571942
912.000000	11.575289
911.000000	11.568300
910.000000	11.570243
909.000000	11.564684
908.000000	11.574847
907.000000	11.562225
906.000000	11.526073
905.000000	11.527038
904.000000	11.545534
903.000000	11.566502
902.000000	11.561308
901.000000	11.526999
900.000000	11.552498
899.000000	11.545324
898.000000	11.505136
897.000000	11.528083
896.000000	11.530607
895.000000	11.530922
894.000000	11.528200
893.000000	11.527120
892.000000	11.567510
891.000000	11.570039
890.000000	11.506279
889.000000	11.509965
888.000000	11.504260
887.000000	11.500042
886.000000	11.495071
885.000000	11.576432
884.000000	11.536650
883.000000	11.515569
882.000000	11.513466
881.000000	11.542749
880.000000	11.525471
879.000000	11.529100
878.000000	11.529597
877.000000	11.495655
876.000000	11.470806
875.000000	11.484379
874.000000	11.486167
873.000000	11.483276
872.000000	11.431580
871.000000	11.541745
870.000000	11.560786
869.000000	11.484368
868.000000	11.490823
867.000000	11.474732
866.000000	11.431389
865.000000	11.369528
864.000000	11.422014
863.000000	11.433069
862.000000	11.401086
861.000000	11.372648
860.000000	11.394901
859.000000	11.772178
858.000000	11.868198
857.000000	11.674089
856.000000	11.730157
855.000000	11.752488
854.000000	11.729696
853.000000	11.768839
852.000000	11.752809
851.000000	11.846766
850.000000	11.714802
849.000000	11.604314
848.000000	11.614956
847.000000	11.653106
846.000000	11.678813
845.000000	11.608500
844.000000	11.594187
843.000000	11.581954
842.000000	11.628799
841.000000	11.607143
840.000000	11.576536
839.000000	11.534513
838.000000	11.549715
837.000000	11.539919
836.000000	11.541126
835.000000	11.517118
834.000000	11.509912
833.000000	11.485854
832.000000	11.523338
831.000000	11.516570
830.000000	11.485387
829.000000	11.469597
828.000000	11.489004
827.000000	11.464504
826.000000	11.430744
825.000000	11.460344
824.000000	11.423916
823.000000	11.437479
822.000000	11.402422
821.000000	11.325643
820.000000	11.415346
819.000000	11.404684
818.000000	11.387331
817.000000	11.394228
816.000000	11.320097
815.000000	11.346082
814.000000	11.310670
813.000000	11.337579
812.000000	11.370214
811.000000	11.324018
810.000000	11.288822
809.000000	11.331344
808.000000	11.333521
807.000000	11.314900
806.000000	11.321444
805.000000	11.314103
804.000000	11.279962
803.000000	11.263225
802.000000	11.262862
801.000000	11.234195
800.000000	11.224748
799.000000	11.257096
798.000000	11.239386
797.000000	11.170691
796.000000	11.187934
795.000000	11.200510
794.000000	11.188471
793.000000	11.205914
792.000000	11.155894
791.000000	11.164488
790.000000	11.149181
789.000000	11.124309
788.000000	11.111605
787.000000	11.116982
786.000000	11.082692
785.000000	11.103677
784.000000	11.093575
783.000000	11.090380
782.000000	11.063034
781.000000	11.056222
780.000000	11.031554
779.000000	11.023600
778.000000	11.021809
777.000000	10.996930
776.000000	10.998761
775.000000	10.980268
774.000000	10.942068
773.000000	10.931607
772.000000	10.946533
771.000000	10.927199
770.000000	10.921533
769.000000	10.915316
768.000000	10.905079
767.000000	10.901069
766.000000	10.887751
765.000000	10.873105
764.000000	10.859228
763.000000	10.862496
762.000000	10.842912
761.000000	10.816951
760.000000	10.821064
759.000000	10.805478
758.000000	10.779905
757.000000	10.781729
756.000000	10.758762
755.000000	10.757004
754.000000	10.737448
753.000000	10.735766
752.000000	10.739672
751.000000	10.730539
750.000000	10.688121
749.000000	10.660921
748.000000	10.634689
747.000000	10.641344
746.000000	10.633541
745.000000	10.625011
744.000000	10.620319
743.000000	10.613617
742.000000	10.596287
741.000000	10.580097
740.000000	10.562431
739.000000	10.546473
738.000000	10.549902
737.000000	10.538317
736.000000	10.510205
735.000000	10.495678
734.000000	10.487165
733.000000	10.470744
732.000000	10.452553
731.000000	10.444268
730.000000	10.425151
729.000000	10.420928
728.000000	10.394198
727.000000	10.387365
726.000000	10.373134
725.000000	10.349976
724.000000	10.346867
723.000000	10.344148
722.000000	10.329124
721.000000	10.313847
720.000000	10.294851
719.000000	10.283886
718.000000	10.266358
717.000000	10.255392
716.000000	10.245297
715.000000	10.232842
714.000000	10.210959
713.000000	10.194617
712.000000	10.176262
711.000000	10.163333
710.000000	10.161233
709.000000	10.139306
708.000000	10.112901
707.000000	10.095033
706.000000	10.081577
705.000000	10.074542
704.000000	10.055888
703.000000	10.041063
702.000000	10.038326
701.000000	10.007759
700.000000	9.984972
699.000000	9.960472
698.000000	9.942947
697.000000	9.925685
696.000000	9.899517
695.000000	9.879995
694.000000	9.870124
693.000000	9.865528
692.000000	9.845741
691.000000	9.825941
690.000000	9.803611
689.000000	9.767685
688.000000	9.728833
687.000000	9.710198
686.000000	9.714297
685.000000	9.685703
684.000000	9.648819
683.000000	9.628666
682.000000	9.617623
681.000000	9.606315
680.000000	9.581808
679.000000	9.557431
678.000000	9.554501
677.000000	9.530404
676.000000	9.516070
675.000000	9.489329
674.000000	9.459563
673.000000	9.457000
672.000000	9.438363
671.000000	9.421411
670.000000	9.407118
669.000000	9.379036
668.000000	9.354942
667.000000	9.336920
666.000000	9.322129
665.000000	9.293189
664.000000	9.275596
663.000000	9.262478
662.000000	9.231746
661.000000	9.218908
660.000000	9.203573
659.000000	9.171954
658.000000	9.148700
657.000000	9.144329
656.000000	9.120900
655.000000	9.096008
654.000000	9.084993
653.000000	9.055027
652.000000	9.017709
651.000000	9.002836
650.000000	8.988666
649.000000	8.951666
648.000000	8.939767
647.000000	8.922730
646.000000	8.891308
645.000000	8.874318
644.000000	8.859113
643.000000	8.827902
642.000000	8.799260
641.000000	8.773566
640.000000	8.757572
639.000000	8.743883
638.000000	8.710927
637.000000	8.689712
636.000000	8.670864
635.000000	8.642267
634.000000	8.615615
633.000000	8.605131
632.000000	8.574474
631.000000	8.559081
630.000000	8.523525
629.000000	8.501959
628.000000	8.477492
627.000000	8.449306
626.000000	8.427279
625.000000	8.411260
624.000000	8.385387
623.000000	8.353317
622.000000	8.331119
621.000000	8.316520
620.000000	8.271983
619.000000	8.264775
618.000000	8.237063
617.000000	8.210533
616.000000	8.186129
615.000000	8.178294
614.000000	8.144384
613.000000	8.119205
612.000000	8.083160
611.000000	8.052862
610.000000	8.029143
609.000000	8.003194
608.000000	7.987389
607.000000	7.959880
606.000000	7.920199
605.000000	7.908924
604.000000	7.864865
603.000000	7.843869
602.000000	7.810281
601.000000	7.791612
600.000000	7.763770
599.000000	7.739198
598.000000	7.695889
597.000000	7.676173
596.000000	7.647049
595.000000	7.623536
594.000000	7.583125
593.000000	7.556683
592.000000	7.526681
591.000000	7.503490
590.000000	7.472184
589.000000	7.441921
588.000000	7.413900
587.000000	7.390893
586.000000	7.352552
585.000000	7.330199
584.000000	7.304397
583.000000	7.259407
582.000000	7.236376
581.000000	7.210659
580.000000	7.184137
579.000000	7.153895
578.000000	7.120735
577.000000	7.089229
576.000000	7.063081
575.000000	7.030016
574.000000	6.986415
573.000000	6.969655
572.000000	6.918188
571.000000	6.903804
570.000000	6.866824
569.000000	6.824681
568.000000	6.801753
567.000000	6.765834
566.000000	6.739396
565.000000	6.706232
564.000000	6.676566
563.000000	6.631831
562.000000	6.597822
561.000000	6.606368
560.000000	6.563861
559.000000	6.525194
558.000000	6.503441
557.000000	6.464863
556.000000	6.437788
555.000000	6.406026
554.000000	6.359940
553.000000	6.329116
552.000000	6.296767
551.000000	6.263639
550.000000	6.224305
549.000000	6.187444
548.000000	6.145062
547.000000	6.116166
546.000000	6.078822
545.000000	6.045490
544.000000	6.005117
543.000000	5.964790
542.000000	5.936441
541.000000	5.899760
540.000000	5.856626
539.000000	5.821718
538.000000	5.784827
537.000000	5.744085
536.000000	5.703231
535.000000	5.670979
534.000000	5.630360
533.000000	5.593315
532.000000	5.556124
531.000000	5.529003
530.000000	5.483736
529.000000	5.445318
528.000000	5.406281
527.000000	5.362442
526.000000	5.324377
525.000000	5.287448
524.000000	5.246462
523.000000	5.204681
522.000000	5.169263
521.000000	5.135926
520.000000	5.093822
519.000000	5.055482
518.000000	5.009894
517.000000	4.970528
516.000000	4.936122
515.000000	4.903171
514.000000	4.864969
513.000000	4.823212
512.000000	4.779952
511.000000	4.750446
510.000000	4.704673
509.000000	4.669441
508.000000	4.631816
507.000000	4.593898
506.000000	4.555510
505.000000	4.512278
504.000000	4.482632
503.000000	4.449492
502.000000	4.414794
501.000000	4.379436
500.000000	4.333283
499.000000	4.288880
498.000000	4.252298
497.000000	4.212636
496.000000	4.183126
495.000000	4.144753
494.000000	4.100693
493.000000	4.067786
492.000000	4.033072
491.000000	3.991350
490.000000	3.957071
489.000000	3.923810
488.000000	3.887438
487.000000	3.854874
486.000000	3.819072
485.000000	3.786629
484.000000	3.752096
483.000000	3.720579
482.000000	3.691989
481.000000	3.646302
480.000000	3.606317
479.000000	3.569443
478.000000	3.524254
477.000000	3.485177
476.000000	3.450995
475.000000	3.416003
474.000000	3.380316
473.000000	3.346090
472.000000	3.305165
471.000000	3.268291
470.000000	3.234015
469.000000	3.194976
468.000000	3.156775
467.000000	3.124785
466.000000	3.088964
465.000000	3.048507
464.000000	3.011131
463.000000	2.978208
462.000000	2.946000
461.000000	2.908791
460.000000	2.868154
459.000000	2.831866
458.000000	2.795628
457.000000	2.758045
456.000000	2.725221
455.000000	2.689471
454.000000	2.648957
453.000000	2.609319
452.000000	2.567610
451.000000	2.534388
450.000000	2.506465
449.000000	2.467685
448.000000	2.428158
447.000000	2.388805
446.000000	2.354559
445.000000	2.321246
444.000000	2.287090
443.000000	2.258524
442.000000	2.223842
441.000000	2.184457
440.000000	2.145806
439.000000	2.107811
438.000000	2.074040
437.000000	2.038484
436.000000	2.003467
435.000000	1.971515
434.000000	1.932938
433.000000	1.891591
432.000000	1.857711
431.000000	1.825825
430.000000	1.794084
429.000000	1.763778
428.000000	1.727192
427.000000	1.692356
426.000000	1.662396
425.000000	1.624761
424.000000	1.590792
423.000000	1.559901
422.000000	1.527455
421.000000	1.499198
420.000000	1.469894
419.000000	1.439308
418.000000	1.408939
417.000000	1.377379
416.000000	1.350185
415.000000	1.318917
414.000000	1.289790
413.000000	1.263017
412.000000	1.236278
411.000000	1.200496
410.000000	1.172408
409.000000	1.151651
408.000000	1.124216
407.000000	1.092280
406.000000	1.068037
405.000000	1.043653
404.000000	1.016965
403.000000	0.996084
402.000000	0.974774
401.000000	0.952220
400.000000	0.924921
399.000000	0.897877
398.000000	0.883928
397.000000	0.860525
396.000000	0.845596
395.000000	0.819129
394.000000	0.798051
393.000000	0.783081
392.000000	0.761413
391.000000	0.741186
390.000000	0.726118
389.000000	0.710201
388.000000	0.692614
387.000000	0.669047
386.000000	0.653998
385.000000	0.637728
384.000000	0.628258
383.000000	0.612220
382.000000	0.593171
381.000000	0.580006
380.000000	0.563337
379.000000	0.547523
378.000000	0.528966
377.000000	0.536686
376.000000	0.531476
375.000000	0.508788
374.000000	0.504792
373.000000	0.480879
372.000000	0.467961
371.000000	0.457327
370.000000	0.444562
369.000000	0.433852
368.000000	0.423607
367.000000	0.407565
366.000000	0.401710
365.000000	0.385979
364.000000	0.377896
363.000000	0.358471
362.000000	0.356067
361.000000	0.347506
360.000000	0.332763
359.000000	0.329090
358.000000	0.313391
357.000000	0.312218
356.000000	0.301032
355.000000	0.290464
354.000000	0.285064
353.000000	0.284070
352.000000	0.281316
351.000000	0.274095
350.000000	0.271336
349.000000	0.270147
348.000000	0.264530
347.000000	0.244797
346.000000	0.252593
345.000000	0.248381
344.000000	0.238467
343.000000	0.229027
342.000000	0.235115
341.000000	0.221786
340.000000	0.219774
339.000000	0.210058
338.000000	0.218582
337.000000	0.208920
336.000000	0.209675
335.000000	0.195893
334.000000	0.195793
333.000000	0.190415
332.000000	0.184886
331.000000	0.181534
330.000000	0.194057
329.000000	0.166117
328.000000	0.173287
327.000000	0.175675
326.000000	0.189550
325.000000	0.178692
324.000000	0.175244
323.000000	0.167086
322.000000	0.170142
321.000000	0.167317
320.000000	0.165721
319.000000	0.154216
318.000000	0.180087
317.000000	0.175148
316.000000	0.196593
315.000000	0.183827
314.000000	0.189426
313.000000	0.182385
312.000000	0.189327
311.000000	0.174818
310.000000	0.169152
309.000000	0.165750
308.000000	0.178903
307.000000	0.171915
306.000000	0.174817
305.000000	0.174917
304.000000	0.168177
303.000000	0.159453
302.000000	0.167159
301.000000	0.176608
300.000000	0.169859
299.000000	0.171714
298.000000	0.164521
297.000000	0.167647
296.000000	0.178979
295.000000	0.164863
294.000000	0.156544
293.000000	0.158702
292.000000	0.159525
291.000000	0.165616
290.000000	0.163127
289.000000	0.153290
288.000000	0.150330
287.000000	0.154327
286.000000	0.145477
285.000000	0.149476
284.000000	0.151004
283.000000	0.152596
282.000000	0.150011
281.000000	0.144068
280.000000	0.141268
279.000000	0.159016
278.000000	0.157518
277.000000	0.168170
276.000000	0.164533
275.000000	0.164697
274.000000	0.171227
273.000000	0.175935
272.000000	0.178623
271.000000	0.179673
270.000000	0.186412
269.000000	0.184039
268.000000	0.181663
267.000000	0.198207
266.000000	0.199716
265.000000	0.196596
264.000000	0.199087
263.000000	0.202836
262.000000	0.219242
261.000000	0.221308
260.000000	0.231171
259.000000	0.223997
258.000000	0.233005
257.000000	0.234118
256.000000	0.241215
255.000000	0.246086
254.000000	0.253765
253.000000	0.258098
252.000000	0.261752
251.000000	0.259868
250.000000	0.261367
249.000000	0.262655
248.000000	0.265790
247.000000	0.257400
246.000000	0.258330
245.000000	0.248221
244.000000	0.234022
243.000000	0.229324
242.000000	0.227458
241.000000	0.216785
240.000000	0.202709
239.000000	0.182339
238.000000	0.161371
237.000000	0.151182
236.000000	0.136515
235.000000	0.121361
234.000000	0.109729
233.000000	0.097893
232.000000	0.103844
231.000000	0.096456
230.000000	0.085336
229.000000	0.069822
228.000000	0.063277
227.000000	0.058486
226.000000	0.044581
225.000000	0.052082
224.000000	0.057128
223.000000	0.037968
222.000000	0.025848
221.000000	0.034521
220.000000	0.043119
219.000000	0.034872
218.000000	0.026612
217.000000	0.025048
216.000000	0.029296
215.000000	0.034754
214.000000	0.035551
213.000000	0.034821
212.000000	0.032946
211.000000	0.032053
210.000000	0.023124
209.000000	0.016671
208.000000	0.013846
207.000000	0.009015
206.000000	0.023705
205.000000	0.023231
204.000000	0.000226
203.000000	-0.013090
202.000000	-0.002720
201.000000	0.038613
200.000000	0.013631
