PE UV       SUBTECH     SPECTRUM    ASCII       PEDS        4.00        
   -1
TTmsopph192.Sample.asc
18/03/21
09:27:28.00
18/03/21
09:27:28.00
Administrator

200.000000
1
Lambda 750
750N8071901
PerkinElmer UV WinLab 6.0.4.0738 / 1.61.00 Lambda 900

0
0
3350/servo 860.8/2
0
0
UV/VIS
1
1
1
CommonBeamDepol,150mm sphere / downward view
0
0
0
0
Program
Program
3350/servo 860.8/2
3350/0.2 860.8/0.2
3350/0.2 860.8/0.2
0
1
 
 
 
0
 
860.8
319.2
860.8
Front
100
on
 
 
0
0
0
 
0
 
 
 
0
 
 
0
0
0
0
0
 
 
 
 
0
0


0
0
#HDR
-1
-1
#GR
nm
%T
1.0
0.0
2350.000000
-1.000000
2151
8
12.188793
-0.005642
#DATA
2350.000000	2.874424
2349.000000	2.777643
2348.000000	2.397442
2347.000000	3.439462
2346.000000	2.896287
2345.000000	2.958558
2344.000000	2.807276
2343.000000	2.750327
2342.000000	3.088125
2341.000000	3.180371
2340.000000	3.290525
2339.000000	3.373495
2338.000000	3.875552
2337.000000	3.551249
2336.000000	3.449346
2335.000000	4.103756
2334.000000	3.823948
2333.000000	4.022497
2332.000000	3.895500
2331.000000	3.787208
2330.000000	3.906059
2329.000000	3.964621
2328.000000	3.841296
2327.000000	3.579445
2326.000000	3.680288
2325.000000	3.476739
2324.000000	3.479721
2323.000000	3.488476
2322.000000	3.700774
2321.000000	3.359832
2320.000000	3.612060
2319.000000	4.064074
2318.000000	3.671365
2317.000000	3.654597
2316.000000	3.512407
2315.000000	3.459309
2314.000000	3.285760
2313.000000	3.303489
2312.000000	3.415050
2311.000000	3.457706
2310.000000	3.131308
2309.000000	3.449001
2308.000000	3.217249
2307.000000	3.251705
2306.000000	3.330043
2305.000000	3.341012
2304.000000	3.054356
2303.000000	3.115215
2302.000000	3.336410
2301.000000	3.162243
2300.000000	3.189812
2299.000000	3.031297
2298.000000	2.985675
2297.000000	3.138657
2296.000000	3.121844
2295.000000	3.080821
2294.000000	3.266045
2293.000000	3.070658
2292.000000	2.846174
2291.000000	2.892358
2290.000000	3.000540
2289.000000	3.041115
2288.000000	3.088308
2287.000000	3.090212
2286.000000	3.002910
2285.000000	2.991417
2284.000000	2.960110
2283.000000	2.905703
2282.000000	2.932265
2281.000000	2.797167
2280.000000	3.027157
2279.000000	2.993102
2278.000000	2.928774
2277.000000	2.777279
2276.000000	2.811215
2275.000000	2.983227
2274.000000	3.026779
2273.000000	2.931504
2272.000000	2.887612
2271.000000	2.938657
2270.000000	2.955978
2269.000000	2.926341
2268.000000	2.901704
2267.000000	2.879502
2266.000000	2.956378
2265.000000	3.007501
2264.000000	3.032242
2263.000000	3.115145
2262.000000	3.248252
2261.000000	3.219438
2260.000000	3.258677
2259.000000	3.193213
2258.000000	3.154581
2257.000000	3.212737
2256.000000	3.372900
2255.000000	3.523212
2254.000000	3.542886
2253.000000	3.501213
2252.000000	3.560109
2251.000000	3.519712
2250.000000	3.583801
2249.000000	3.854767
2248.000000	3.851761
2247.000000	3.796308
2246.000000	3.878833
2245.000000	3.962599
2244.000000	4.069868
2243.000000	4.144271
2242.000000	4.154866
2241.000000	4.098738
2240.000000	4.128371
2239.000000	4.179948
2238.000000	4.217282
2237.000000	4.270788
2236.000000	4.408061
2235.000000	4.477278
2234.000000	4.401050
2233.000000	4.383089
2232.000000	4.274743
2231.000000	4.344031
2230.000000	4.488866
2229.000000	4.439500
2228.000000	4.484844
2227.000000	4.438451
2226.000000	4.416761
2225.000000	4.476450
2224.000000	4.439033
2223.000000	4.378501
2222.000000	4.410124
2221.000000	4.354479
2220.000000	4.332900
2219.000000	4.446783
2218.000000	4.486550
2217.000000	4.387241
2216.000000	4.334621
2215.000000	4.230297
2214.000000	4.250341
2213.000000	4.321435
2212.000000	4.213689
2211.000000	4.159653
2210.000000	4.186999
2209.000000	4.187800
2208.000000	4.125157
2207.000000	4.159512
2206.000000	4.032940
2205.000000	4.037035
2204.000000	4.060612
2203.000000	3.978424
2202.000000	4.074429
2201.000000	4.103071
2200.000000	3.996554
2199.000000	4.000921
2198.000000	4.054387
2197.000000	3.969310
2196.000000	3.917815
2195.000000	3.841112
2194.000000	3.830922
2193.000000	3.822796
2192.000000	3.873835
2191.000000	3.827342
2190.000000	3.810663
2189.000000	3.849664
2188.000000	3.725830
2187.000000	3.709530
2186.000000	3.718161
2185.000000	3.741070
2184.000000	3.601809
2183.000000	3.830048
2182.000000	3.712644
2181.000000	3.559501
2180.000000	3.614154
2179.000000	3.708241
2178.000000	3.755697
2177.000000	3.651251
2176.000000	3.630611
2175.000000	3.663991
2174.000000	3.633719
2173.000000	3.789012
2172.000000	3.623301
2171.000000	3.751101
2170.000000	3.812336
2169.000000	3.869939
2168.000000	3.850660
2167.000000	3.862443
2166.000000	3.797110
2165.000000	3.875471
2164.000000	3.847386
2163.000000	3.710138
2162.000000	3.916744
2161.000000	3.822099
2160.000000	3.811208
2159.000000	3.878216
2158.000000	4.057569
2157.000000	4.061078
2156.000000	4.043069
2155.000000	4.026713
2154.000000	4.164491
2153.000000	4.316562
2152.000000	4.272321
2151.000000	4.314866
2150.000000	4.261235
2149.000000	4.179320
2148.000000	4.117094
2147.000000	4.222833
2146.000000	4.176994
2145.000000	4.246603
2144.000000	4.458450
2143.000000	4.430386
2142.000000	4.304669
2141.000000	4.504336
2140.000000	4.598244
2139.000000	4.582003
2138.000000	4.672162
2137.000000	4.632615
2136.000000	4.460433
2135.000000	4.539624
2134.000000	4.647020
2133.000000	4.537697
2132.000000	4.688296
2131.000000	4.863528
2130.000000	5.008559
2129.000000	4.827801
2128.000000	4.873315
2127.000000	4.772759
2126.000000	4.800501
2125.000000	4.722403
2124.000000	4.794123
2123.000000	4.830138
2122.000000	4.925115
2121.000000	4.770126
2120.000000	4.835931
2119.000000	4.804329
2118.000000	4.855369
2117.000000	4.920451
2116.000000	4.982501
2115.000000	5.136018
2114.000000	4.961401
2113.000000	4.849310
2112.000000	4.810778
2111.000000	4.871485
2110.000000	4.815103
2109.000000	4.896462
2108.000000	4.958823
2107.000000	4.907068
2106.000000	4.994329
2105.000000	4.988534
2104.000000	5.038257
2103.000000	5.056061
2102.000000	4.943999
2101.000000	5.005559
2100.000000	4.980081
2099.000000	4.906007
2098.000000	4.922491
2097.000000	4.835774
2096.000000	4.903631
2095.000000	4.909260
2094.000000	4.932705
2093.000000	4.903334
2092.000000	4.823227
2091.000000	4.955674
2090.000000	4.928713
2089.000000	4.805140
2088.000000	4.848423
2087.000000	4.970466
2086.000000	4.905029
2085.000000	4.978475
2084.000000	4.909950
2083.000000	4.852490
2082.000000	4.820642
2081.000000	4.781489
2080.000000	4.751247
2079.000000	4.816480
2078.000000	4.800941
2077.000000	4.733059
2076.000000	4.667460
2075.000000	4.696090
2074.000000	4.620360
2073.000000	4.639865
2072.000000	4.609222
2071.000000	4.538526
2070.000000	4.509941
2069.000000	4.438371
2068.000000	4.319984
2067.000000	4.267440
2066.000000	4.252973
2065.000000	4.385879
2064.000000	4.313920
2063.000000	4.192120
2062.000000	4.185738
2061.000000	4.135581
2060.000000	4.075014
2059.000000	4.065591
2058.000000	4.006482
2057.000000	3.950644
2056.000000	3.940931
2055.000000	3.889273
2054.000000	3.813795
2053.000000	3.740801
2052.000000	3.740349
2051.000000	3.772804
2050.000000	3.764115
2049.000000	3.690241
2048.000000	3.605843
2047.000000	3.593799
2046.000000	3.613878
2045.000000	3.620992
2044.000000	3.588239
2043.000000	3.609226
2042.000000	3.596990
2041.000000	3.569839
2040.000000	3.590065
2039.000000	3.580117
2038.000000	3.577152
2037.000000	3.589236
2036.000000	3.598336
2035.000000	3.643860
2034.000000	3.668984
2033.000000	3.678739
2032.000000	3.722208
2031.000000	3.752325
2030.000000	3.774014
2029.000000	3.818372
2028.000000	3.822022
2027.000000	3.831304
2026.000000	3.905177
2025.000000	3.919627
2024.000000	3.867910
2023.000000	3.863639
2022.000000	3.866542
2021.000000	3.923110
2020.000000	3.956791
2019.000000	3.915947
2018.000000	3.936941
2017.000000	3.941041
2016.000000	3.992552
2015.000000	4.031335
2014.000000	3.992823
2013.000000	3.976330
2012.000000	3.981252
2011.000000	3.990722
2010.000000	3.966873
2009.000000	3.928262
2008.000000	3.888383
2007.000000	3.852524
2006.000000	3.822884
2005.000000	3.798081
2004.000000	3.766116
2003.000000	3.773746
2002.000000	3.769626
2001.000000	3.715306
2000.000000	3.701169
1999.000000	3.683718
1998.000000	3.666109
1997.000000	3.650171
1996.000000	3.631501
1995.000000	3.618288
1994.000000	3.568925
1993.000000	3.517954
1992.000000	3.514414
1991.000000	3.486103
1990.000000	3.454730
1989.000000	3.437783
1988.000000	3.400641
1987.000000	3.398753
1986.000000	3.357717
1985.000000	3.367038
1984.000000	3.349919
1983.000000	3.281695
1982.000000	3.268280
1981.000000	3.247883
1980.000000	3.221749
1979.000000	3.197871
1978.000000	3.215922
1977.000000	3.186843
1976.000000	3.162259
1975.000000	3.117946
1974.000000	3.065500
1973.000000	3.057041
1972.000000	3.038214
1971.000000	3.002644
1970.000000	2.976803
1969.000000	2.955257
1968.000000	2.983455
1967.000000	3.005817
1966.000000	2.989828
1965.000000	2.939683
1964.000000	2.946778
1963.000000	2.924770
1962.000000	2.915704
1961.000000	2.880516
1960.000000	2.834259
1959.000000	2.848676
1958.000000	2.853420
1957.000000	2.774346
1956.000000	2.802775
1955.000000	2.809094
1954.000000	2.817733
1953.000000	2.764533
1952.000000	2.852507
1951.000000	2.811877
1950.000000	2.759918
1949.000000	2.737146
1948.000000	2.708083
1947.000000	2.736101
1946.000000	2.738492
1945.000000	2.754302
1944.000000	2.720456
1943.000000	2.777363
1942.000000	2.819363
1941.000000	2.796912
1940.000000	2.853014
1939.000000	2.782979
1938.000000	2.882171
1937.000000	2.875770
1936.000000	2.974080
1935.000000	2.923881
1934.000000	2.907644
1933.000000	2.893703
1932.000000	3.046431
1931.000000	3.063356
1930.000000	3.118535
1929.000000	3.084610
1928.000000	3.100776
1927.000000	3.121029
1926.000000	3.156061
1925.000000	3.290592
1924.000000	3.371307
1923.000000	3.404781
1922.000000	3.459866
1921.000000	3.526038
1920.000000	3.569484
1919.000000	3.609201
1918.000000	3.714857
1917.000000	3.788689
1916.000000	3.956063
1915.000000	3.974879
1914.000000	4.026471
1913.000000	4.203064
1912.000000	4.274871
1911.000000	4.343698
1910.000000	4.384338
1909.000000	4.537623
1908.000000	4.772055
1907.000000	4.830610
1906.000000	4.928855
1905.000000	5.064950
1904.000000	5.225081
1903.000000	5.428216
1902.000000	5.486480
1901.000000	5.589796
1900.000000	5.808104
1899.000000	5.996191
1898.000000	6.169190
1897.000000	6.274075
1896.000000	6.412122
1895.000000	6.586103
1894.000000	6.741048
1893.000000	6.904323
1892.000000	7.081972
1891.000000	7.235686
1890.000000	7.351833
1889.000000	7.507211
1888.000000	7.664048
1887.000000	7.790508
1886.000000	7.969578
1885.000000	8.082220
1884.000000	8.234836
1883.000000	8.350141
1882.000000	8.527607
1881.000000	8.646647
1880.000000	8.757063
1879.000000	8.819924
1878.000000	8.941466
1877.000000	9.098919
1876.000000	9.155162
1875.000000	9.224834
1874.000000	9.290434
1873.000000	9.386511
1872.000000	9.476886
1871.000000	9.507110
1870.000000	9.547161
1869.000000	9.602578
1868.000000	9.693899
1867.000000	9.673609
1866.000000	9.760623
1865.000000	9.812444
1864.000000	9.810837
1863.000000	9.862232
1862.000000	9.877076
1861.000000	9.845102
1860.000000	9.865364
1859.000000	9.868627
1858.000000	9.894745
1857.000000	9.934388
1856.000000	9.941879
1855.000000	9.926772
1854.000000	9.954808
1853.000000	9.954862
1852.000000	9.976042
1851.000000	9.994792
1850.000000	9.993765
1849.000000	9.981792
1848.000000	9.990040
1847.000000	9.959609
1846.000000	9.947533
1845.000000	9.961092
1844.000000	9.927897
1843.000000	9.930990
1842.000000	9.942644
1841.000000	9.937453
1840.000000	9.884571
1839.000000	9.878020
1838.000000	9.892709
1837.000000	9.849675
1836.000000	9.800732
1835.000000	9.770396
1834.000000	9.744724
1833.000000	9.732678
1832.000000	9.745912
1831.000000	9.725429
1830.000000	9.710337
1829.000000	9.688596
1828.000000	9.670937
1827.000000	9.652596
1826.000000	9.630023
1825.000000	9.607011
1824.000000	9.584400
1823.000000	9.576912
1822.000000	9.543466
1821.000000	9.520066
1820.000000	9.510135
1819.000000	9.464585
1818.000000	9.459352
1817.000000	9.446140
1816.000000	9.423248
1815.000000	9.417485
1814.000000	9.408255
1813.000000	9.388421
1812.000000	9.373251
1811.000000	9.373836
1810.000000	9.372994
1809.000000	9.365885
1808.000000	9.345364
1807.000000	9.322889
1806.000000	9.318679
1805.000000	9.292827
1804.000000	9.261276
1803.000000	9.266555
1802.000000	9.241647
1801.000000	9.198909
1800.000000	9.203477
1799.000000	9.218395
1798.000000	9.221146
1797.000000	9.208086
1796.000000	9.181788
1795.000000	9.189067
1794.000000	9.184206
1793.000000	9.170815
1792.000000	9.183285
1791.000000	9.184906
1790.000000	9.178056
1789.000000	9.165589
1788.000000	9.162699
1787.000000	9.143846
1786.000000	9.133595
1785.000000	9.127881
1784.000000	9.116440
1783.000000	9.115976
1782.000000	9.123243
1781.000000	9.117036
1780.000000	9.107815
1779.000000	9.077887
1778.000000	9.069261
1777.000000	9.024961
1776.000000	9.004151
1775.000000	9.005836
1774.000000	8.984254
1773.000000	8.967803
1772.000000	8.939339
1771.000000	8.920447
1770.000000	8.900114
1769.000000	8.863282
1768.000000	8.851246
1767.000000	8.822691
1766.000000	8.799256
1765.000000	8.778825
1764.000000	8.749409
1763.000000	8.725983
1762.000000	8.687375
1761.000000	8.648874
1760.000000	8.631376
1759.000000	8.627235
1758.000000	8.588459
1757.000000	8.568554
1756.000000	8.562447
1755.000000	8.543388
1754.000000	8.527152
1753.000000	8.507662
1752.000000	8.489567
1751.000000	8.470123
1750.000000	8.454559
1749.000000	8.435809
1748.000000	8.410396
1747.000000	8.369214
1746.000000	8.337033
1745.000000	8.321932
1744.000000	8.284417
1743.000000	8.266626
1742.000000	8.259813
1741.000000	8.230296
1740.000000	8.202462
1739.000000	8.177697
1738.000000	8.194428
1737.000000	8.193103
1736.000000	8.188787
1735.000000	8.159777
1734.000000	8.136240
1733.000000	8.114607
1732.000000	8.115895
1731.000000	8.141280
1730.000000	8.138977
1729.000000	8.157151
1728.000000	8.151048
1727.000000	8.151147
1726.000000	8.206491
1725.000000	8.202981
1724.000000	8.236279
1723.000000	8.302777
1722.000000	8.309616
1721.000000	8.332510
1720.000000	8.357190
1719.000000	8.418795
1718.000000	8.429228
1717.000000	8.471071
1716.000000	8.510064
1715.000000	8.524185
1714.000000	8.559255
1713.000000	8.607436
1712.000000	8.575463
1711.000000	8.607606
1710.000000	8.620976
1709.000000	8.631880
1708.000000	8.661784
1707.000000	8.666327
1706.000000	8.663500
1705.000000	8.678748
1704.000000	8.702458
1703.000000	8.692099
1702.000000	8.676313
1701.000000	8.663966
1700.000000	8.702999
1699.000000	8.663513
1698.000000	8.716713
1697.000000	8.745357
1696.000000	8.745722
1695.000000	8.737867
1694.000000	8.761278
1693.000000	8.776947
1692.000000	8.792550
1691.000000	8.807646
1690.000000	8.820446
1689.000000	8.871596
1688.000000	8.894313
1687.000000	8.942678
1686.000000	8.983386
1685.000000	9.030879
1684.000000	9.079653
1683.000000	9.134785
1682.000000	9.204379
1681.000000	9.278650
1680.000000	9.313148
1679.000000	9.366069
1678.000000	9.457816
1677.000000	9.499094
1676.000000	9.550305
1675.000000	9.641131
1674.000000	9.696269
1673.000000	9.759360
1672.000000	9.788992
1671.000000	9.870223
1670.000000	9.931701
1669.000000	9.977616
1668.000000	10.010390
1667.000000	10.067244
1666.000000	10.094294
1665.000000	10.117213
1664.000000	10.127817
1663.000000	10.170378
1662.000000	10.173743
1661.000000	10.215562
1660.000000	10.235810
1659.000000	10.252620
1658.000000	10.281460
1657.000000	10.303367
1656.000000	10.321835
1655.000000	10.324365
1654.000000	10.327012
1653.000000	10.337329
1652.000000	10.362400
1651.000000	10.344123
1650.000000	10.347904
1649.000000	10.330946
1648.000000	10.315126
1647.000000	10.314149
1646.000000	10.299222
1645.000000	10.303171
1644.000000	10.297104
1643.000000	10.281230
1642.000000	10.271892
1641.000000	10.274164
1640.000000	10.247661
1639.000000	10.239686
1638.000000	10.213028
1637.000000	10.201526
1636.000000	10.178017
1635.000000	10.157268
1634.000000	10.152678
1633.000000	10.134578
1632.000000	10.110242
1631.000000	10.087354
1630.000000	10.066110
1629.000000	10.051758
1628.000000	10.025648
1627.000000	10.008393
1626.000000	9.991169
1625.000000	9.978555
1624.000000	9.965596
1623.000000	9.945828
1622.000000	9.919937
1621.000000	9.896373
1620.000000	9.873949
1619.000000	9.839166
1618.000000	9.823167
1617.000000	9.802087
1616.000000	9.765823
1615.000000	9.746276
1614.000000	9.728715
1613.000000	9.716659
1612.000000	9.687959
1611.000000	9.668225
1610.000000	9.650481
1609.000000	9.609789
1608.000000	9.581509
1607.000000	9.567627
1606.000000	9.543717
1605.000000	9.518074
1604.000000	9.486443
1603.000000	9.450583
1602.000000	9.426327
1601.000000	9.411784
1600.000000	9.401512
1599.000000	9.375486
1598.000000	9.345889
1597.000000	9.319386
1596.000000	9.290162
1595.000000	9.273134
1594.000000	9.262263
1593.000000	9.236898
1592.000000	9.218856
1591.000000	9.208574
1590.000000	9.175989
1589.000000	9.145349
1588.000000	9.134769
1587.000000	9.123515
1586.000000	9.095088
1585.000000	9.065959
1584.000000	9.044538
1583.000000	9.032273
1582.000000	9.013532
1581.000000	8.999673
1580.000000	8.992879
1579.000000	8.978033
1578.000000	8.966127
1577.000000	8.950020
1576.000000	8.931412
1575.000000	8.910059
1574.000000	8.889917
1573.000000	8.859708
1572.000000	8.833580
1571.000000	8.817786
1570.000000	8.813568
1569.000000	8.795697
1568.000000	8.769052
1567.000000	8.760495
1566.000000	8.746616
1565.000000	8.720456
1564.000000	8.705548
1563.000000	8.697748
1562.000000	8.682821
1561.000000	8.679324
1560.000000	8.668939
1559.000000	8.647752
1558.000000	8.645017
1557.000000	8.637546
1556.000000	8.621159
1555.000000	8.606655
1554.000000	8.594550
1553.000000	8.584094
1552.000000	8.573552
1551.000000	8.564077
1550.000000	8.543324
1549.000000	8.525422
1548.000000	8.512213
1547.000000	8.473473
1546.000000	8.455780
1545.000000	8.431728
1544.000000	8.390794
1543.000000	8.352475
1542.000000	8.329470
1541.000000	8.295833
1540.000000	8.261484
1539.000000	8.235988
1538.000000	8.189100
1537.000000	8.155313
1536.000000	8.124436
1535.000000	8.090075
1534.000000	8.056813
1533.000000	8.015864
1532.000000	7.974316
1531.000000	7.945025
1530.000000	7.920089
1529.000000	7.907290
1528.000000	7.956737
1527.000000	8.005759
1526.000000	8.002619
1525.000000	7.943822
1524.000000	7.868507
1523.000000	7.827612
1522.000000	7.773352
1521.000000	7.781718
1520.000000	7.790937
1519.000000	7.744234
1518.000000	7.728051
1517.000000	7.718825
1516.000000	7.682433
1515.000000	7.662290
1514.000000	7.646748
1513.000000	7.644155
1512.000000	7.640922
1511.000000	7.609801
1510.000000	7.584261
1509.000000	7.587555
1508.000000	7.570131
1507.000000	7.583422
1506.000000	7.584069
1505.000000	7.576365
1504.000000	7.560763
1503.000000	7.540647
1502.000000	7.523499
1501.000000	7.518814
1500.000000	7.523506
1499.000000	7.518965
1498.000000	7.504224
1497.000000	7.510228
1496.000000	7.498810
1495.000000	7.501988
1494.000000	7.513913
1493.000000	7.509092
1492.000000	7.525686
1491.000000	7.539384
1490.000000	7.539823
1489.000000	7.540542
1488.000000	7.564481
1487.000000	7.561928
1486.000000	7.573365
1485.000000	7.601103
1484.000000	7.615248
1483.000000	7.622973
1482.000000	7.649443
1481.000000	7.653065
1480.000000	7.672736
1479.000000	7.680265
1478.000000	7.718664
1477.000000	7.725341
1476.000000	7.739999
1475.000000	7.746412
1474.000000	7.754534
1473.000000	7.783911
1472.000000	7.783194
1471.000000	7.803710
1470.000000	7.813328
1469.000000	7.825570
1468.000000	7.846695
1467.000000	7.882540
1466.000000	7.901654
1465.000000	7.907287
1464.000000	7.914306
1463.000000	7.926497
1462.000000	7.945796
1461.000000	7.977287
1460.000000	7.969078
1459.000000	7.979803
1458.000000	7.991592
1457.000000	8.038501
1456.000000	8.065462
1455.000000	8.056622
1454.000000	8.049102
1453.000000	8.071493
1452.000000	8.113324
1451.000000	8.139715
1450.000000	8.151412
1449.000000	8.165548
1448.000000	8.189382
1447.000000	8.235865
1446.000000	8.262762
1445.000000	8.270625
1444.000000	8.286906
1443.000000	8.286455
1442.000000	8.311111
1441.000000	8.347610
1440.000000	8.399064
1439.000000	8.448428
1438.000000	8.479982
1437.000000	8.485740
1436.000000	8.517544
1435.000000	8.530494
1434.000000	8.571150
1433.000000	8.615463
1432.000000	8.653894
1431.000000	8.686874
1430.000000	8.728614
1429.000000	8.778753
1428.000000	8.818884
1427.000000	8.869067
1426.000000	8.919964
1425.000000	8.976412
1424.000000	9.034831
1423.000000	9.089930
1422.000000	9.144390
1421.000000	9.200783
1420.000000	9.251457
1419.000000	9.289100
1418.000000	9.361765
1417.000000	9.440417
1416.000000	9.506839
1415.000000	9.573748
1414.000000	9.622485
1413.000000	9.682632
1412.000000	9.761806
1411.000000	9.846900
1410.000000	9.908821
1409.000000	9.963037
1408.000000	10.025728
1407.000000	10.097777
1406.000000	10.183420
1405.000000	10.242995
1404.000000	10.275693
1403.000000	10.343541
1402.000000	10.407920
1401.000000	10.478898
1400.000000	10.537965
1399.000000	10.600332
1398.000000	10.670392
1397.000000	10.723980
1396.000000	10.777816
1395.000000	10.826944
1394.000000	10.879298
1393.000000	10.930763
1392.000000	10.973163
1391.000000	11.023240
1390.000000	11.069990
1389.000000	11.125565
1388.000000	11.185239
1387.000000	11.218727
1386.000000	11.248213
1385.000000	11.275145
1384.000000	11.312202
1383.000000	11.358700
1382.000000	11.387548
1381.000000	11.411795
1380.000000	11.439464
1379.000000	11.451450
1378.000000	11.467424
1377.000000	11.493077
1376.000000	11.507526
1375.000000	11.518941
1374.000000	11.540075
1373.000000	11.565473
1372.000000	11.571061
1371.000000	11.571462
1370.000000	11.568685
1369.000000	11.570615
1368.000000	11.586651
1367.000000	11.605060
1366.000000	11.624745
1365.000000	11.641283
1364.000000	11.645564
1363.000000	11.649525
1362.000000	11.665026
1361.000000	11.683452
1360.000000	11.717851
1359.000000	11.750462
1358.000000	11.764652
1357.000000	11.768951
1356.000000	11.780223
1355.000000	11.803085
1354.000000	11.817432
1353.000000	11.816520
1352.000000	11.828523
1351.000000	11.848837
1350.000000	11.855568
1349.000000	11.870546
1348.000000	11.898757
1347.000000	11.910930
1346.000000	11.917444
1345.000000	11.941906
1344.000000	11.966785
1343.000000	11.973472
1342.000000	11.967931
1341.000000	11.965743
1340.000000	11.985809
1339.000000	11.998498
1338.000000	12.014242
1337.000000	12.028235
1336.000000	12.051488
1335.000000	12.082449
1334.000000	12.091535
1333.000000	12.091904
1332.000000	12.081062
1331.000000	12.082360
1330.000000	12.083871
1329.000000	12.103678
1328.000000	12.124364
1327.000000	12.125969
1326.000000	12.134768
1325.000000	12.160448
1324.000000	12.154172
1323.000000	12.122845
1322.000000	12.128151
1321.000000	12.170059
1320.000000	12.188793
1319.000000	12.165102
1318.000000	12.137950
1317.000000	12.124979
1316.000000	12.118635
1315.000000	12.163144
1314.000000	12.165340
1313.000000	12.151615
1312.000000	12.137334
1311.000000	12.131281
1310.000000	12.125441
1309.000000	12.168466
1308.000000	12.182764
1307.000000	12.160312
1306.000000	12.134583
1305.000000	12.111436
1304.000000	12.114465
1303.000000	12.110570
1302.000000	12.109249
1301.000000	12.128302
1300.000000	12.149337
1299.000000	12.132654
1298.000000	12.109509
1297.000000	12.102503
1296.000000	12.097292
1295.000000	12.098046
1294.000000	12.091364
1293.000000	12.088208
1292.000000	12.075818
1291.000000	12.064002
1290.000000	12.059288
1289.000000	12.042212
1288.000000	12.019158
1287.000000	12.013265
1286.000000	12.027574
1285.000000	12.030232
1284.000000	12.022511
1283.000000	12.032419
1282.000000	12.042447
1281.000000	12.036962
1280.000000	12.033897
1279.000000	11.983704
1278.000000	11.969434
1277.000000	11.971147
1276.000000	11.977087
1275.000000	11.986713
1274.000000	11.988624
1273.000000	11.991265
1272.000000	11.990432
1271.000000	11.976521
1270.000000	11.959158
1269.000000	11.970867
1268.000000	11.995297
1267.000000	12.018735
1266.000000	12.033429
1265.000000	11.968081
1264.000000	11.979317
1263.000000	12.000377
1262.000000	12.011032
1261.000000	12.029696
1260.000000	11.999976
1259.000000	11.983555
1258.000000	11.967189
1257.000000	11.970082
1256.000000	11.946850
1255.000000	11.980691
1254.000000	12.003065
1253.000000	12.005566
1252.000000	11.970806
1251.000000	11.975494
1250.000000	11.943047
1249.000000	11.947012
1248.000000	11.933807
1247.000000	11.925401
1246.000000	11.935792
1245.000000	11.931048
1244.000000	11.907023
1243.000000	11.873828
1242.000000	11.878453
1241.000000	11.868205
1240.000000	11.861723
1239.000000	11.859964
1238.000000	11.840981
1237.000000	11.827226
1236.000000	11.825265
1235.000000	11.810084
1234.000000	11.790940
1233.000000	11.801034
1232.000000	11.796212
1231.000000	11.794526
1230.000000	11.757416
1229.000000	11.746527
1228.000000	11.745804
1227.000000	11.758647
1226.000000	11.752398
1225.000000	11.756100
1224.000000	11.749606
1223.000000	11.740397
1222.000000	11.683392
1221.000000	11.676599
1220.000000	11.670047
1219.000000	11.650783
1218.000000	11.644115
1217.000000	11.634388
1216.000000	11.666382
1215.000000	11.654254
1214.000000	11.636040
1213.000000	11.619976
1212.000000	11.615235
1211.000000	11.627942
1210.000000	11.588468
1209.000000	11.558331
1208.000000	11.563346
1207.000000	11.545988
1206.000000	11.516414
1205.000000	11.513715
1204.000000	11.505182
1203.000000	11.488523
1202.000000	11.484912
1201.000000	11.461626
1200.000000	11.422877
1199.000000	11.387238
1198.000000	11.373842
1197.000000	11.381820
1196.000000	11.370738
1195.000000	11.353064
1194.000000	11.332948
1193.000000	11.308800
1192.000000	11.290660
1191.000000	11.288854
1190.000000	11.250648
1189.000000	11.205905
1188.000000	11.214446
1187.000000	11.227135
1186.000000	11.217081
1185.000000	11.202675
1184.000000	11.195538
1183.000000	11.201382
1182.000000	11.203548
1181.000000	11.210618
1180.000000	11.233447
1179.000000	11.248504
1178.000000	11.259970
1177.000000	11.277119
1176.000000	11.293106
1175.000000	11.313159
1174.000000	11.317434
1173.000000	11.330508
1172.000000	11.359463
1171.000000	11.375863
1170.000000	11.395285
1169.000000	11.421590
1168.000000	11.424613
1167.000000	11.441112
1166.000000	11.471080
1165.000000	11.490140
1164.000000	11.514232
1163.000000	11.535723
1162.000000	11.555245
1161.000000	11.575954
1160.000000	11.593715
1159.000000	11.613094
1158.000000	11.640090
1157.000000	11.660076
1156.000000	11.650424
1155.000000	11.645880
1154.000000	11.665311
1153.000000	11.696338
1152.000000	11.719373
1151.000000	11.730989
1150.000000	11.750087
1149.000000	11.773878
1148.000000	11.791848
1147.000000	11.802720
1146.000000	11.809411
1145.000000	11.824496
1144.000000	11.844667
1143.000000	11.859321
1142.000000	11.874543
1141.000000	11.872649
1140.000000	11.882876
1139.000000	11.904908
1138.000000	11.917567
1137.000000	11.922978
1136.000000	11.906493
1135.000000	11.897815
1134.000000	11.907829
1133.000000	11.919335
1132.000000	11.941539
1131.000000	11.946996
1130.000000	11.952216
1129.000000	11.968131
1128.000000	11.983980
1127.000000	11.986334
1126.000000	11.997991
1125.000000	12.003171
1124.000000	11.999622
1123.000000	12.001619
1122.000000	12.002924
1121.000000	11.978743
1120.000000	11.972942
1119.000000	11.975680
1118.000000	11.987525
1117.000000	11.988125
1116.000000	11.994404
1115.000000	11.986656
1114.000000	11.980261
1113.000000	11.991128
1112.000000	11.988945
1111.000000	11.990636
1110.000000	12.005600
1109.000000	12.002009
1108.000000	12.003253
1107.000000	12.001119
1106.000000	12.014208
1105.000000	12.007618
1104.000000	12.001752
1103.000000	11.971719
1102.000000	11.942863
1101.000000	11.947272
1100.000000	11.952317
1099.000000	11.955366
1098.000000	11.955657
1097.000000	11.962926
1096.000000	11.967782
1095.000000	11.972950
1094.000000	11.950130
1093.000000	11.931650
1092.000000	11.931178
1091.000000	11.934307
1090.000000	11.939758
1089.000000	11.941516
1088.000000	11.951504
1087.000000	11.921315
1086.000000	11.907253
1085.000000	11.913344
1084.000000	11.911543
1083.000000	11.909214
1082.000000	11.913829
1081.000000	11.918277
1080.000000	11.889061
1079.000000	11.879856
1078.000000	11.892043
1077.000000	11.888230
1076.000000	11.894014
1075.000000	11.895225
1074.000000	11.901880
1073.000000	11.867703
1072.000000	11.863680
1071.000000	11.848143
1070.000000	11.867413
1069.000000	11.879798
1068.000000	11.875821
1067.000000	11.857713
1066.000000	11.829560
1065.000000	11.836140
1064.000000	11.816781
1063.000000	11.832788
1062.000000	11.842163
1061.000000	11.859960
1060.000000	11.865207
1059.000000	11.812972
1058.000000	11.805822
1057.000000	11.809081
1056.000000	11.810912
1055.000000	11.810211
1054.000000	11.832259
1053.000000	11.789924
1052.000000	11.785513
1051.000000	11.784439
1050.000000	11.776396
1049.000000	11.805283
1048.000000	11.742515
1047.000000	11.756174
1046.000000	11.765843
1045.000000	11.791027
1044.000000	11.787012
1043.000000	11.753331
1042.000000	11.739438
1041.000000	11.751781
1040.000000	11.756158
1039.000000	11.724768
1038.000000	11.725207
1037.000000	11.736503
1036.000000	11.739621
1035.000000	11.742029
1034.000000	11.724625
1033.000000	11.719679
1032.000000	11.741484
1031.000000	11.745278
1030.000000	11.699708
1029.000000	11.706380
1028.000000	11.710394
1027.000000	11.713953
1026.000000	11.709799
1025.000000	11.719736
1024.000000	11.713430
1023.000000	11.691600
1022.000000	11.687091
1021.000000	11.701902
1020.000000	11.710280
1019.000000	11.690451
1018.000000	11.695864
1017.000000	11.693466
1016.000000	11.681506
1015.000000	11.691220
1014.000000	11.702187
1013.000000	11.693662
1012.000000	11.684618
1011.000000	11.701096
1010.000000	11.664046
1009.000000	11.661772
1008.000000	11.682090
1007.000000	11.692812
1006.000000	11.681644
1005.000000	11.681935
1004.000000	11.677729
1003.000000	11.678237
1002.000000	11.691533
1001.000000	11.685545
1000.000000	11.666489
999.000000	11.652676
998.000000	11.665280
997.000000	11.684319
996.000000	11.685764
995.000000	11.676452
994.000000	11.642670
993.000000	11.650191
992.000000	11.671200
991.000000	11.681341
990.000000	11.663725
989.000000	11.641721
988.000000	11.641675
987.000000	11.657921
986.000000	11.666006
985.000000	11.681414
984.000000	11.700763
983.000000	11.721676
982.000000	11.720950
981.000000	11.713893
980.000000	11.726415
979.000000	11.740167
978.000000	11.762210
977.000000	11.768847
976.000000	11.759702
975.000000	11.766288
974.000000	11.758073
973.000000	11.759651
972.000000	11.755903
971.000000	11.754903
970.000000	11.751891
969.000000	11.766034
968.000000	11.772450
967.000000	11.765551
966.000000	11.761283
965.000000	11.761613
964.000000	11.764813
963.000000	11.772729
962.000000	11.762698
961.000000	11.753057
960.000000	11.752938
959.000000	11.752464
958.000000	11.749218
957.000000	11.753983
956.000000	11.751525
955.000000	11.750511
954.000000	11.746315
953.000000	11.749231
952.000000	11.752822
951.000000	11.748760
950.000000	11.755780
949.000000	11.749253
948.000000	11.745793
947.000000	11.743981
946.000000	11.741243
945.000000	11.743841
944.000000	11.743700
943.000000	11.727218
942.000000	11.713545
941.000000	11.710973
940.000000	11.703016
939.000000	11.704272
938.000000	11.715394
937.000000	11.699406
936.000000	11.687104
935.000000	11.686131
934.000000	11.681680
933.000000	11.690516
932.000000	11.696083
931.000000	11.700506
930.000000	11.697560
929.000000	11.702053
928.000000	11.683157
927.000000	11.670909
926.000000	11.677320
925.000000	11.674928
924.000000	11.660879
923.000000	11.653187
922.000000	11.643910
921.000000	11.639817
920.000000	11.646736
919.000000	11.624888
918.000000	11.597788
917.000000	11.613281
916.000000	11.638281
915.000000	11.620843
914.000000	11.584451
913.000000	11.576596
912.000000	11.590540
911.000000	11.579918
910.000000	11.575722
909.000000	11.583800
908.000000	11.574847
907.000000	11.579170
906.000000	11.570567
905.000000	11.570301
904.000000	11.560133
903.000000	11.588841
902.000000	11.601887
901.000000	11.584486
900.000000	11.581775
899.000000	11.543759
898.000000	11.537850
897.000000	11.537540
896.000000	11.531983
895.000000	11.559057
894.000000	11.536532
893.000000	11.557934
892.000000	11.537267
891.000000	11.528231
890.000000	11.558832
889.000000	11.535844
888.000000	11.551599
887.000000	11.549983
886.000000	11.560337
885.000000	11.491008
884.000000	11.527665
883.000000	11.579850
882.000000	11.541895
881.000000	11.547817
880.000000	11.456510
879.000000	11.525309
878.000000	11.534284
877.000000	11.494393
876.000000	11.569166
875.000000	11.590080
874.000000	11.561743
873.000000	11.480046
872.000000	11.520620
871.000000	11.461569
870.000000	11.443751
869.000000	11.430942
868.000000	11.414088
867.000000	11.489383
866.000000	11.481268
865.000000	11.438855
864.000000	11.430030
863.000000	11.417683
862.000000	11.458960
861.000000	11.393957
860.000000	11.475988
859.000000	11.791590
858.000000	11.792630
857.000000	11.751502
856.000000	11.733988
855.000000	11.832565
854.000000	11.794963
853.000000	11.720003
852.000000	11.753431
851.000000	11.784442
850.000000	11.762483
849.000000	11.758506
848.000000	11.712495
847.000000	11.719157
846.000000	11.672512
845.000000	11.631720
844.000000	11.644405
843.000000	11.642856
842.000000	11.605199
841.000000	11.620130
840.000000	11.630329
839.000000	11.650792
838.000000	11.630291
837.000000	11.548468
836.000000	11.577090
835.000000	11.580629
834.000000	11.569500
833.000000	11.536317
832.000000	11.532156
831.000000	11.572085
830.000000	11.550918
829.000000	11.546080
828.000000	11.545671
827.000000	11.491371
826.000000	11.483450
825.000000	11.472858
824.000000	11.501775
823.000000	11.429920
822.000000	11.494818
821.000000	11.390785
820.000000	11.424776
819.000000	11.401253
818.000000	11.403597
817.000000	11.444724
816.000000	11.398320
815.000000	11.399254
814.000000	11.388158
813.000000	11.338635
812.000000	11.350038
811.000000	11.353785
810.000000	11.280098
809.000000	11.343599
808.000000	11.368505
807.000000	11.370000
806.000000	11.350819
805.000000	11.308903
804.000000	11.281461
803.000000	11.305359
802.000000	11.311673
801.000000	11.273401
800.000000	11.248662
799.000000	11.285653
798.000000	11.225330
797.000000	11.253240
796.000000	11.210066
795.000000	11.229198
794.000000	11.203072
793.000000	11.231517
792.000000	11.182734
791.000000	11.182927
790.000000	11.177638
789.000000	11.188583
788.000000	11.190061
787.000000	11.152056
786.000000	11.124195
785.000000	11.136685
784.000000	11.134055
783.000000	11.115228
782.000000	11.084838
781.000000	11.113092
780.000000	11.105723
779.000000	11.072513
778.000000	11.067680
777.000000	11.035654
776.000000	11.027493
775.000000	11.019384
774.000000	11.005288
773.000000	11.007085
772.000000	10.981546
771.000000	10.964705
770.000000	10.961535
769.000000	10.953739
768.000000	10.930962
767.000000	10.925376
766.000000	10.934706
765.000000	10.878126
764.000000	10.890211
763.000000	10.889003
762.000000	10.872395
761.000000	10.850113
760.000000	10.844623
759.000000	10.839322
758.000000	10.826460
757.000000	10.806328
756.000000	10.780649
755.000000	10.783612
754.000000	10.779421
753.000000	10.753094
752.000000	10.735248
751.000000	10.724488
750.000000	10.717671
749.000000	10.711919
748.000000	10.685615
747.000000	10.681799
746.000000	10.670428
745.000000	10.657683
744.000000	10.656381
743.000000	10.635553
742.000000	10.621843
741.000000	10.616647
740.000000	10.605890
739.000000	10.606385
738.000000	10.586506
737.000000	10.564752
736.000000	10.541278
735.000000	10.532759
734.000000	10.524185
733.000000	10.519424
732.000000	10.491946
731.000000	10.477582
730.000000	10.465601
729.000000	10.442241
728.000000	10.427261
727.000000	10.431759
726.000000	10.415068
725.000000	10.392294
724.000000	10.391034
723.000000	10.377743
722.000000	10.354227
721.000000	10.341977
720.000000	10.330949
719.000000	10.311409
718.000000	10.288120
717.000000	10.288602
716.000000	10.265792
715.000000	10.246383
714.000000	10.244650
713.000000	10.217055
712.000000	10.193940
711.000000	10.186334
710.000000	10.171042
709.000000	10.152693
708.000000	10.137927
707.000000	10.131351
706.000000	10.134750
705.000000	10.110265
704.000000	10.075898
703.000000	10.076882
702.000000	10.052935
701.000000	10.014646
700.000000	10.003803
699.000000	10.002869
698.000000	9.984238
697.000000	9.966506
696.000000	9.952848
695.000000	9.931503
694.000000	9.911064
693.000000	9.900150
692.000000	9.882131
691.000000	9.865732
690.000000	9.844330
689.000000	9.793653
688.000000	9.758946
687.000000	9.742533
686.000000	9.729684
685.000000	9.711040
684.000000	9.690477
683.000000	9.672725
682.000000	9.639278
681.000000	9.641189
680.000000	9.620288
679.000000	9.597558
678.000000	9.579131
677.000000	9.550055
676.000000	9.526130
675.000000	9.520273
674.000000	9.505389
673.000000	9.472061
672.000000	9.466453
671.000000	9.450164
670.000000	9.427187
669.000000	9.406217
668.000000	9.390462
667.000000	9.365792
666.000000	9.349890
665.000000	9.328443
664.000000	9.313347
663.000000	9.280061
662.000000	9.244519
661.000000	9.234278
660.000000	9.225982
659.000000	9.201970
658.000000	9.177432
657.000000	9.167697
656.000000	9.131655
655.000000	9.116868
654.000000	9.105573
653.000000	9.076816
652.000000	9.047858
651.000000	9.036707
650.000000	9.016224
649.000000	8.987483
648.000000	8.971529
647.000000	8.945565
646.000000	8.927993
645.000000	8.894939
644.000000	8.871192
643.000000	8.857266
642.000000	8.830757
641.000000	8.794844
640.000000	8.773010
639.000000	8.769934
638.000000	8.743856
637.000000	8.715661
636.000000	8.706119
635.000000	8.676897
634.000000	8.638593
633.000000	8.630366
632.000000	8.593467
631.000000	8.577697
630.000000	8.547814
629.000000	8.519173
628.000000	8.499185
627.000000	8.474470
626.000000	8.447871
625.000000	8.434280
624.000000	8.412582
623.000000	8.386042
622.000000	8.354238
621.000000	8.344877
620.000000	8.305375
619.000000	8.269810
618.000000	8.262242
617.000000	8.242069
616.000000	8.218786
615.000000	8.183611
614.000000	8.155215
613.000000	8.129567
612.000000	8.100242
611.000000	8.077678
610.000000	8.036979
609.000000	8.032337
608.000000	8.005314
607.000000	7.978836
606.000000	7.952321
605.000000	7.924432
604.000000	7.896165
603.000000	7.873222
602.000000	7.829530
601.000000	7.811799
600.000000	7.774515
599.000000	7.747418
598.000000	7.729914
597.000000	7.710399
596.000000	7.662855
595.000000	7.647474
594.000000	7.609387
593.000000	7.580331
592.000000	7.547346
591.000000	7.523698
590.000000	7.494540
589.000000	7.470149
588.000000	7.452531
587.000000	7.422923
586.000000	7.371262
585.000000	7.351059
584.000000	7.317404
583.000000	7.295719
582.000000	7.272516
581.000000	7.222924
580.000000	7.200323
579.000000	7.170191
578.000000	7.137223
577.000000	7.103266
576.000000	7.077870
575.000000	7.043690
574.000000	7.013574
573.000000	6.994113
572.000000	6.950955
571.000000	6.919823
570.000000	6.887533
569.000000	6.844538
568.000000	6.833520
567.000000	6.801255
566.000000	6.760383
565.000000	6.726374
564.000000	6.688652
563.000000	6.657405
562.000000	6.629686
561.000000	6.629812
560.000000	6.586734
559.000000	6.557734
558.000000	6.526324
557.000000	6.490829
556.000000	6.454755
555.000000	6.423096
554.000000	6.380279
553.000000	6.345066
552.000000	6.309335
551.000000	6.282965
550.000000	6.241939
549.000000	6.201607
548.000000	6.168802
547.000000	6.134182
546.000000	6.097018
545.000000	6.072322
544.000000	6.031575
543.000000	5.984770
542.000000	5.947700
541.000000	5.919376
540.000000	5.884213
539.000000	5.843398
538.000000	5.803504
537.000000	5.769061
536.000000	5.725389
535.000000	5.688259
534.000000	5.647258
533.000000	5.615200
532.000000	5.574527
531.000000	5.545536
530.000000	5.494351
529.000000	5.465426
528.000000	5.419153
527.000000	5.379158
526.000000	5.342976
525.000000	5.307649
524.000000	5.263188
523.000000	5.229394
522.000000	5.187020
521.000000	5.147576
520.000000	5.104253
519.000000	5.071274
518.000000	5.031891
517.000000	4.992711
516.000000	4.954266
515.000000	4.922162
514.000000	4.878881
513.000000	4.840886
512.000000	4.801383
511.000000	4.761820
510.000000	4.723752
509.000000	4.693980
508.000000	4.654097
507.000000	4.611761
506.000000	4.569142
505.000000	4.532305
504.000000	4.493731
503.000000	4.461719
502.000000	4.426456
501.000000	4.384326
500.000000	4.343630
499.000000	4.307326
498.000000	4.269799
497.000000	4.234457
496.000000	4.196579
495.000000	4.152471
494.000000	4.113017
493.000000	4.085564
492.000000	4.051872
491.000000	4.016088
490.000000	3.968170
489.000000	3.932461
488.000000	3.903330
487.000000	3.872562
486.000000	3.834029
485.000000	3.805059
484.000000	3.766855
483.000000	3.736667
482.000000	3.705078
481.000000	3.659765
480.000000	3.622328
479.000000	3.585839
478.000000	3.543204
477.000000	3.499606
476.000000	3.459580
475.000000	3.426284
474.000000	3.391258
473.000000	3.355525
472.000000	3.316393
471.000000	3.279334
470.000000	3.243930
469.000000	3.206680
468.000000	3.173860
467.000000	3.139328
466.000000	3.100772
465.000000	3.064473
464.000000	3.023412
463.000000	2.987657
462.000000	2.957997
461.000000	2.922389
460.000000	2.884681
459.000000	2.846891
458.000000	2.810091
457.000000	2.772977
456.000000	2.743186
455.000000	2.706395
454.000000	2.661902
453.000000	2.626802
452.000000	2.589827
451.000000	2.560311
450.000000	2.523586
449.000000	2.485556
448.000000	2.451333
447.000000	2.415296
446.000000	2.374514
445.000000	2.337041
444.000000	2.308187
443.000000	2.273379
442.000000	2.233214
441.000000	2.194022
440.000000	2.156224
439.000000	2.120593
438.000000	2.084647
437.000000	2.053266
436.000000	2.021466
435.000000	1.984596
434.000000	1.947166
433.000000	1.912737
432.000000	1.883985
431.000000	1.842889
430.000000	1.810963
429.000000	1.780667
428.000000	1.738382
427.000000	1.703541
426.000000	1.675299
425.000000	1.644873
424.000000	1.616603
423.000000	1.575283
422.000000	1.545867
421.000000	1.517712
420.000000	1.484703
419.000000	1.449462
418.000000	1.421566
417.000000	1.398275
416.000000	1.372127
415.000000	1.340006
414.000000	1.304327
413.000000	1.272901
412.000000	1.251299
411.000000	1.218841
410.000000	1.189894
409.000000	1.164675
408.000000	1.139811
407.000000	1.113194
406.000000	1.084577
405.000000	1.061542
404.000000	1.036844
403.000000	1.015207
402.000000	0.989721
401.000000	0.963547
400.000000	0.945670
399.000000	0.917872
398.000000	0.897262
397.000000	0.879003
396.000000	0.863419
395.000000	0.839424
394.000000	0.816540
393.000000	0.803299
392.000000	0.779322
391.000000	0.761489
390.000000	0.747096
389.000000	0.731918
388.000000	0.709875
387.000000	0.690799
386.000000	0.671931
385.000000	0.657088
384.000000	0.644396
383.000000	0.631032
382.000000	0.605676
381.000000	0.589838
380.000000	0.580914
379.000000	0.562326
378.000000	0.550254
377.000000	0.552857
376.000000	0.556105
375.000000	0.544872
374.000000	0.519748
373.000000	0.501261
372.000000	0.492255
371.000000	0.470467
370.000000	0.457498
369.000000	0.449180
368.000000	0.440742
367.000000	0.428676
366.000000	0.418329
365.000000	0.404807
364.000000	0.392636
363.000000	0.377683
362.000000	0.376261
361.000000	0.361227
360.000000	0.353210
359.000000	0.352787
358.000000	0.338991
357.000000	0.339012
356.000000	0.335422
355.000000	0.322369
354.000000	0.307446
353.000000	0.300830
352.000000	0.301383
351.000000	0.289676
350.000000	0.288633
349.000000	0.276712
348.000000	0.277357
347.000000	0.270085
346.000000	0.265175
345.000000	0.265953
344.000000	0.269724
343.000000	0.255182
342.000000	0.249096
341.000000	0.236165
340.000000	0.230235
339.000000	0.233335
338.000000	0.223429
337.000000	0.220051
336.000000	0.217876
335.000000	0.220094
334.000000	0.220922
333.000000	0.205143
332.000000	0.201668
331.000000	0.197089
330.000000	0.200219
329.000000	0.194532
328.000000	0.198625
327.000000	0.199244
326.000000	0.198187
325.000000	0.187043
324.000000	0.189343
323.000000	0.183510
322.000000	0.179442
321.000000	0.179816
320.000000	0.181857
319.000000	0.181554
318.000000	0.197387
317.000000	0.201855
316.000000	0.198673
315.000000	0.201794
314.000000	0.197929
313.000000	0.192675
312.000000	0.197538
311.000000	0.192648
310.000000	0.185378
309.000000	0.183957
308.000000	0.193174
307.000000	0.186470
306.000000	0.190899
305.000000	0.182670
304.000000	0.187357
303.000000	0.191911
302.000000	0.190741
301.000000	0.186477
300.000000	0.184852
299.000000	0.188875
298.000000	0.188948
297.000000	0.187170
296.000000	0.189429
295.000000	0.188727
294.000000	0.181001
293.000000	0.185042
292.000000	0.181594
291.000000	0.175023
290.000000	0.174312
289.000000	0.167640
288.000000	0.165743
287.000000	0.161744
286.000000	0.167873
285.000000	0.172802
284.000000	0.170700
283.000000	0.168018
282.000000	0.167928
281.000000	0.165754
280.000000	0.175226
279.000000	0.184260
278.000000	0.183403
277.000000	0.187689
276.000000	0.186702
275.000000	0.187107
274.000000	0.198813
273.000000	0.202771
272.000000	0.198567
271.000000	0.199767
270.000000	0.204701
269.000000	0.199237
268.000000	0.211303
267.000000	0.220121
266.000000	0.222170
265.000000	0.220861
264.000000	0.230412
263.000000	0.231043
262.000000	0.232926
261.000000	0.237809
260.000000	0.250184
259.000000	0.259009
258.000000	0.260994
257.000000	0.263433
256.000000	0.276066
255.000000	0.288257
254.000000	0.288421
253.000000	0.290733
252.000000	0.291480
251.000000	0.289170
250.000000	0.291938
249.000000	0.306012
248.000000	0.303760
247.000000	0.297520
246.000000	0.294917
245.000000	0.284817
244.000000	0.271521
243.000000	0.257459
242.000000	0.240501
241.000000	0.229656
240.000000	0.216116
239.000000	0.191914
238.000000	0.177635
237.000000	0.176838
236.000000	0.169245
235.000000	0.153337
234.000000	0.141336
233.000000	0.127219
232.000000	0.112278
231.000000	0.102458
230.000000	0.090065
229.000000	0.076447
228.000000	0.077070
227.000000	0.067654
226.000000	0.064336
225.000000	0.060974
224.000000	0.052881
223.000000	0.049560
222.000000	0.050633
221.000000	0.043285
220.000000	0.035484
219.000000	0.039392
218.000000	0.039110
217.000000	0.033794
216.000000	0.029296
215.000000	0.022156
214.000000	0.022792
213.000000	0.031001
212.000000	0.033493
211.000000	0.035017
210.000000	0.026317
209.000000	0.020204
208.000000	0.023926
207.000000	0.019142
206.000000	0.010958
205.000000	0.010488
204.000000	0.002262
203.000000	-0.005642
202.000000	0.010313
201.000000	0.005940
200.000000	0.003976
