PE UV       SUBTECH     SPECTRUM    ASCII       PEDS        4.00        
   -1
TTAgneauUK 52.Sample.asc
18/03/08
14:06:15.00
18/03/08
14:06:15.00
Administrator

200.000000
1
Lambda 750
750N8071901
PerkinElmer UV WinLab 6.0.4.0738 / 1.61.00 Lambda 900

0
0
3350/servo 860.8/2
0
0
UV/VIS
1
1
1
CommonBeamDepol,150mm sphere / downward view
0
0
0
0
Program
Program
3350/servo 860.8/2
3350/0.2 860.8/0.2
3350/0.2 860.8/0.2
0
1
 
 
 
0
 
860.8
319.2
860.8
Front
100
on
 
 
0
0
0
 
0
 
 
 
0
 
 
0
0
0
0
0
 
 
 
 
0
0


0
0
#HDR
-1
-1
#GR
nm
%T
1.0
0.0
2350.000000
-1.000000
2151
8
28.584071
0.055488
#DATA
2350.000000	7.074759
2349.000000	6.910661
2348.000000	7.041895
2347.000000	7.773427
2346.000000	7.182231
2345.000000	6.614588
2344.000000	7.081355
2343.000000	6.911945
2342.000000	6.751458
2341.000000	7.274578
2340.000000	6.923326
2339.000000	7.234119
2338.000000	7.484831
2337.000000	7.837774
2336.000000	7.721507
2335.000000	7.448246
2334.000000	7.854012
2333.000000	8.188543
2332.000000	8.011825
2331.000000	8.058969
2330.000000	7.856836
2329.000000	7.860737
2328.000000	7.525293
2327.000000	7.370290
2326.000000	7.328480
2325.000000	7.431735
2324.000000	7.782601
2323.000000	7.625323
2322.000000	7.433956
2321.000000	7.751653
2320.000000	7.875268
2319.000000	7.709706
2318.000000	7.393736
2317.000000	7.396807
2316.000000	7.488250
2315.000000	7.287177
2314.000000	7.390867
2313.000000	7.462371
2312.000000	7.215162
2311.000000	7.350993
2310.000000	7.133878
2309.000000	7.317753
2308.000000	7.260565
2307.000000	7.076914
2306.000000	7.014605
2305.000000	7.045829
2304.000000	7.082875
2303.000000	6.982617
2302.000000	6.923071
2301.000000	6.761046
2300.000000	6.695627
2299.000000	6.707334
2298.000000	6.626753
2297.000000	6.681036
2296.000000	6.516011
2295.000000	6.462907
2294.000000	6.384726
2293.000000	6.385158
2292.000000	6.356880
2291.000000	6.468441
2290.000000	6.471701
2289.000000	6.575226
2288.000000	6.571407
2287.000000	6.414670
2286.000000	6.352926
2285.000000	6.325081
2284.000000	6.133354
2283.000000	6.248086
2282.000000	6.313555
2281.000000	6.195594
2280.000000	6.141899
2279.000000	6.282175
2278.000000	6.329308
2277.000000	6.336362
2276.000000	6.419822
2275.000000	6.475713
2274.000000	6.358399
2273.000000	6.509576
2272.000000	6.656520
2271.000000	6.571921
2270.000000	6.443280
2269.000000	6.372242
2268.000000	6.500361
2267.000000	6.560053
2266.000000	6.670299
2265.000000	6.782555
2264.000000	6.855223
2263.000000	6.912563
2262.000000	6.830919
2261.000000	6.942807
2260.000000	7.107954
2259.000000	7.134180
2258.000000	7.062958
2257.000000	7.240020
2256.000000	7.386384
2255.000000	7.415641
2254.000000	7.513241
2253.000000	7.554485
2252.000000	7.633401
2251.000000	7.764347
2250.000000	7.920762
2249.000000	7.991315
2248.000000	8.083253
2247.000000	8.253088
2246.000000	8.316519
2245.000000	8.449860
2244.000000	8.560521
2243.000000	8.587014
2242.000000	8.657385
2241.000000	8.720498
2240.000000	8.848408
2239.000000	8.886865
2238.000000	8.881633
2237.000000	8.978995
2236.000000	9.111398
2235.000000	9.175331
2234.000000	9.201449
2233.000000	9.142394
2232.000000	9.236673
2231.000000	9.372125
2230.000000	9.285145
2229.000000	9.335761
2228.000000	9.406801
2227.000000	9.366409
2226.000000	9.401048
2225.000000	9.339329
2224.000000	9.270208
2223.000000	9.322601
2222.000000	9.291811
2221.000000	9.219295
2220.000000	9.277995
2219.000000	9.311268
2218.000000	9.266214
2217.000000	9.230051
2216.000000	9.207394
2215.000000	9.234749
2214.000000	9.209588
2213.000000	9.169354
2212.000000	9.096622
2211.000000	9.021076
2210.000000	9.003370
2209.000000	9.074779
2208.000000	8.965075
2207.000000	8.919163
2206.000000	8.896462
2205.000000	8.911104
2204.000000	8.870232
2203.000000	8.792625
2202.000000	8.695053
2201.000000	8.743289
2200.000000	8.693679
2199.000000	8.604791
2198.000000	8.628223
2197.000000	8.546744
2196.000000	8.392918
2195.000000	8.360175
2194.000000	8.375039
2193.000000	8.297236
2192.000000	8.275325
2191.000000	8.155905
2190.000000	8.143357
2189.000000	8.159661
2188.000000	8.062914
2187.000000	8.028477
2186.000000	8.040443
2185.000000	7.939266
2184.000000	7.968341
2183.000000	8.032657
2182.000000	8.032605
2181.000000	8.116479
2180.000000	8.066635
2179.000000	7.901883
2178.000000	7.907105
2177.000000	7.909773
2176.000000	7.867794
2175.000000	7.864319
2174.000000	7.846857
2173.000000	7.945548
2172.000000	7.908268
2171.000000	8.131261
2170.000000	8.055342
2169.000000	8.095351
2168.000000	8.132734
2167.000000	8.094085
2166.000000	8.113681
2165.000000	8.150589
2164.000000	8.101033
2163.000000	8.187153
2162.000000	8.236056
2161.000000	8.437916
2160.000000	8.546926
2159.000000	8.567701
2158.000000	8.521588
2157.000000	8.674542
2156.000000	8.588937
2155.000000	8.776094
2154.000000	8.761382
2153.000000	8.862605
2152.000000	8.990620
2151.000000	8.928436
2150.000000	8.958366
2149.000000	9.155082
2148.000000	9.201625
2147.000000	9.508328
2146.000000	9.459138
2145.000000	9.539050
2144.000000	9.620634
2143.000000	9.703576
2142.000000	9.702445
2141.000000	9.758814
2140.000000	9.932821
2139.000000	9.719425
2138.000000	10.000766
2137.000000	9.829498
2136.000000	9.926394
2135.000000	10.081061
2134.000000	10.284120
2133.000000	9.986201
2132.000000	10.152846
2131.000000	10.164551
2130.000000	10.488326
2129.000000	10.221614
2128.000000	10.234414
2127.000000	10.153714
2126.000000	10.359195
2125.000000	10.357964
2124.000000	10.516653
2123.000000	10.323162
2122.000000	10.550677
2121.000000	10.590356
2120.000000	10.349700
2119.000000	10.578075
2118.000000	10.646079
2117.000000	10.624475
2116.000000	10.608037
2115.000000	10.635793
2114.000000	10.604126
2113.000000	10.658681
2112.000000	10.663659
2111.000000	10.675375
2110.000000	10.647062
2109.000000	10.635851
2108.000000	10.674139
2107.000000	10.671732
2106.000000	10.776518
2105.000000	10.669253
2104.000000	10.817907
2103.000000	10.760658
2102.000000	10.619492
2101.000000	10.727078
2100.000000	10.675533
2099.000000	10.787701
2098.000000	10.763172
2097.000000	10.741614
2096.000000	10.790285
2095.000000	10.826595
2094.000000	10.793222
2093.000000	10.789172
2092.000000	10.796482
2091.000000	10.683310
2090.000000	10.696851
2089.000000	10.740665
2088.000000	10.746008
2087.000000	10.713563
2086.000000	10.639187
2085.000000	10.710455
2084.000000	10.664483
2083.000000	10.531812
2082.000000	10.502790
2081.000000	10.393585
2080.000000	10.453804
2079.000000	10.395776
2078.000000	10.344109
2077.000000	10.319459
2076.000000	10.294953
2075.000000	10.244891
2074.000000	10.106139
2073.000000	10.102726
2072.000000	10.035566
2071.000000	10.014967
2070.000000	9.978160
2069.000000	9.846733
2068.000000	9.741511
2067.000000	9.748209
2066.000000	9.616556
2065.000000	9.385881
2064.000000	9.422164
2063.000000	9.347480
2062.000000	9.251210
2061.000000	9.164983
2060.000000	9.021117
2059.000000	9.013135
2058.000000	8.931662
2057.000000	8.845936
2056.000000	8.855209
2055.000000	8.716398
2054.000000	8.575237
2053.000000	8.475408
2052.000000	8.394098
2051.000000	8.323131
2050.000000	8.343588
2049.000000	8.330048
2048.000000	8.201836
2047.000000	8.101252
2046.000000	8.118821
2045.000000	8.195162
2044.000000	8.203215
2043.000000	8.162283
2042.000000	8.131812
2041.000000	8.166134
2040.000000	8.211824
2039.000000	8.185325
2038.000000	8.198006
2037.000000	8.205112
2036.000000	8.165480
2035.000000	8.225587
2034.000000	8.312291
2033.000000	8.371163
2032.000000	8.483061
2031.000000	8.519068
2030.000000	8.550681
2029.000000	8.616731
2028.000000	8.690084
2027.000000	8.722766
2026.000000	8.816013
2025.000000	8.940349
2024.000000	8.946171
2023.000000	8.980425
2022.000000	9.041732
2021.000000	9.053806
2020.000000	9.048524
2019.000000	9.075224
2018.000000	9.133597
2017.000000	9.125789
2016.000000	9.105276
2015.000000	9.143749
2014.000000	9.168603
2013.000000	9.147898
2012.000000	9.152832
2011.000000	9.130959
2010.000000	9.094250
2009.000000	9.079952
2008.000000	9.033912
2007.000000	8.968114
2006.000000	8.968880
2005.000000	8.945859
2004.000000	8.854349
2003.000000	8.790945
2002.000000	8.786711
2001.000000	8.743373
2000.000000	8.688703
1999.000000	8.661287
1998.000000	8.642136
1997.000000	8.555971
1996.000000	8.509620
1995.000000	8.475854
1994.000000	8.417901
1993.000000	8.352524
1992.000000	8.315890
1991.000000	8.228342
1990.000000	8.155659
1989.000000	8.094703
1988.000000	8.076498
1987.000000	8.025247
1986.000000	7.953194
1985.000000	7.856872
1984.000000	7.844873
1983.000000	7.801996
1982.000000	7.725525
1981.000000	7.696094
1980.000000	7.655664
1979.000000	7.608075
1978.000000	7.545584
1977.000000	7.484338
1976.000000	7.403461
1975.000000	7.378328
1974.000000	7.335554
1973.000000	7.278908
1972.000000	7.228210
1971.000000	7.219902
1970.000000	7.178935
1969.000000	7.099945
1968.000000	7.020982
1967.000000	7.014412
1966.000000	6.979990
1965.000000	6.957380
1964.000000	6.909343
1963.000000	6.846545
1962.000000	6.775736
1961.000000	6.783916
1960.000000	6.723222
1959.000000	6.636180
1958.000000	6.604761
1957.000000	6.629186
1956.000000	6.581450
1955.000000	6.553147
1954.000000	6.551272
1953.000000	6.492588
1952.000000	6.472890
1951.000000	6.440265
1950.000000	6.447689
1949.000000	6.380289
1948.000000	6.353881
1947.000000	6.317653
1946.000000	6.349418
1945.000000	6.381096
1944.000000	6.372564
1943.000000	6.433709
1942.000000	6.409272
1941.000000	6.464364
1940.000000	6.431558
1939.000000	6.469598
1938.000000	6.457211
1937.000000	6.507828
1936.000000	6.610482
1935.000000	6.598502
1934.000000	6.608158
1933.000000	6.700765
1932.000000	6.791716
1931.000000	6.869806
1930.000000	6.931986
1929.000000	7.018898
1928.000000	7.061622
1927.000000	7.198337
1926.000000	7.285424
1925.000000	7.465886
1924.000000	7.533377
1923.000000	7.688238
1922.000000	7.845659
1921.000000	7.997782
1920.000000	8.048807
1919.000000	8.173844
1918.000000	8.283883
1917.000000	8.434570
1916.000000	8.581832
1915.000000	8.867565
1914.000000	9.059892
1913.000000	9.299195
1912.000000	9.432291
1911.000000	9.659704
1910.000000	9.809341
1909.000000	10.144019
1908.000000	10.317801
1907.000000	10.620745
1906.000000	10.845926
1905.000000	11.097933
1904.000000	11.370060
1903.000000	11.706282
1902.000000	11.999830
1901.000000	12.283709
1900.000000	12.606718
1899.000000	12.915275
1898.000000	13.209355
1897.000000	13.483023
1896.000000	13.823703
1895.000000	14.111042
1894.000000	14.384388
1893.000000	14.795503
1892.000000	15.007733
1891.000000	15.327446
1890.000000	15.610617
1889.000000	15.884301
1888.000000	16.184597
1887.000000	16.502484
1886.000000	16.790885
1885.000000	17.061562
1884.000000	17.352880
1883.000000	17.563057
1882.000000	17.796064
1881.000000	18.020837
1880.000000	18.262365
1879.000000	18.487070
1878.000000	18.701778
1877.000000	18.870724
1876.000000	19.080693
1875.000000	19.272810
1874.000000	19.459109
1873.000000	19.621775
1872.000000	19.756216
1871.000000	19.903168
1870.000000	19.998461
1869.000000	20.152491
1868.000000	20.240485
1867.000000	20.308014
1866.000000	20.369348
1865.000000	20.398377
1864.000000	20.474804
1863.000000	20.546978
1862.000000	20.596945
1861.000000	20.605402
1860.000000	20.645975
1859.000000	20.693000
1858.000000	20.732435
1857.000000	20.795641
1856.000000	20.818781
1855.000000	20.843892
1854.000000	20.861110
1853.000000	20.874423
1852.000000	20.860947
1851.000000	20.897013
1850.000000	20.922579
1849.000000	20.917104
1848.000000	20.901843
1847.000000	20.912317
1846.000000	20.917695
1845.000000	20.890318
1844.000000	20.900029
1843.000000	20.879431
1842.000000	20.852179
1841.000000	20.847752
1840.000000	20.826295
1839.000000	20.808472
1838.000000	20.763063
1837.000000	20.692900
1836.000000	20.670834
1835.000000	20.628233
1834.000000	20.580853
1833.000000	20.553642
1832.000000	20.547304
1831.000000	20.488796
1830.000000	20.463854
1829.000000	20.437605
1828.000000	20.381532
1827.000000	20.341750
1826.000000	20.304748
1825.000000	20.306607
1824.000000	20.291338
1823.000000	20.263461
1822.000000	20.226764
1821.000000	20.187522
1820.000000	20.170378
1819.000000	20.139127
1818.000000	20.119920
1817.000000	20.109690
1816.000000	20.063548
1815.000000	20.059130
1814.000000	20.050803
1813.000000	20.005976
1812.000000	19.981281
1811.000000	19.964821
1810.000000	19.938154
1809.000000	19.912370
1808.000000	19.875508
1807.000000	19.849097
1806.000000	19.842651
1805.000000	19.814263
1804.000000	19.788040
1803.000000	19.775136
1802.000000	19.746569
1801.000000	19.716982
1800.000000	19.702725
1799.000000	19.704269
1798.000000	19.701292
1797.000000	19.669734
1796.000000	19.654321
1795.000000	19.651378
1794.000000	19.646698
1793.000000	19.612722
1792.000000	19.592331
1791.000000	19.592596
1790.000000	19.577073
1789.000000	19.555633
1788.000000	19.556271
1787.000000	19.534799
1786.000000	19.529225
1785.000000	19.526088
1784.000000	19.495489
1783.000000	19.478868
1782.000000	19.465395
1781.000000	19.448600
1780.000000	19.414794
1779.000000	19.384877
1778.000000	19.356617
1777.000000	19.305319
1776.000000	19.275155
1775.000000	19.243582
1774.000000	19.211982
1773.000000	19.186500
1772.000000	19.132500
1771.000000	19.089376
1770.000000	19.041075
1769.000000	19.015226
1768.000000	18.987540
1767.000000	18.926225
1766.000000	18.886041
1765.000000	18.834924
1764.000000	18.808043
1763.000000	18.788105
1762.000000	18.762040
1761.000000	18.703355
1760.000000	18.649425
1759.000000	18.579775
1758.000000	18.570850
1757.000000	18.549299
1756.000000	18.516797
1755.000000	18.486290
1754.000000	18.440531
1753.000000	18.407016
1752.000000	18.367968
1751.000000	18.325023
1750.000000	18.286661
1749.000000	18.267866
1748.000000	18.211412
1747.000000	18.165466
1746.000000	18.138905
1745.000000	18.075522
1744.000000	18.023946
1743.000000	17.987179
1742.000000	17.960170
1741.000000	17.929442
1740.000000	17.897308
1739.000000	17.854640
1738.000000	17.836656
1737.000000	17.814039
1736.000000	17.792175
1735.000000	17.768333
1734.000000	17.748783
1733.000000	17.743400
1732.000000	17.729583
1731.000000	17.763835
1730.000000	17.734366
1729.000000	17.752293
1728.000000	17.796295
1727.000000	17.855377
1726.000000	17.847574
1725.000000	17.902895
1724.000000	17.982613
1723.000000	18.013462
1722.000000	18.043004
1721.000000	18.099231
1720.000000	18.194742
1719.000000	18.279576
1718.000000	18.316138
1717.000000	18.363802
1716.000000	18.420667
1715.000000	18.510116
1714.000000	18.561789
1713.000000	18.592879
1712.000000	18.656527
1711.000000	18.706833
1710.000000	18.755218
1709.000000	18.786331
1708.000000	18.818816
1707.000000	18.862087
1706.000000	18.877542
1705.000000	18.910744
1704.000000	18.904041
1703.000000	18.907654
1702.000000	18.924011
1701.000000	18.946949
1700.000000	18.974587
1699.000000	18.948886
1698.000000	18.991250
1697.000000	19.008116
1696.000000	19.033699
1695.000000	19.059944
1694.000000	19.051497
1693.000000	19.066697
1692.000000	19.103071
1691.000000	19.189049
1690.000000	19.230058
1689.000000	19.275334
1688.000000	19.350510
1687.000000	19.421510
1686.000000	19.511930
1685.000000	19.590624
1684.000000	19.689859
1683.000000	19.767324
1682.000000	19.894877
1681.000000	20.018685
1680.000000	20.132984
1679.000000	20.234552
1678.000000	20.345735
1677.000000	20.464340
1676.000000	20.592882
1675.000000	20.699146
1674.000000	20.811906
1673.000000	20.918372
1672.000000	21.034780
1671.000000	21.136286
1670.000000	21.250712
1669.000000	21.388694
1668.000000	21.457305
1667.000000	21.550740
1666.000000	21.633113
1665.000000	21.674986
1664.000000	21.758214
1663.000000	21.804255
1662.000000	21.856609
1661.000000	21.922750
1660.000000	21.989363
1659.000000	22.031425
1658.000000	22.048767
1657.000000	22.087297
1656.000000	22.115766
1655.000000	22.122229
1654.000000	22.137552
1653.000000	22.154357
1652.000000	22.188283
1651.000000	22.176153
1650.000000	22.180949
1649.000000	22.151510
1648.000000	22.142667
1647.000000	22.140695
1646.000000	22.141383
1645.000000	22.127857
1644.000000	22.115346
1643.000000	22.090645
1642.000000	22.081670
1641.000000	22.065275
1640.000000	22.045322
1639.000000	22.017876
1638.000000	21.998523
1637.000000	21.984770
1636.000000	21.956927
1635.000000	21.915495
1634.000000	21.879456
1633.000000	21.853097
1632.000000	21.851124
1631.000000	21.817979
1630.000000	21.777662
1629.000000	21.752863
1628.000000	21.714441
1627.000000	21.672319
1626.000000	21.650264
1625.000000	21.612355
1624.000000	21.577991
1623.000000	21.549109
1622.000000	21.520802
1621.000000	21.479955
1620.000000	21.445011
1619.000000	21.412822
1618.000000	21.363290
1617.000000	21.315263
1616.000000	21.277424
1615.000000	21.247088
1614.000000	21.214874
1613.000000	21.175586
1612.000000	21.130914
1611.000000	21.096202
1610.000000	21.050535
1609.000000	21.014832
1608.000000	20.975102
1607.000000	20.924350
1606.000000	20.883379
1605.000000	20.831348
1604.000000	20.781056
1603.000000	20.730673
1602.000000	20.697860
1601.000000	20.665289
1600.000000	20.625362
1599.000000	20.586373
1598.000000	20.535650
1597.000000	20.490938
1596.000000	20.456143
1595.000000	20.412363
1594.000000	20.371422
1593.000000	20.341453
1592.000000	20.303590
1591.000000	20.263956
1590.000000	20.226251
1589.000000	20.195195
1588.000000	20.160823
1587.000000	20.125711
1586.000000	20.096557
1585.000000	20.054391
1584.000000	20.022045
1583.000000	19.997542
1582.000000	19.959370
1581.000000	19.928532
1580.000000	19.900376
1579.000000	19.866323
1578.000000	19.840108
1577.000000	19.804335
1576.000000	19.755695
1575.000000	19.716543
1574.000000	19.686137
1573.000000	19.658930
1572.000000	19.619434
1571.000000	19.590197
1570.000000	19.554934
1569.000000	19.516355
1568.000000	19.497147
1567.000000	19.480775
1566.000000	19.456385
1565.000000	19.434836
1564.000000	19.405047
1563.000000	19.395572
1562.000000	19.372176
1561.000000	19.349127
1560.000000	19.324970
1559.000000	19.304038
1558.000000	19.283831
1557.000000	19.259382
1556.000000	19.239706
1555.000000	19.223622
1554.000000	19.199597
1553.000000	19.172742
1552.000000	19.170184
1551.000000	19.136321
1550.000000	19.099365
1549.000000	19.069919
1548.000000	19.035622
1547.000000	19.001962
1546.000000	18.964731
1545.000000	18.930386
1544.000000	18.868685
1543.000000	18.809356
1542.000000	18.766252
1541.000000	18.710354
1540.000000	18.655207
1539.000000	18.584647
1538.000000	18.528263
1537.000000	18.462254
1536.000000	18.386292
1535.000000	18.338574
1534.000000	18.309603
1533.000000	18.290607
1532.000000	18.278984
1531.000000	18.240339
1530.000000	18.194280
1529.000000	18.122729
1528.000000	18.051499
1527.000000	17.980629
1526.000000	17.902720
1525.000000	17.857680
1524.000000	17.826867
1523.000000	17.772924
1522.000000	17.746985
1521.000000	17.714729
1520.000000	17.680716
1519.000000	17.637794
1518.000000	17.593166
1517.000000	17.578907
1516.000000	17.553191
1515.000000	17.510993
1514.000000	17.492872
1513.000000	17.505120
1512.000000	17.467421
1511.000000	17.418818
1510.000000	17.401656
1509.000000	17.370213
1508.000000	17.374771
1507.000000	17.373341
1506.000000	17.358437
1505.000000	17.340697
1504.000000	17.302430
1503.000000	17.275582
1502.000000	17.258469
1501.000000	17.265770
1500.000000	17.259304
1499.000000	17.257145
1498.000000	17.250937
1497.000000	17.250208
1496.000000	17.267840
1495.000000	17.264468
1494.000000	17.264289
1493.000000	17.298446
1492.000000	17.300616
1491.000000	17.338266
1490.000000	17.341427
1489.000000	17.369138
1488.000000	17.385295
1487.000000	17.420658
1486.000000	17.463940
1485.000000	17.470479
1484.000000	17.506345
1483.000000	17.560454
1482.000000	17.600598
1481.000000	17.627560
1480.000000	17.674259
1479.000000	17.700454
1478.000000	17.739025
1477.000000	17.763025
1476.000000	17.809776
1475.000000	17.817953
1474.000000	17.852187
1473.000000	17.897241
1472.000000	17.917896
1471.000000	17.942549
1470.000000	17.977178
1469.000000	18.009134
1468.000000	18.032639
1467.000000	18.062423
1466.000000	18.135067
1465.000000	18.169047
1464.000000	18.178782
1463.000000	18.204582
1462.000000	18.232093
1461.000000	18.286794
1460.000000	18.325915
1459.000000	18.349799
1458.000000	18.372730
1457.000000	18.435375
1456.000000	18.473867
1455.000000	18.503431
1454.000000	18.519883
1453.000000	18.552476
1452.000000	18.582823
1451.000000	18.649566
1450.000000	18.710192
1449.000000	18.751123
1448.000000	18.791952
1447.000000	18.848450
1446.000000	18.889890
1445.000000	18.975368
1444.000000	19.014448
1443.000000	19.062272
1442.000000	19.105076
1441.000000	19.167178
1440.000000	19.233181
1439.000000	19.284245
1438.000000	19.336243
1437.000000	19.407842
1436.000000	19.491531
1435.000000	19.593638
1434.000000	19.665252
1433.000000	19.740776
1432.000000	19.819427
1431.000000	19.893930
1430.000000	19.973334
1429.000000	20.051300
1428.000000	20.145978
1427.000000	20.244007
1426.000000	20.339721
1425.000000	20.444650
1424.000000	20.524561
1423.000000	20.622382
1422.000000	20.728455
1421.000000	20.847314
1420.000000	20.979324
1419.000000	21.101388
1418.000000	21.213064
1417.000000	21.338973
1416.000000	21.465161
1415.000000	21.593254
1414.000000	21.726648
1413.000000	21.870796
1412.000000	21.997365
1411.000000	22.119619
1410.000000	22.270588
1409.000000	22.411697
1408.000000	22.549186
1407.000000	22.669344
1406.000000	22.791230
1405.000000	22.930022
1404.000000	23.068782
1403.000000	23.203602
1402.000000	23.339690
1401.000000	23.451000
1400.000000	23.542117
1399.000000	23.655890
1398.000000	23.775031
1397.000000	23.904781
1396.000000	24.030431
1395.000000	24.141223
1394.000000	24.252631
1393.000000	24.362112
1392.000000	24.457853
1391.000000	24.550321
1390.000000	24.635566
1389.000000	24.734136
1388.000000	24.841440
1387.000000	24.937333
1386.000000	25.002249
1385.000000	25.073517
1384.000000	25.141371
1383.000000	25.214845
1382.000000	25.302311
1381.000000	25.359047
1380.000000	25.419491
1379.000000	25.478835
1378.000000	25.514484
1377.000000	25.563946
1376.000000	25.615328
1375.000000	25.664738
1374.000000	25.692273
1373.000000	25.711753
1372.000000	25.746336
1371.000000	25.795056
1370.000000	25.839444
1369.000000	25.866788
1368.000000	25.900887
1367.000000	25.939060
1366.000000	25.966183
1365.000000	25.985964
1364.000000	26.014204
1363.000000	26.045155
1362.000000	26.075848
1361.000000	26.110481
1360.000000	26.140726
1359.000000	26.165227
1358.000000	26.214308
1357.000000	26.252436
1356.000000	26.272700
1355.000000	26.321498
1354.000000	26.370868
1353.000000	26.377042
1352.000000	26.411967
1351.000000	26.469081
1350.000000	26.508053
1349.000000	26.517919
1348.000000	26.528484
1347.000000	26.587021
1346.000000	26.610480
1345.000000	26.636680
1344.000000	26.683326
1343.000000	26.717107
1342.000000	26.734866
1341.000000	26.776244
1340.000000	26.831818
1339.000000	26.856019
1338.000000	26.863600
1337.000000	26.885414
1336.000000	26.905277
1335.000000	26.941749
1334.000000	26.995901
1333.000000	27.004212
1332.000000	27.012995
1331.000000	27.034343
1330.000000	27.044751
1329.000000	27.065746
1328.000000	27.097793
1327.000000	27.101986
1326.000000	27.132168
1325.000000	27.153588
1324.000000	27.151116
1323.000000	27.153931
1322.000000	27.162543
1321.000000	27.218747
1320.000000	27.239125
1319.000000	27.234615
1318.000000	27.221565
1317.000000	27.217573
1316.000000	27.231453
1315.000000	27.279274
1314.000000	27.294625
1313.000000	27.290996
1312.000000	27.269127
1311.000000	27.285603
1310.000000	27.306810
1309.000000	27.301196
1308.000000	27.291837
1307.000000	27.318479
1306.000000	27.349406
1305.000000	27.359557
1304.000000	27.340010
1303.000000	27.338937
1302.000000	27.329588
1301.000000	27.364111
1300.000000	27.386437
1299.000000	27.385332
1298.000000	27.387966
1297.000000	27.376089
1296.000000	27.391921
1295.000000	27.379957
1294.000000	27.366518
1293.000000	27.359830
1292.000000	27.369987
1291.000000	27.364585
1290.000000	27.361773
1289.000000	27.314790
1288.000000	27.299754
1287.000000	27.303759
1286.000000	27.298783
1285.000000	27.308652
1284.000000	27.305967
1283.000000	27.323171
1282.000000	27.320816
1281.000000	27.315189
1280.000000	27.306156
1279.000000	27.266735
1278.000000	27.266369
1277.000000	27.261004
1276.000000	27.259885
1275.000000	27.274162
1274.000000	27.282323
1273.000000	27.270611
1272.000000	27.278551
1271.000000	27.284695
1270.000000	27.272543
1269.000000	27.307370
1268.000000	27.330972
1267.000000	27.305289
1266.000000	27.321005
1265.000000	27.284867
1264.000000	27.293904
1263.000000	27.314154
1262.000000	27.352339
1261.000000	27.372412
1260.000000	27.358563
1259.000000	27.340239
1258.000000	27.320926
1257.000000	27.304012
1256.000000	27.326668
1255.000000	27.369836
1254.000000	27.371888
1253.000000	27.388572
1252.000000	27.378841
1251.000000	27.372491
1250.000000	27.369195
1249.000000	27.359225
1248.000000	27.358822
1247.000000	27.363763
1246.000000	27.361233
1245.000000	27.361682
1244.000000	27.351352
1243.000000	27.300826
1242.000000	27.296983
1241.000000	27.278244
1240.000000	27.277839
1239.000000	27.278059
1238.000000	27.238699
1237.000000	27.210306
1236.000000	27.222511
1235.000000	27.211586
1234.000000	27.171326
1233.000000	27.154844
1232.000000	27.175493
1231.000000	27.158117
1230.000000	27.112236
1229.000000	27.103757
1228.000000	27.098719
1227.000000	27.093399
1226.000000	27.086950
1225.000000	27.076404
1224.000000	27.068348
1223.000000	27.008618
1222.000000	26.985412
1221.000000	26.979135
1220.000000	26.970647
1219.000000	26.956284
1218.000000	26.931932
1217.000000	26.931181
1216.000000	26.943945
1215.000000	26.938522
1214.000000	26.900224
1213.000000	26.888716
1212.000000	26.882690
1211.000000	26.869241
1210.000000	26.817227
1209.000000	26.797092
1208.000000	26.779862
1207.000000	26.748884
1206.000000	26.721720
1205.000000	26.720732
1204.000000	26.693916
1203.000000	26.651596
1202.000000	26.638650
1201.000000	26.623897
1200.000000	26.600689
1199.000000	26.573779
1198.000000	26.544359
1197.000000	26.525206
1196.000000	26.514659
1195.000000	26.514033
1194.000000	26.483618
1193.000000	26.459006
1192.000000	26.446113
1191.000000	26.437720
1190.000000	26.394523
1189.000000	26.354360
1188.000000	26.342790
1187.000000	26.343149
1186.000000	26.340340
1185.000000	26.335689
1184.000000	26.338619
1183.000000	26.339224
1182.000000	26.363448
1181.000000	26.378138
1180.000000	26.394652
1179.000000	26.437543
1178.000000	26.462693
1177.000000	26.480787
1176.000000	26.499644
1175.000000	26.528938
1174.000000	26.552746
1173.000000	26.587728
1172.000000	26.629310
1171.000000	26.668661
1170.000000	26.710205
1169.000000	26.756220
1168.000000	26.790645
1167.000000	26.835593
1166.000000	26.889720
1165.000000	26.930183
1164.000000	26.976503
1163.000000	27.030744
1162.000000	27.073436
1161.000000	27.093133
1160.000000	27.114409
1159.000000	27.161956
1158.000000	27.204171
1157.000000	27.253513
1156.000000	27.306832
1155.000000	27.345974
1154.000000	27.379715
1153.000000	27.420307
1152.000000	27.468762
1151.000000	27.507278
1150.000000	27.539891
1149.000000	27.571050
1148.000000	27.593803
1147.000000	27.623591
1146.000000	27.657595
1145.000000	27.679108
1144.000000	27.708442
1143.000000	27.713434
1142.000000	27.716704
1141.000000	27.753754
1140.000000	27.787769
1139.000000	27.815847
1138.000000	27.841170
1137.000000	27.872977
1136.000000	27.894206
1135.000000	27.915773
1134.000000	27.954112
1133.000000	27.986433
1132.000000	28.013015
1131.000000	28.039469
1130.000000	28.059851
1129.000000	28.041546
1128.000000	28.036089
1127.000000	28.050230
1126.000000	28.070031
1125.000000	28.081661
1124.000000	28.090964
1123.000000	28.103683
1122.000000	28.108848
1121.000000	28.128409
1120.000000	28.129992
1119.000000	28.131719
1118.000000	28.156513
1117.000000	28.149581
1116.000000	28.163889
1115.000000	28.161376
1114.000000	28.147938
1113.000000	28.146900
1112.000000	28.153997
1111.000000	28.152673
1110.000000	28.162146
1109.000000	28.157324
1108.000000	28.168717
1107.000000	28.165675
1106.000000	28.167912
1105.000000	28.171378
1104.000000	28.176241
1103.000000	28.143216
1102.000000	28.126431
1101.000000	28.142169
1100.000000	28.156045
1099.000000	28.173130
1098.000000	28.173044
1097.000000	28.174474
1096.000000	28.179532
1095.000000	28.176889
1094.000000	28.136356
1093.000000	28.129074
1092.000000	28.142175
1091.000000	28.157722
1090.000000	28.156990
1089.000000	28.155276
1088.000000	28.159396
1087.000000	28.138989
1086.000000	28.130674
1085.000000	28.125206
1084.000000	28.130996
1083.000000	28.145101
1082.000000	28.151607
1081.000000	28.155226
1080.000000	28.132105
1079.000000	28.119784
1078.000000	28.122119
1077.000000	28.118819
1076.000000	28.133784
1075.000000	28.136250
1074.000000	28.127798
1073.000000	28.087741
1072.000000	28.074080
1071.000000	28.069009
1070.000000	28.081396
1069.000000	28.092950
1068.000000	28.100224
1067.000000	28.105625
1066.000000	28.106672
1065.000000	28.072148
1064.000000	28.059619
1063.000000	28.052920
1062.000000	28.066229
1061.000000	28.071574
1060.000000	28.058373
1059.000000	28.031205
1058.000000	28.021040
1057.000000	28.019828
1056.000000	28.037419
1055.000000	28.042353
1054.000000	28.057437
1053.000000	27.991057
1052.000000	27.982359
1051.000000	27.992223
1050.000000	28.004910
1049.000000	28.032163
1048.000000	27.979166
1047.000000	27.999141
1046.000000	27.976837
1045.000000	27.986906
1044.000000	27.989346
1043.000000	27.950752
1042.000000	27.955318
1041.000000	27.962173
1040.000000	27.969347
1039.000000	27.947953
1038.000000	27.944049
1037.000000	27.941844
1036.000000	27.950228
1035.000000	27.961251
1034.000000	27.940718
1033.000000	27.934627
1032.000000	27.952380
1031.000000	27.959187
1030.000000	27.941398
1029.000000	27.915345
1028.000000	27.935416
1027.000000	27.947328
1026.000000	27.925289
1025.000000	27.925863
1024.000000	27.946464
1023.000000	27.922451
1022.000000	27.917404
1021.000000	27.930873
1020.000000	27.940652
1019.000000	27.929614
1018.000000	27.930004
1017.000000	27.945486
1016.000000	27.943629
1015.000000	27.938425
1014.000000	27.947431
1013.000000	27.929562
1012.000000	27.945317
1011.000000	27.961885
1010.000000	27.967446
1009.000000	27.956030
1008.000000	27.955354
1007.000000	27.947499
1006.000000	27.951684
1005.000000	27.968667
1004.000000	27.978400
1003.000000	27.972599
1002.000000	27.981612
1001.000000	27.965563
1000.000000	27.985542
999.000000	28.003646
998.000000	27.985594
997.000000	27.999739
996.000000	28.007599
995.000000	27.997562
994.000000	27.990915
993.000000	27.988795
992.000000	28.006708
991.000000	28.027447
990.000000	28.010360
989.000000	28.000218
988.000000	28.016926
987.000000	28.034600
986.000000	28.033886
985.000000	28.038821
984.000000	28.054403
983.000000	28.058909
982.000000	28.073224
981.000000	28.091196
980.000000	28.104334
979.000000	28.126747
978.000000	28.143088
977.000000	28.161636
976.000000	28.171542
975.000000	28.177065
974.000000	28.189583
973.000000	28.201118
972.000000	28.210555
971.000000	28.224488
970.000000	28.231387
969.000000	28.228132
968.000000	28.239865
967.000000	28.267473
966.000000	28.262617
965.000000	28.277330
964.000000	28.277882
963.000000	28.283362
962.000000	28.294054
961.000000	28.294453
960.000000	28.310592
959.000000	28.320779
958.000000	28.312736
957.000000	28.311079
956.000000	28.307726
955.000000	28.322602
954.000000	28.346040
953.000000	28.341210
952.000000	28.338901
951.000000	28.346897
950.000000	28.363748
949.000000	28.373305
948.000000	28.372888
947.000000	28.378876
946.000000	28.383387
945.000000	28.385142
944.000000	28.388620
943.000000	28.389611
942.000000	28.389252
941.000000	28.381876
940.000000	28.391005
939.000000	28.407523
938.000000	28.413507
937.000000	28.412399
936.000000	28.400116
935.000000	28.405897
934.000000	28.419799
933.000000	28.410763
932.000000	28.408736
931.000000	28.412792
930.000000	28.418344
929.000000	28.405203
928.000000	28.401914
927.000000	28.405081
926.000000	28.407674
925.000000	28.408177
924.000000	28.407608
923.000000	28.398747
922.000000	28.385430
921.000000	28.389020
920.000000	28.392544
919.000000	28.406058
918.000000	28.416372
917.000000	28.408851
916.000000	28.418413
915.000000	28.412567
914.000000	28.392298
913.000000	28.415444
912.000000	28.424667
911.000000	28.395561
910.000000	28.394911
909.000000	28.403258
908.000000	28.428942
907.000000	28.428638
906.000000	28.404982
905.000000	28.416906
904.000000	28.419673
903.000000	28.429681
902.000000	28.464433
901.000000	28.447951
900.000000	28.438904
899.000000	28.459811
898.000000	28.465396
897.000000	28.484575
896.000000	28.489593
895.000000	28.492692
894.000000	28.490775
893.000000	28.487380
892.000000	28.490023
891.000000	28.458766
890.000000	28.507214
889.000000	28.467823
888.000000	28.495177
887.000000	28.517736
886.000000	28.515705
885.000000	28.483341
884.000000	28.464182
883.000000	28.474915
882.000000	28.584071
881.000000	28.520394
880.000000	28.548262
879.000000	28.534279
878.000000	28.540763
877.000000	28.552320
876.000000	28.523686
875.000000	28.541859
874.000000	28.522243
873.000000	28.529259
872.000000	28.481974
871.000000	28.566348
870.000000	28.496708
869.000000	28.483698
868.000000	28.520721
867.000000	28.559949
866.000000	28.420437
865.000000	28.463947
864.000000	28.494891
863.000000	28.441936
862.000000	28.496121
861.000000	28.466529
860.000000	28.483810
859.000000	28.255652
858.000000	28.299265
857.000000	28.191869
856.000000	28.181613
855.000000	28.325547
854.000000	28.241562
853.000000	28.098072
852.000000	28.203712
851.000000	28.070736
850.000000	28.218802
849.000000	28.228176
848.000000	28.220215
847.000000	28.203298
846.000000	28.111604
845.000000	28.100077
844.000000	28.197885
843.000000	28.208170
842.000000	28.114339
841.000000	28.190117
840.000000	28.145886
839.000000	28.235365
838.000000	28.280199
837.000000	28.165633
836.000000	28.132275
835.000000	28.243312
834.000000	28.198002
833.000000	28.138782
832.000000	28.202712
831.000000	28.118723
830.000000	28.164160
829.000000	28.237234
828.000000	28.119778
827.000000	28.138525
826.000000	28.164928
825.000000	28.039534
824.000000	28.187628
823.000000	28.190937
822.000000	28.114397
821.000000	28.142499
820.000000	28.156312
819.000000	28.124503
818.000000	28.127557
817.000000	28.108068
816.000000	28.127298
815.000000	28.084304
814.000000	28.121354
813.000000	28.181183
812.000000	28.113494
811.000000	28.161508
810.000000	28.159962
809.000000	28.206212
808.000000	28.063437
807.000000	28.168318
806.000000	28.076046
805.000000	28.120256
804.000000	28.177525
803.000000	28.132209
802.000000	28.067083
801.000000	28.095239
800.000000	28.025839
799.000000	28.115370
798.000000	28.128207
797.000000	28.127879
796.000000	28.128441
795.000000	28.101013
794.000000	28.165082
793.000000	28.178691
792.000000	28.131369
791.000000	28.046491
790.000000	28.126683
789.000000	28.170601
788.000000	28.145824
787.000000	28.145014
786.000000	28.093743
785.000000	28.073812
784.000000	28.135600
783.000000	28.024521
782.000000	28.044601
781.000000	28.101448
780.000000	28.085414
779.000000	28.076807
778.000000	28.096169
777.000000	28.100304
776.000000	28.099324
775.000000	28.087495
774.000000	28.095357
773.000000	28.076037
772.000000	28.106790
771.000000	28.102075
770.000000	28.055452
769.000000	28.051022
768.000000	28.078326
767.000000	28.128828
766.000000	28.091353
765.000000	28.104447
764.000000	28.078413
763.000000	28.110754
762.000000	28.126147
761.000000	28.074721
760.000000	28.062679
759.000000	28.059126
758.000000	28.073846
757.000000	28.069257
756.000000	28.056305
755.000000	28.030113
754.000000	28.030467
753.000000	28.068492
752.000000	28.061239
751.000000	28.066154
750.000000	28.066676
749.000000	28.054062
748.000000	28.024189
747.000000	28.029301
746.000000	28.039782
745.000000	28.041747
744.000000	28.050672
743.000000	28.016360
742.000000	28.040628
741.000000	28.052131
740.000000	28.032394
739.000000	28.053949
738.000000	28.041789
737.000000	28.024960
736.000000	28.024527
735.000000	28.028187
734.000000	28.013106
733.000000	28.011290
732.000000	28.025394
731.000000	28.021010
730.000000	28.001328
729.000000	28.006619
728.000000	27.998972
727.000000	28.005228
726.000000	28.016122
725.000000	27.993878
724.000000	27.983340
723.000000	28.005808
722.000000	28.019279
721.000000	28.038613
720.000000	28.042076
719.000000	28.019473
718.000000	28.024705
717.000000	28.002116
716.000000	27.969921
715.000000	27.975802
714.000000	27.976539
713.000000	27.967796
712.000000	27.976531
711.000000	27.983693
710.000000	27.961770
709.000000	27.954657
708.000000	27.965386
707.000000	27.980305
706.000000	27.968649
705.000000	27.956032
704.000000	27.953901
703.000000	27.967521
702.000000	27.970952
701.000000	27.925807
700.000000	27.905589
699.000000	27.914997
698.000000	27.929676
697.000000	27.918885
696.000000	27.928328
695.000000	27.949021
694.000000	27.939586
693.000000	27.903541
692.000000	27.894321
691.000000	27.904727
690.000000	27.894236
689.000000	27.863755
688.000000	27.856123
687.000000	27.881185
686.000000	27.900021
685.000000	27.869549
684.000000	27.841764
683.000000	27.850314
682.000000	27.838064
681.000000	27.814349
680.000000	27.806967
679.000000	27.802578
678.000000	27.828728
677.000000	27.826412
676.000000	27.807083
675.000000	27.806038
674.000000	27.822374
673.000000	27.831966
672.000000	27.818274
671.000000	27.782691
670.000000	27.781617
669.000000	27.787452
668.000000	27.786420
667.000000	27.817758
666.000000	27.794739
665.000000	27.779349
664.000000	27.765677
663.000000	27.750520
662.000000	27.775575
661.000000	27.791163
660.000000	27.738585
659.000000	27.742067
658.000000	27.725895
657.000000	27.746607
656.000000	27.733490
655.000000	27.702828
654.000000	27.702718
653.000000	27.726046
652.000000	27.702208
651.000000	27.715499
650.000000	27.682442
649.000000	27.672206
648.000000	27.691920
647.000000	27.673735
646.000000	27.668895
645.000000	27.691242
644.000000	27.672618
643.000000	27.654616
642.000000	27.669729
641.000000	27.673637
640.000000	27.669752
639.000000	27.653667
638.000000	27.617906
637.000000	27.615376
636.000000	27.596965
635.000000	27.596625
634.000000	27.593542
633.000000	27.600610
632.000000	27.581638
631.000000	27.582394
630.000000	27.583001
629.000000	27.526574
628.000000	27.545424
627.000000	27.544673
626.000000	27.526936
625.000000	27.531730
624.000000	27.525803
623.000000	27.527359
622.000000	27.492898
621.000000	27.490937
620.000000	27.465194
619.000000	27.489753
618.000000	27.486992
617.000000	27.473537
616.000000	27.453074
615.000000	27.439385
614.000000	27.441923
613.000000	27.434748
612.000000	27.432545
611.000000	27.408338
610.000000	27.403541
609.000000	27.393346
608.000000	27.376440
607.000000	27.388647
606.000000	27.363423
605.000000	27.344067
604.000000	27.347782
603.000000	27.358209
602.000000	27.317467
601.000000	27.308595
600.000000	27.331812
599.000000	27.281815
598.000000	27.300324
597.000000	27.312022
596.000000	27.289500
595.000000	27.268703
594.000000	27.245896
593.000000	27.216630
592.000000	27.234192
591.000000	27.202165
590.000000	27.184928
589.000000	27.199067
588.000000	27.196867
587.000000	27.161261
586.000000	27.130509
585.000000	27.146506
584.000000	27.138956
583.000000	27.098009
582.000000	27.090095
581.000000	27.119728
580.000000	27.061855
579.000000	27.072306
578.000000	27.015320
577.000000	27.025946
576.000000	27.026778
575.000000	27.001975
574.000000	26.957908
573.000000	26.979383
572.000000	26.951772
571.000000	26.945408
570.000000	26.898891
569.000000	26.955379
568.000000	26.879139
567.000000	26.862300
566.000000	26.868204
565.000000	26.869231
564.000000	26.846332
563.000000	26.816508
562.000000	26.803818
561.000000	26.784033
560.000000	26.780772
559.000000	26.759609
558.000000	26.735824
557.000000	26.725926
556.000000	26.703942
555.000000	26.676400
554.000000	26.675939
553.000000	26.666368
552.000000	26.622411
551.000000	26.603382
550.000000	26.601676
549.000000	26.569701
548.000000	26.573046
547.000000	26.531566
546.000000	26.507701
545.000000	26.501808
544.000000	26.480887
543.000000	26.427607
542.000000	26.431325
541.000000	26.425743
540.000000	26.380571
539.000000	26.360863
538.000000	26.354850
537.000000	26.322419
536.000000	26.312078
535.000000	26.296109
534.000000	26.235747
533.000000	26.216232
532.000000	26.191276
531.000000	26.192436
530.000000	26.139190
529.000000	26.120731
528.000000	26.101086
527.000000	26.079485
526.000000	26.047708
525.000000	26.037546
524.000000	25.980141
523.000000	25.974134
522.000000	25.941069
521.000000	25.917008
520.000000	25.865651
519.000000	25.830101
518.000000	25.795794
517.000000	25.765319
516.000000	25.716886
515.000000	25.710179
514.000000	25.693291
513.000000	25.635845
512.000000	25.597190
511.000000	25.589113
510.000000	25.533076
509.000000	25.510843
508.000000	25.485268
507.000000	25.464740
506.000000	25.406821
505.000000	25.374015
504.000000	25.341483
503.000000	25.312933
502.000000	25.270280
501.000000	25.239418
500.000000	25.208093
499.000000	25.157403
498.000000	25.115600
497.000000	25.105865
496.000000	25.069378
495.000000	25.015475
494.000000	24.960557
493.000000	24.950882
492.000000	24.910559
491.000000	24.868928
490.000000	24.832830
489.000000	24.787708
488.000000	24.748150
487.000000	24.681836
486.000000	24.649240
485.000000	24.627691
484.000000	24.597547
483.000000	24.547664
482.000000	24.520692
481.000000	24.487265
480.000000	24.437544
479.000000	24.379334
478.000000	24.320761
477.000000	24.270822
476.000000	24.216665
475.000000	24.175368
474.000000	24.119933
473.000000	24.070962
472.000000	24.027912
471.000000	23.953487
470.000000	23.891328
469.000000	23.845610
468.000000	23.786058
467.000000	23.744620
466.000000	23.684243
465.000000	23.622155
464.000000	23.573773
463.000000	23.499431
462.000000	23.437700
461.000000	23.400941
460.000000	23.333597
459.000000	23.263679
458.000000	23.207395
457.000000	23.117811
456.000000	23.047544
455.000000	23.009108
454.000000	22.935512
453.000000	22.836912
452.000000	22.785703
451.000000	22.725164
450.000000	22.639199
449.000000	22.568832
448.000000	22.488806
447.000000	22.405453
446.000000	22.325721
445.000000	22.261178
444.000000	22.190120
443.000000	22.113812
442.000000	22.029166
441.000000	21.917018
440.000000	21.832365
439.000000	21.757175
438.000000	21.665090
437.000000	21.587893
436.000000	21.500072
435.000000	21.386700
434.000000	21.280232
433.000000	21.176886
432.000000	21.088157
431.000000	21.005033
430.000000	20.916779
429.000000	20.799221
428.000000	20.694243
427.000000	20.569370
426.000000	20.480938
425.000000	20.377970
424.000000	20.267832
423.000000	20.135925
422.000000	20.010247
421.000000	19.901030
420.000000	19.823607
419.000000	19.689881
418.000000	19.532452
417.000000	19.401786
416.000000	19.293882
415.000000	19.155620
414.000000	19.023139
413.000000	18.902301
412.000000	18.777433
411.000000	18.639181
410.000000	18.506540
409.000000	18.371277
408.000000	18.218326
407.000000	18.076806
406.000000	17.933930
405.000000	17.807591
404.000000	17.671487
403.000000	17.498801
402.000000	17.341220
401.000000	17.197423
400.000000	17.114810
399.000000	16.930745
398.000000	16.758146
397.000000	16.633671
396.000000	16.486704
395.000000	16.335919
394.000000	16.187794
393.000000	16.018194
392.000000	15.876081
391.000000	15.732993
390.000000	15.558396
389.000000	15.414893
388.000000	15.252310
387.000000	15.075440
386.000000	14.900512
385.000000	14.713129
384.000000	14.564985
383.000000	14.403130
382.000000	14.217697
381.000000	14.032180
380.000000	13.878060
379.000000	13.693003
378.000000	13.436022
377.000000	13.358302
376.000000	13.222775
375.000000	13.045179
374.000000	12.848820
373.000000	12.668178
372.000000	12.546240
371.000000	12.296257
370.000000	12.064849
369.000000	11.971565
368.000000	11.774301
367.000000	11.594137
366.000000	11.452431
365.000000	11.257627
364.000000	11.044642
363.000000	10.884004
362.000000	10.720914
361.000000	10.577372
360.000000	10.392430
359.000000	10.254009
358.000000	10.100265
357.000000	9.967770
356.000000	9.776493
355.000000	9.587531
354.000000	9.473692
353.000000	9.371512
352.000000	9.135642
351.000000	9.045738
350.000000	8.938073
349.000000	8.713633
348.000000	8.568289
347.000000	8.438909
346.000000	8.258448
345.000000	8.091412
344.000000	7.954733
343.000000	7.718588
342.000000	7.561481
341.000000	7.466132
340.000000	7.229439
339.000000	7.024430
338.000000	6.950127
337.000000	6.742895
336.000000	6.477780
335.000000	6.249076
334.000000	6.108154
333.000000	5.869921
332.000000	5.668801
331.000000	5.470761
330.000000	5.226877
329.000000	5.024567
328.000000	4.871599
327.000000	4.664208
326.000000	4.550435
325.000000	4.351730
324.000000	4.207558
323.000000	4.067159
322.000000	3.880465
321.000000	3.803100
320.000000	3.716351
319.000000	3.631751
318.000000	3.560211
317.000000	3.445346
316.000000	3.412533
315.000000	3.332841
314.000000	3.242370
313.000000	3.163819
312.000000	3.080370
311.000000	3.025931
310.000000	2.987036
309.000000	2.910366
308.000000	2.858199
307.000000	2.755960
306.000000	2.703785
305.000000	2.631456
304.000000	2.566211
303.000000	2.497067
302.000000	2.456990
301.000000	2.400982
300.000000	2.335134
299.000000	2.256948
298.000000	2.196816
297.000000	2.133575
296.000000	2.009150
295.000000	1.910382
294.000000	1.793072
293.000000	1.671837
292.000000	1.554225
291.000000	1.437006
290.000000	1.325948
289.000000	1.226719
288.000000	1.147934
287.000000	1.079708
286.000000	1.042857
285.000000	1.021546
284.000000	1.013964
283.000000	1.014670
282.000000	1.016582
281.000000	1.016360
280.000000	1.016325
279.000000	1.020522
278.000000	1.037081
277.000000	1.058437
276.000000	1.072389
275.000000	1.091016
274.000000	1.129974
273.000000	1.148356
272.000000	1.189319
271.000000	1.200303
270.000000	1.191707
269.000000	1.209626
268.000000	1.246283
267.000000	1.272438
266.000000	1.298031
265.000000	1.323227
264.000000	1.357946
263.000000	1.388441
262.000000	1.426421
261.000000	1.463474
260.000000	1.499701
259.000000	1.533469
258.000000	1.553553
257.000000	1.594927
256.000000	1.626235
255.000000	1.652363
254.000000	1.663670
253.000000	1.639974
252.000000	1.634689
251.000000	1.609197
250.000000	1.581950
249.000000	1.518260
248.000000	1.436934
247.000000	1.343824
246.000000	1.241451
245.000000	1.134368
244.000000	1.037685
243.000000	0.936489
242.000000	0.828793
241.000000	0.725035
240.000000	0.636941
239.000000	0.560043
238.000000	0.494579
237.000000	0.450020
236.000000	0.417388
235.000000	0.376794
234.000000	0.342910
233.000000	0.308669
232.000000	0.280486
231.000000	0.265233
230.000000	0.242035
229.000000	0.221394
228.000000	0.204665
227.000000	0.179803
226.000000	0.160045
225.000000	0.142475
224.000000	0.124358
223.000000	0.109196
222.000000	0.109716
221.000000	0.103193
220.000000	0.088529
219.000000	0.095437
218.000000	0.098777
217.000000	0.088482
216.000000	0.087000
215.000000	0.096693
214.000000	0.093956
213.000000	0.092305
212.000000	0.105151
211.000000	0.108693
210.000000	0.086904
209.000000	0.055488
208.000000	0.058893
207.000000	0.107348
206.000000	0.152055
205.000000	0.142975
204.000000	0.126094
203.000000	0.152649
202.000000	0.163174
201.000000	0.172259
200.000000	0.191767
