PE UV       SUBTECH     SPECTRUM    ASCII       PEDS        4.00        
   -1
18-1G-XXX-NR008-F001.Sample.asc
24/01/19
18:06:37.00
24/01/19
18:06:37.00
Administrator

250.000000
1
Lambda 750
750N8071901
PerkinElmer UV WinLab 6.0.4.0738 / 1.61.00 Lambda 900

0
0
3350/servo 860.8/2
0
0
UV/VIS
1
1
1
CommonBeamDepol,150mm sphere / downward view
0
0
0
0
Program
Program
3350/servo 860.8/2
3350/0.2 860.8/0.2
3350/0.2 860.8/0.2
0
1
 
 
 
0
 
860.8
319.2
860.8
Front
100
on
 
 
0
0
0
 
0
 
 
 
0
 
 
0
0
0
0
0
 
 
 
 
0
0


0
0
#HDR
-1
-1
#GR
nm
%R
1.0
0.0
2500.000000
-10.000000
226
8
62.780236
4.913131
#DATA
2500.000000	7.291947
2490.000000	7.984245
2480.000000	8.085780
2470.000000	7.653846
2460.000000	8.525668
2450.000000	10.420437
2440.000000	11.156021
2430.000000	11.500482
2420.000000	10.026530
2410.000000	11.477155
2400.000000	12.223284
2390.000000	10.970109
2380.000000	10.704193
2370.000000	10.873481
2360.000000	11.864838
2350.000000	12.704318
2340.000000	12.422127
2330.000000	11.137248
2320.000000	11.037288
2310.000000	10.563973
2300.000000	10.194754
2290.000000	11.304713
2280.000000	11.150850
2270.000000	12.381504
2260.000000	13.790385
2250.000000	15.749501
2240.000000	15.682797
2230.000000	15.769057
2220.000000	15.515253
2210.000000	13.975123
2200.000000	13.336827
2190.000000	13.430851
2180.000000	14.231227
2170.000000	16.319490
2160.000000	16.974712
2150.000000	18.014377
2140.000000	19.166658
2130.000000	19.410711
2120.000000	20.214054
2110.000000	19.578720
2100.000000	19.374443
2090.000000	18.461788
2080.000000	16.938370
2070.000000	15.767048
2060.000000	15.260078
2050.000000	15.785135
2040.000000	16.632563
2030.000000	17.042787
2020.000000	16.356674
2010.000000	15.478845
2000.000000	14.503471
1990.000000	13.280416
1980.000000	12.642651
1970.000000	11.920149
1960.000000	11.846531
1950.000000	12.646987
1940.000000	14.297509
1930.000000	17.862300
1920.000000	22.636256
1910.000000	28.757966
1900.000000	34.232061
1890.000000	38.035058
1880.000000	40.314998
1870.000000	41.098717
1860.000000	40.853246
1850.000000	40.488102
1840.000000	40.077843
1830.000000	39.502029
1820.000000	39.033428
1810.000000	38.593717
1800.000000	38.154975
1790.000000	37.533195
1780.000000	36.813695
1770.000000	35.904507
1760.000000	35.210612
1750.000000	34.558430
1740.000000	35.041553
1730.000000	36.253297
1720.000000	37.279600
1710.000000	37.709844
1700.000000	39.321284
1690.000000	41.855707
1680.000000	44.046150
1670.000000	44.872373
1660.000000	45.026403
1650.000000	44.591874
1640.000000	43.891060
1630.000000	43.068166
1620.000000	42.213719
1610.000000	41.224964
1600.000000	40.370409
1590.000000	39.678358
1580.000000	39.131936
1570.000000	38.812137
1560.000000	38.109091
1550.000000	36.938460
1540.000000	35.852064
1530.000000	35.163221
1520.000000	34.877016
1510.000000	34.844451
1500.000000	35.258327
1490.000000	35.973975
1480.000000	36.685510
1470.000000	37.447272
1460.000000	38.382657
1450.000000	39.818391
1440.000000	41.653261
1430.000000	44.124438
1420.000000	46.960474
1410.000000	49.912812
1400.000000	52.171212
1390.000000	53.551558
1380.000000	54.503536
1370.000000	55.426153
1360.000000	56.407351
1350.000000	57.383779
1340.000000	58.388494
1330.000000	59.097738
1320.000000	59.163136
1310.000000	59.023553
1300.000000	58.791279
1290.000000	58.607808
1280.000000	58.803736
1270.000000	58.907720
1260.000000	58.923833
1250.000000	58.692182
1240.000000	58.291591
1230.000000	57.783226
1220.000000	57.199045
1210.000000	56.702251
1200.000000	56.601594
1190.000000	57.244473
1180.000000	58.193417
1170.000000	59.381971
1160.000000	60.213206
1150.000000	60.891429
1140.000000	61.358053
1130.000000	61.536310
1120.000000	61.709173
1110.000000	61.759199
1100.000000	61.785292
1090.000000	61.619478
1080.000000	61.571894
1070.000000	61.446066
1060.000000	61.300165
1050.000000	61.298071
1040.000000	61.218443
1030.000000	61.148505
1020.000000	61.132152
1010.000000	61.386458
1000.000000	61.478154
990.000000	61.616981
980.000000	61.797876
970.000000	61.904485
960.000000	62.045584
950.000000	62.075001
940.000000	62.041246
930.000000	62.110554
920.000000	62.120788
910.000000	62.386079
900.000000	62.589324
890.000000	62.399505
880.000000	62.523608
870.000000	62.780236
860.000000	62.460496
850.000000	62.679479
840.000000	62.043167
830.000000	61.980240
820.000000	62.276055
810.000000	62.071395
800.000000	61.979774
790.000000	61.800224
780.000000	61.861389
770.000000	61.687392
760.000000	61.556347
750.000000	61.311227
740.000000	61.315006
730.000000	60.976650
720.000000	61.059100
710.000000	60.647686
700.000000	60.412323
690.000000	60.098622
680.000000	59.733210
670.000000	59.410663
660.000000	58.899117
650.000000	58.526246
640.000000	58.018336
630.000000	57.359245
620.000000	56.842298
610.000000	56.201462
600.000000	55.589442
590.000000	54.908560
580.000000	54.232282
570.000000	53.390051
560.000000	52.599518
550.000000	51.774389
540.000000	50.852919
530.000000	49.877392
520.000000	48.857039
510.000000	47.698184
500.000000	46.368610
490.000000	44.816094
480.000000	43.130576
470.000000	41.185193
460.000000	39.040486
450.000000	36.641984
440.000000	33.810160
430.000000	31.027118
420.000000	28.143595
410.000000	25.898882
400.000000	24.253742
390.000000	22.356713
380.000000	20.003414
370.000000	17.659146
360.000000	15.248590
350.000000	13.630022
340.000000	11.634408
330.000000	9.734297
320.000000	8.210070
310.000000	6.999952
300.000000	5.652074
290.000000	4.913131
280.000000	5.190930
270.000000	5.455172
260.000000	5.813520
250.000000	6.093507
