PE UV       SUBTECH     SPECTRUM    ASCII       PEDS        4.00        
   -1
18-5S-XXX-NR008-C001.Sample.asc
24/01/19
18:37:39.00
24/01/19
18:37:39.00
Administrator

250.000000
1
Lambda 750
750N8071901
PerkinElmer UV WinLab 6.0.4.0738 / 1.61.00 Lambda 900

0
0
3350/servo 860.8/2
0
0
UV/VIS
1
1
1
CommonBeamDepol,150mm sphere / downward view
0
0
0
0
Program
Program
3350/servo 860.8/2
3350/0.2 860.8/0.2
3350/0.2 860.8/0.2
0
1
 
 
 
0
 
860.8
319.2
860.8
Front
100
on
 
 
0
0
0
 
0
 
 
 
0
 
 
0
0
0
0
0
 
 
 
 
0
0


0
0
#HDR
-1
-1
#GR
nm
%R
1.0
0.0
2500.000000
-10.000000
226
8
66.378941
7.471962
#DATA
2500.000000	16.239846
2490.000000	16.960141
2480.000000	20.167066
2470.000000	18.656010
2460.000000	21.547454
2450.000000	20.896049
2440.000000	23.712688
2430.000000	22.585031
2420.000000	21.865718
2410.000000	23.830785
2400.000000	24.450897
2390.000000	22.615335
2380.000000	22.397360
2370.000000	23.188414
2360.000000	22.312195
2350.000000	23.625449
2340.000000	23.647641
2330.000000	22.713306
2320.000000	21.446862
2310.000000	21.056946
2300.000000	20.517866
2290.000000	21.347562
2280.000000	22.262724
2270.000000	24.136669
2260.000000	27.340125
2250.000000	28.838620
2240.000000	28.983979
2230.000000	28.230506
2220.000000	27.919085
2210.000000	26.847176
2200.000000	25.913826
2190.000000	25.412674
2180.000000	27.338490
2170.000000	28.171426
2160.000000	30.155701
2150.000000	30.957251
2140.000000	32.894794
2130.000000	32.522442
2120.000000	33.354908
2110.000000	32.628745
2100.000000	33.007539
2090.000000	31.946579
2080.000000	30.329499
2070.000000	28.305261
2060.000000	27.528479
2050.000000	28.191383
2040.000000	29.429844
2030.000000	29.898008
2020.000000	29.044997
2010.000000	27.851124
2000.000000	26.574234
1990.000000	24.938402
1980.000000	23.807337
1970.000000	22.660154
1960.000000	22.038778
1950.000000	22.986427
1940.000000	25.074470
1930.000000	29.408431
1920.000000	35.132190
1910.000000	41.136171
1900.000000	46.419159
1890.000000	49.817741
1880.000000	51.296605
1870.000000	52.275219
1860.000000	52.020946
1850.000000	51.934294
1840.000000	51.481316
1830.000000	51.042042
1820.000000	50.729067
1810.000000	50.311659
1800.000000	49.938021
1790.000000	49.369967
1780.000000	48.794467
1770.000000	48.027307
1760.000000	47.536884
1750.000000	46.906274
1740.000000	47.289554
1730.000000	48.542092
1720.000000	49.261865
1710.000000	49.733202
1700.000000	51.016615
1690.000000	52.902005
1680.000000	54.506328
1670.000000	55.119262
1660.000000	55.130691
1650.000000	54.928327
1640.000000	54.476563
1630.000000	53.801084
1620.000000	53.220656
1610.000000	52.566673
1600.000000	51.943071
1590.000000	51.344355
1580.000000	51.010277
1570.000000	50.736047
1560.000000	50.256162
1550.000000	49.262943
1540.000000	48.407638
1530.000000	47.842415
1520.000000	47.465025
1510.000000	47.405632
1500.000000	47.838748
1490.000000	48.398960
1480.000000	48.934701
1470.000000	49.602059
1460.000000	50.324745
1450.000000	51.437248
1440.000000	52.794024
1430.000000	54.505922
1420.000000	56.477931
1410.000000	58.482897
1400.000000	60.021742
1390.000000	60.977348
1380.000000	61.408558
1370.000000	61.966159
1360.000000	62.691514
1350.000000	63.253479
1340.000000	63.767985
1330.000000	63.958065
1320.000000	63.819481
1310.000000	63.585392
1300.000000	63.381297
1290.000000	63.446872
1280.000000	63.575700
1270.000000	63.748494
1260.000000	63.694837
1250.000000	63.603822
1240.000000	63.415958
1230.000000	63.141479
1220.000000	62.750974
1210.000000	62.552828
1200.000000	62.458905
1190.000000	62.810594
1180.000000	63.375465
1170.000000	63.947078
1160.000000	64.467503
1150.000000	64.743442
1140.000000	65.026616
1130.000000	65.177356
1120.000000	65.223256
1110.000000	65.351908
1100.000000	65.378718
1090.000000	65.336998
1080.000000	65.258968
1070.000000	65.188984
1060.000000	65.174306
1050.000000	65.212445
1040.000000	65.225372
1030.000000	65.137702
1020.000000	65.161747
1010.000000	65.330059
1000.000000	65.513075
990.000000	65.541566
980.000000	65.721942
970.000000	65.731767
960.000000	65.886398
950.000000	65.938139
940.000000	65.921767
930.000000	65.915230
920.000000	65.963600
910.000000	66.124650
900.000000	66.150909
890.000000	66.299474
880.000000	66.378941
870.000000	66.358379
860.000000	66.378929
850.000000	66.187806
840.000000	65.588689
830.000000	65.898975
820.000000	65.853243
810.000000	65.702702
800.000000	65.841098
790.000000	65.683687
780.000000	65.794232
770.000000	65.851779
760.000000	65.730426
750.000000	65.815347
740.000000	65.885669
730.000000	65.840605
720.000000	66.012467
710.000000	66.202744
700.000000	66.131653
690.000000	65.996742
680.000000	66.126309
670.000000	66.168183
660.000000	66.027407
650.000000	66.068764
640.000000	65.935289
630.000000	66.024732
620.000000	65.866780
610.000000	65.932856
600.000000	65.764620
590.000000	65.609601
580.000000	65.592839
570.000000	65.308893
560.000000	65.157921
550.000000	64.844828
540.000000	64.656802
530.000000	64.293288
520.000000	63.991547
510.000000	63.561632
500.000000	63.165408
490.000000	62.671107
480.000000	62.122970
470.000000	61.377925
460.000000	60.593674
450.000000	59.599314
440.000000	58.034751
430.000000	56.423756
420.000000	54.297156
410.000000	51.737544
400.000000	48.472304
390.000000	44.818701
380.000000	41.023830
370.000000	36.454316
360.000000	31.587164
350.000000	27.580535
340.000000	23.026304
330.000000	19.164843
320.000000	14.400232
310.000000	11.432540
300.000000	10.613806
290.000000	8.371642
280.000000	7.471962
270.000000	8.059440
260.000000	9.002984
250.000000	8.604032
