PE UV       SUBTECH     SPECTRUM    ASCII       PEDS        4.00        
   -1
TTgVeauAl 22.Sample.asc
18/03/08
10:29:04.00
18/03/08
10:29:04.00
Administrator

200.000000
1
Lambda 750
750N8071901
PerkinElmer UV WinLab 6.0.4.0738 / 1.61.00 Lambda 900

0
0
3350/servo 860.8/2
0
0
UV/VIS
1
1
1
CommonBeamDepol,150mm sphere / downward view
0
0
0
0
Program
Program
3350/servo 860.8/2
3350/0.2 860.8/0.2
3350/0.2 860.8/0.2
0
1
 
 
 
0
 
860.8
319.2
860.8
Front
100
on
 
 
0
0
0
 
0
 
 
 
0
 
 
0
0
0
0
0
 
 
 
 
0
0


0
0
#HDR
-1
-1
#GR
nm
%T
1.0
0.0
2350.000000
-1.000000
2151
8
35.105279
0.098889
#DATA
2350.000000	7.245080
2349.000000	7.108984
2348.000000	6.999476
2347.000000	7.910937
2346.000000	7.167557
2345.000000	7.491246
2344.000000	6.938218
2343.000000	7.066411
2342.000000	6.677083
2341.000000	7.403097
2340.000000	7.477972
2339.000000	7.934420
2338.000000	7.543558
2337.000000	7.385475
2336.000000	7.436232
2335.000000	7.698446
2334.000000	7.783714
2333.000000	7.952263
2332.000000	7.823226
2331.000000	7.919983
2330.000000	7.616239
2329.000000	7.962051
2328.000000	7.919953
2327.000000	7.973938
2326.000000	7.836883
2325.000000	7.519268
2324.000000	7.837303
2323.000000	7.886625
2322.000000	7.875401
2321.000000	7.600135
2320.000000	7.554775
2319.000000	7.671453
2318.000000	7.514588
2317.000000	7.609183
2316.000000	7.330172
2315.000000	7.534286
2314.000000	7.255878
2313.000000	7.403857
2312.000000	7.333092
2311.000000	7.582729
2310.000000	7.307235
2309.000000	7.293240
2308.000000	7.424697
2307.000000	7.160491
2306.000000	6.905617
2305.000000	6.907580
2304.000000	6.902850
2303.000000	7.148334
2302.000000	6.994766
2301.000000	6.989901
2300.000000	6.914761
2299.000000	6.567663
2298.000000	6.581642
2297.000000	6.609901
2296.000000	6.583740
2295.000000	6.429215
2294.000000	6.668147
2293.000000	6.488710
2292.000000	6.521770
2291.000000	6.568424
2290.000000	6.466836
2289.000000	6.430526
2288.000000	6.551151
2287.000000	6.565089
2286.000000	6.336609
2285.000000	6.259232
2284.000000	6.334525
2283.000000	6.459739
2282.000000	6.266499
2281.000000	6.117584
2280.000000	6.187001
2279.000000	6.275676
2278.000000	6.240344
2277.000000	6.177537
2276.000000	6.242065
2275.000000	6.278700
2274.000000	6.342615
2273.000000	6.434627
2272.000000	6.471901
2271.000000	6.433542
2270.000000	6.604596
2269.000000	6.537743
2268.000000	6.442063
2267.000000	6.476562
2266.000000	6.505446
2265.000000	6.591233
2264.000000	6.878038
2263.000000	6.844535
2262.000000	6.811081
2261.000000	6.928952
2260.000000	7.175532
2259.000000	7.318586
2258.000000	7.337004
2257.000000	7.284148
2256.000000	7.306089
2255.000000	7.472767
2254.000000	7.565283
2253.000000	7.626902
2252.000000	7.728048
2251.000000	7.870927
2250.000000	8.043785
2249.000000	8.325788
2248.000000	8.338455
2247.000000	8.285044
2246.000000	8.386785
2245.000000	8.589855
2244.000000	8.776023
2243.000000	8.803391
2242.000000	8.865102
2241.000000	8.929661
2240.000000	9.031909
2239.000000	9.120036
2238.000000	9.264427
2237.000000	9.459259
2236.000000	9.473357
2235.000000	9.499288
2234.000000	9.624788
2233.000000	9.583544
2232.000000	9.574909
2231.000000	9.599362
2230.000000	9.585725
2229.000000	9.681177
2228.000000	9.681500
2227.000000	9.576263
2226.000000	9.637227
2225.000000	9.747464
2224.000000	9.743534
2223.000000	9.602232
2222.000000	9.520723
2221.000000	9.577533
2220.000000	9.535872
2219.000000	9.480374
2218.000000	9.482054
2217.000000	9.505754
2216.000000	9.473025
2215.000000	9.452590
2214.000000	9.532381
2213.000000	9.509377
2212.000000	9.360774
2211.000000	9.266091
2210.000000	9.299040
2209.000000	9.145710
2208.000000	9.095009
2207.000000	9.123349
2206.000000	9.172775
2205.000000	9.127619
2204.000000	9.004409
2203.000000	8.893614
2202.000000	8.909874
2201.000000	8.920865
2200.000000	8.834681
2199.000000	8.737030
2198.000000	8.800958
2197.000000	8.679877
2196.000000	8.544875
2195.000000	8.405827
2194.000000	8.449776
2193.000000	8.483588
2192.000000	8.514212
2191.000000	8.264936
2190.000000	8.348136
2189.000000	8.387665
2188.000000	8.320884
2187.000000	8.244883
2186.000000	8.187845
2185.000000	8.158761
2184.000000	8.159071
2183.000000	8.139007
2182.000000	8.185986
2181.000000	8.070541
2180.000000	8.206182
2179.000000	8.006783
2178.000000	7.996050
2177.000000	7.939617
2176.000000	7.979362
2175.000000	8.067384
2174.000000	8.100416
2173.000000	8.013628
2172.000000	8.093317
2171.000000	8.041129
2170.000000	8.145305
2169.000000	8.205961
2168.000000	8.270628
2167.000000	8.201331
2166.000000	8.303015
2165.000000	8.375922
2164.000000	8.458548
2163.000000	8.558071
2162.000000	8.545672
2161.000000	8.434985
2160.000000	8.628621
2159.000000	8.826195
2158.000000	8.925261
2157.000000	8.847724
2156.000000	8.920705
2155.000000	8.878779
2154.000000	9.196995
2153.000000	9.227572
2152.000000	9.257008
2151.000000	9.230723
2150.000000	9.383490
2149.000000	9.334405
2148.000000	9.629961
2147.000000	9.400327
2146.000000	9.554159
2145.000000	9.828353
2144.000000	9.886211
2143.000000	9.855847
2142.000000	10.034583
2141.000000	10.290476
2140.000000	10.253485
2139.000000	10.327463
2138.000000	10.373515
2137.000000	10.256609
2136.000000	10.479195
2135.000000	10.429116
2134.000000	10.643577
2133.000000	10.401495
2132.000000	10.762977
2131.000000	10.800668
2130.000000	10.761198
2129.000000	10.814661
2128.000000	10.716559
2127.000000	10.755128
2126.000000	10.938438
2125.000000	10.841142
2124.000000	11.000596
2123.000000	10.953286
2122.000000	10.991759
2121.000000	10.905914
2120.000000	10.960708
2119.000000	10.956840
2118.000000	11.053588
2117.000000	10.998871
2116.000000	11.184876
2115.000000	11.176383
2114.000000	11.166966
2113.000000	11.194286
2112.000000	11.180471
2111.000000	11.134860
2110.000000	11.209763
2109.000000	11.334700
2108.000000	11.217386
2107.000000	11.201467
2106.000000	11.169314
2105.000000	11.305067
2104.000000	11.357959
2103.000000	11.356671
2102.000000	11.295429
2101.000000	11.320022
2100.000000	11.402362
2099.000000	11.397172
2098.000000	11.370372
2097.000000	11.357577
2096.000000	11.228180
2095.000000	11.385441
2094.000000	11.428719
2093.000000	11.293437
2092.000000	11.379775
2091.000000	11.320140
2090.000000	11.295859
2089.000000	11.373433
2088.000000	11.332943
2087.000000	11.317572
2086.000000	11.305760
2085.000000	11.289822
2084.000000	11.245510
2083.000000	11.186155
2082.000000	11.073165
2081.000000	11.118272
2080.000000	11.021666
2079.000000	11.004280
2078.000000	10.962936
2077.000000	10.994959
2076.000000	10.926944
2075.000000	10.849276
2074.000000	10.705960
2073.000000	10.642550
2072.000000	10.561618
2071.000000	10.452244
2070.000000	10.436095
2069.000000	10.263731
2068.000000	10.198704
2067.000000	10.136764
2066.000000	9.973163
2065.000000	9.869306
2064.000000	9.868577
2063.000000	9.838765
2062.000000	9.733043
2061.000000	9.614876
2060.000000	9.529075
2059.000000	9.364310
2058.000000	9.223177
2057.000000	9.149984
2056.000000	9.093026
2055.000000	9.029467
2054.000000	8.924672
2053.000000	8.825670
2052.000000	8.767297
2051.000000	8.628657
2050.000000	8.564168
2049.000000	8.530011
2048.000000	8.462025
2047.000000	8.469417
2046.000000	8.447000
2045.000000	8.411382
2044.000000	8.399557
2043.000000	8.421974
2042.000000	8.443705
2041.000000	8.406508
2040.000000	8.387564
2039.000000	8.357928
2038.000000	8.380571
2037.000000	8.455490
2036.000000	8.542935
2035.000000	8.605242
2034.000000	8.667166
2033.000000	8.730169
2032.000000	8.806032
2031.000000	8.876138
2030.000000	8.933166
2029.000000	8.992522
2028.000000	9.103013
2027.000000	9.169507
2026.000000	9.244848
2025.000000	9.350381
2024.000000	9.424405
2023.000000	9.456208
2022.000000	9.463575
2021.000000	9.451892
2020.000000	9.516480
2019.000000	9.563401
2018.000000	9.567829
2017.000000	9.616757
2016.000000	9.658655
2015.000000	9.657884
2014.000000	9.625353
2013.000000	9.621130
2012.000000	9.618000
2011.000000	9.622271
2010.000000	9.569513
2009.000000	9.508139
2008.000000	9.475088
2007.000000	9.444060
2006.000000	9.374207
2005.000000	9.326564
2004.000000	9.269029
2003.000000	9.239718
2002.000000	9.213671
2001.000000	9.132227
2000.000000	9.075547
1999.000000	9.043991
1998.000000	8.944344
1997.000000	8.892264
1996.000000	8.848701
1995.000000	8.784370
1994.000000	8.702041
1993.000000	8.641762
1992.000000	8.622753
1991.000000	8.540013
1990.000000	8.472458
1989.000000	8.397715
1988.000000	8.377401
1987.000000	8.307179
1986.000000	8.216856
1985.000000	8.160256
1984.000000	8.106718
1983.000000	8.035841
1982.000000	7.977993
1981.000000	7.997694
1980.000000	7.917939
1979.000000	7.821977
1978.000000	7.741325
1977.000000	7.710723
1976.000000	7.684901
1975.000000	7.604357
1974.000000	7.502543
1973.000000	7.479372
1972.000000	7.415895
1971.000000	7.401266
1970.000000	7.363667
1969.000000	7.303283
1968.000000	7.237796
1967.000000	7.234909
1966.000000	7.170696
1965.000000	7.118300
1964.000000	7.084847
1963.000000	7.025454
1962.000000	6.953349
1961.000000	6.926624
1960.000000	6.851006
1959.000000	6.827154
1958.000000	6.802189
1957.000000	6.739149
1956.000000	6.709326
1955.000000	6.677033
1954.000000	6.643844
1953.000000	6.647328
1952.000000	6.599810
1951.000000	6.609456
1950.000000	6.569528
1949.000000	6.558403
1948.000000	6.537317
1947.000000	6.468862
1946.000000	6.462363
1945.000000	6.542640
1944.000000	6.523671
1943.000000	6.503771
1942.000000	6.527147
1941.000000	6.534272
1940.000000	6.573866
1939.000000	6.648109
1938.000000	6.668587
1937.000000	6.694099
1936.000000	6.803054
1935.000000	6.854222
1934.000000	6.940706
1933.000000	6.868518
1932.000000	6.935707
1931.000000	7.122572
1930.000000	7.145089
1929.000000	7.250823
1928.000000	7.435715
1927.000000	7.463973
1926.000000	7.585087
1925.000000	7.689101
1924.000000	7.784547
1923.000000	7.964740
1922.000000	8.182060
1921.000000	8.375201
1920.000000	8.460597
1919.000000	8.661385
1918.000000	8.821519
1917.000000	9.049591
1916.000000	9.202269
1915.000000	9.492229
1914.000000	9.693533
1913.000000	9.948677
1912.000000	10.175809
1911.000000	10.392386
1910.000000	10.702077
1909.000000	10.908341
1908.000000	11.137372
1907.000000	11.480601
1906.000000	11.771999
1905.000000	12.084268
1904.000000	12.421712
1903.000000	12.872771
1902.000000	13.063005
1901.000000	13.436990
1900.000000	13.821948
1899.000000	14.144886
1898.000000	14.581361
1897.000000	14.862955
1896.000000	15.209767
1895.000000	15.644498
1894.000000	16.030743
1893.000000	16.437993
1892.000000	16.755733
1891.000000	17.120889
1890.000000	17.477035
1889.000000	17.746408
1888.000000	18.127459
1887.000000	18.432308
1886.000000	18.766546
1885.000000	19.127688
1884.000000	19.392152
1883.000000	19.776321
1882.000000	20.021674
1881.000000	20.343229
1880.000000	20.609959
1879.000000	20.866188
1878.000000	21.109392
1877.000000	21.341478
1876.000000	21.574590
1875.000000	21.796864
1874.000000	22.022575
1873.000000	22.222098
1872.000000	22.379007
1871.000000	22.560976
1870.000000	22.695693
1869.000000	22.882663
1868.000000	23.041210
1867.000000	23.096795
1866.000000	23.163468
1865.000000	23.240988
1864.000000	23.305344
1863.000000	23.428415
1862.000000	23.477185
1861.000000	23.518617
1860.000000	23.579969
1859.000000	23.629335
1858.000000	23.673448
1857.000000	23.721285
1856.000000	23.756018
1855.000000	23.774169
1854.000000	23.791733
1853.000000	23.847245
1852.000000	23.863647
1851.000000	23.871006
1850.000000	23.871322
1849.000000	23.881645
1848.000000	23.882653
1847.000000	23.903527
1846.000000	23.871942
1845.000000	23.857033
1844.000000	23.850362
1843.000000	23.852592
1842.000000	23.814687
1841.000000	23.795226
1840.000000	23.753287
1839.000000	23.739164
1838.000000	23.732242
1837.000000	23.665163
1836.000000	23.633110
1835.000000	23.579585
1834.000000	23.519902
1833.000000	23.463788
1832.000000	23.436132
1831.000000	23.376405
1830.000000	23.354926
1829.000000	23.327780
1828.000000	23.273005
1827.000000	23.250062
1826.000000	23.221924
1825.000000	23.190078
1824.000000	23.159952
1823.000000	23.120212
1822.000000	23.072127
1821.000000	23.047267
1820.000000	23.011744
1819.000000	22.963700
1818.000000	22.914167
1817.000000	22.891467
1816.000000	22.874855
1815.000000	22.844866
1814.000000	22.809883
1813.000000	22.785248
1812.000000	22.740544
1811.000000	22.701301
1810.000000	22.681488
1809.000000	22.651351
1808.000000	22.614514
1807.000000	22.575863
1806.000000	22.534233
1805.000000	22.503226
1804.000000	22.480091
1803.000000	22.442879
1802.000000	22.409290
1801.000000	22.399418
1800.000000	22.378281
1799.000000	22.359749
1798.000000	22.347277
1797.000000	22.314833
1796.000000	22.271677
1795.000000	22.253178
1794.000000	22.261525
1793.000000	22.223194
1792.000000	22.204093
1791.000000	22.192114
1790.000000	22.149065
1789.000000	22.119765
1788.000000	22.115118
1787.000000	22.086133
1786.000000	22.074238
1785.000000	22.036780
1784.000000	22.012549
1783.000000	21.996635
1782.000000	21.979740
1781.000000	21.934884
1780.000000	21.898249
1779.000000	21.852185
1778.000000	21.810850
1777.000000	21.786787
1776.000000	21.740170
1775.000000	21.706183
1774.000000	21.645128
1773.000000	21.593399
1772.000000	21.544448
1771.000000	21.478421
1770.000000	21.425520
1769.000000	21.390959
1768.000000	21.325496
1767.000000	21.274142
1766.000000	21.232545
1765.000000	21.174188
1764.000000	21.150175
1763.000000	21.088698
1762.000000	21.031610
1761.000000	20.981982
1760.000000	20.928697
1759.000000	20.884333
1758.000000	20.845108
1757.000000	20.794870
1756.000000	20.780363
1755.000000	20.745290
1754.000000	20.678109
1753.000000	20.619771
1752.000000	20.600420
1751.000000	20.559492
1750.000000	20.486797
1749.000000	20.467547
1748.000000	20.397188
1747.000000	20.338037
1746.000000	20.286628
1745.000000	20.233404
1744.000000	20.164893
1743.000000	20.126584
1742.000000	20.069757
1741.000000	20.025839
1740.000000	19.953469
1739.000000	19.917729
1738.000000	19.892697
1737.000000	19.866618
1736.000000	19.845947
1735.000000	19.816370
1734.000000	19.815526
1733.000000	19.804025
1732.000000	19.784335
1731.000000	19.764596
1730.000000	19.769143
1729.000000	19.798335
1728.000000	19.810240
1727.000000	19.893908
1726.000000	19.940535
1725.000000	19.988201
1724.000000	20.047877
1723.000000	20.130898
1722.000000	20.175805
1721.000000	20.281405
1720.000000	20.367649
1719.000000	20.428632
1718.000000	20.508779
1717.000000	20.572596
1716.000000	20.669419
1715.000000	20.738952
1714.000000	20.822995
1713.000000	20.888187
1712.000000	20.987373
1711.000000	21.021434
1710.000000	21.071018
1709.000000	21.132373
1708.000000	21.168269
1707.000000	21.219226
1706.000000	21.254456
1705.000000	21.275222
1704.000000	21.298630
1703.000000	21.334751
1702.000000	21.344402
1701.000000	21.351747
1700.000000	21.368627
1699.000000	21.363302
1698.000000	21.405719
1697.000000	21.434301
1696.000000	21.469177
1695.000000	21.488770
1694.000000	21.522440
1693.000000	21.559444
1692.000000	21.596381
1691.000000	21.660996
1690.000000	21.719870
1689.000000	21.822229
1688.000000	21.894730
1687.000000	21.981832
1686.000000	22.080458
1685.000000	22.196188
1684.000000	22.331092
1683.000000	22.461791
1682.000000	22.616091
1681.000000	22.754703
1680.000000	22.897172
1679.000000	23.038950
1678.000000	23.191543
1677.000000	23.357492
1676.000000	23.520692
1675.000000	23.684360
1674.000000	23.836598
1673.000000	23.975241
1672.000000	24.130803
1671.000000	24.282628
1670.000000	24.442660
1669.000000	24.595311
1668.000000	24.699723
1667.000000	24.826377
1666.000000	24.925356
1665.000000	25.012703
1664.000000	25.107852
1663.000000	25.168892
1662.000000	25.251700
1661.000000	25.323417
1660.000000	25.387055
1659.000000	25.457957
1658.000000	25.482617
1657.000000	25.535167
1656.000000	25.576908
1655.000000	25.605356
1654.000000	25.621317
1653.000000	25.648792
1652.000000	25.665859
1651.000000	25.650883
1650.000000	25.661562
1649.000000	25.669254
1648.000000	25.642792
1647.000000	25.638915
1646.000000	25.625215
1645.000000	25.608922
1644.000000	25.584672
1643.000000	25.566114
1642.000000	25.552407
1641.000000	25.508348
1640.000000	25.485554
1639.000000	25.474918
1638.000000	25.460138
1637.000000	25.431154
1636.000000	25.388678
1635.000000	25.353122
1634.000000	25.312723
1633.000000	25.262422
1632.000000	25.231253
1631.000000	25.192148
1630.000000	25.152184
1629.000000	25.121314
1628.000000	25.068671
1627.000000	25.022706
1626.000000	24.975010
1625.000000	24.926322
1624.000000	24.889554
1623.000000	24.851616
1622.000000	24.796716
1621.000000	24.718818
1620.000000	24.676039
1619.000000	24.643909
1618.000000	24.583954
1617.000000	24.520314
1616.000000	24.480787
1615.000000	24.430697
1614.000000	24.363710
1613.000000	24.303777
1612.000000	24.247171
1611.000000	24.194351
1610.000000	24.141343
1609.000000	24.084281
1608.000000	24.020175
1607.000000	23.960782
1606.000000	23.901389
1605.000000	23.845623
1604.000000	23.789454
1603.000000	23.724471
1602.000000	23.660880
1601.000000	23.601696
1600.000000	23.550999
1599.000000	23.498123
1598.000000	23.437400
1597.000000	23.377209
1596.000000	23.318234
1595.000000	23.268656
1594.000000	23.210410
1593.000000	23.159272
1592.000000	23.114269
1591.000000	23.062011
1590.000000	23.016289
1589.000000	22.964135
1588.000000	22.906650
1587.000000	22.860992
1586.000000	22.823808
1585.000000	22.785539
1584.000000	22.745684
1583.000000	22.699023
1582.000000	22.644605
1581.000000	22.601176
1580.000000	22.561729
1579.000000	22.516087
1578.000000	22.484826
1577.000000	22.440971
1576.000000	22.384729
1575.000000	22.337601
1574.000000	22.292624
1573.000000	22.250525
1572.000000	22.218126
1571.000000	22.174088
1570.000000	22.122170
1569.000000	22.079632
1568.000000	22.050009
1567.000000	22.019821
1566.000000	21.983944
1565.000000	21.943088
1564.000000	21.919938
1563.000000	21.913007
1562.000000	21.880203
1561.000000	21.849374
1560.000000	21.829241
1559.000000	21.804894
1558.000000	21.778073
1557.000000	21.759694
1556.000000	21.741656
1555.000000	21.716737
1554.000000	21.676005
1553.000000	21.649642
1552.000000	21.626954
1551.000000	21.612288
1550.000000	21.582309
1549.000000	21.539460
1548.000000	21.497544
1547.000000	21.446025
1546.000000	21.387744
1545.000000	21.335515
1544.000000	21.265237
1543.000000	21.192208
1542.000000	21.127200
1541.000000	21.066334
1540.000000	20.996261
1539.000000	20.914659
1538.000000	20.827452
1537.000000	20.748384
1536.000000	20.690632
1535.000000	20.658068
1534.000000	20.620144
1533.000000	20.570854
1532.000000	20.496129
1531.000000	20.408085
1530.000000	20.303360
1529.000000	20.207446
1528.000000	20.158656
1527.000000	20.110633
1526.000000	20.033697
1525.000000	19.981599
1524.000000	19.934332
1523.000000	19.876782
1522.000000	19.825810
1521.000000	19.778735
1520.000000	19.734639
1519.000000	19.699101
1518.000000	19.671875
1517.000000	19.641171
1516.000000	19.588746
1515.000000	19.545561
1514.000000	19.529460
1513.000000	19.523847
1512.000000	19.481924
1511.000000	19.448374
1510.000000	19.405562
1509.000000	19.369383
1508.000000	19.354911
1507.000000	19.371027
1506.000000	19.368167
1505.000000	19.339121
1504.000000	19.320747
1503.000000	19.302297
1502.000000	19.287461
1501.000000	19.274838
1500.000000	19.271833
1499.000000	19.251757
1498.000000	19.260767
1497.000000	19.241823
1496.000000	19.281659
1495.000000	19.271587
1494.000000	19.291731
1493.000000	19.307432
1492.000000	19.303999
1491.000000	19.348241
1490.000000	19.369314
1489.000000	19.412315
1488.000000	19.427088
1487.000000	19.456318
1486.000000	19.498872
1485.000000	19.537601
1484.000000	19.572023
1483.000000	19.632757
1482.000000	19.652959
1481.000000	19.704615
1480.000000	19.765885
1479.000000	19.806234
1478.000000	19.839923
1477.000000	19.887199
1476.000000	19.924770
1475.000000	19.968515
1474.000000	20.003898
1473.000000	20.039425
1472.000000	20.073837
1471.000000	20.107982
1470.000000	20.145800
1469.000000	20.189039
1468.000000	20.226728
1467.000000	20.261410
1466.000000	20.340003
1465.000000	20.384933
1464.000000	20.402243
1463.000000	20.430458
1462.000000	20.477169
1461.000000	20.541926
1460.000000	20.591795
1459.000000	20.627408
1458.000000	20.646828
1457.000000	20.686649
1456.000000	20.776184
1455.000000	20.828500
1454.000000	20.867940
1453.000000	20.893026
1452.000000	20.934094
1451.000000	21.031724
1450.000000	21.103134
1449.000000	21.149500
1448.000000	21.207054
1447.000000	21.261982
1446.000000	21.326222
1445.000000	21.421851
1444.000000	21.496897
1443.000000	21.564713
1442.000000	21.622063
1441.000000	21.684317
1440.000000	21.767864
1439.000000	21.860261
1438.000000	21.936009
1437.000000	22.012244
1436.000000	22.112222
1435.000000	22.245273
1434.000000	22.345996
1433.000000	22.452968
1432.000000	22.542333
1431.000000	22.644806
1430.000000	22.751971
1429.000000	22.871606
1428.000000	22.986493
1427.000000	23.116559
1426.000000	23.245627
1425.000000	23.381691
1424.000000	23.515068
1423.000000	23.639369
1422.000000	23.782072
1421.000000	23.941213
1420.000000	24.107733
1419.000000	24.276480
1418.000000	24.422656
1417.000000	24.605877
1416.000000	24.787675
1415.000000	24.961878
1414.000000	25.136528
1413.000000	25.311988
1412.000000	25.501220
1411.000000	25.692017
1410.000000	25.870281
1409.000000	26.055594
1408.000000	26.246614
1407.000000	26.440280
1406.000000	26.607057
1405.000000	26.787801
1404.000000	26.975284
1403.000000	27.166570
1402.000000	27.342260
1401.000000	27.511827
1400.000000	27.694448
1399.000000	27.852378
1398.000000	28.000526
1397.000000	28.172383
1396.000000	28.340470
1395.000000	28.483320
1394.000000	28.626974
1393.000000	28.774777
1392.000000	28.905618
1391.000000	29.037707
1390.000000	29.172446
1389.000000	29.301359
1388.000000	29.423158
1387.000000	29.536808
1386.000000	29.639393
1385.000000	29.743811
1384.000000	29.862157
1383.000000	29.983787
1382.000000	30.084185
1381.000000	30.172854
1380.000000	30.260639
1379.000000	30.324438
1378.000000	30.394917
1377.000000	30.471449
1376.000000	30.515309
1375.000000	30.560380
1374.000000	30.618731
1373.000000	30.688211
1372.000000	30.745462
1371.000000	30.783770
1370.000000	30.826027
1369.000000	30.867698
1368.000000	30.912909
1367.000000	30.956811
1366.000000	31.007393
1365.000000	31.058799
1364.000000	31.110031
1363.000000	31.158508
1362.000000	31.201091
1361.000000	31.253924
1360.000000	31.312273
1359.000000	31.365819
1358.000000	31.413508
1357.000000	31.478850
1356.000000	31.541039
1355.000000	31.588773
1354.000000	31.643625
1353.000000	31.683501
1352.000000	31.735667
1351.000000	31.801576
1350.000000	31.867713
1349.000000	31.906255
1348.000000	31.948127
1347.000000	32.010250
1346.000000	32.077716
1345.000000	32.128313
1344.000000	32.159455
1343.000000	32.200989
1342.000000	32.244351
1341.000000	32.310903
1340.000000	32.372597
1339.000000	32.417264
1338.000000	32.456782
1337.000000	32.480650
1336.000000	32.529725
1335.000000	32.574268
1334.000000	32.631695
1333.000000	32.661996
1332.000000	32.688023
1331.000000	32.712235
1330.000000	32.727871
1329.000000	32.779193
1328.000000	32.824029
1327.000000	32.841971
1326.000000	32.855697
1325.000000	32.872217
1324.000000	32.895828
1323.000000	32.916516
1322.000000	32.932800
1321.000000	32.953172
1320.000000	32.974104
1319.000000	33.009981
1318.000000	33.023589
1317.000000	33.002336
1316.000000	33.015028
1315.000000	33.066937
1314.000000	33.102891
1313.000000	33.082143
1312.000000	33.085170
1311.000000	33.084916
1310.000000	33.096122
1309.000000	33.126320
1308.000000	33.141260
1307.000000	33.151494
1306.000000	33.174550
1305.000000	33.179397
1304.000000	33.168786
1303.000000	33.174324
1302.000000	33.175226
1301.000000	33.184037
1300.000000	33.202460
1299.000000	33.228018
1298.000000	33.240103
1297.000000	33.229025
1296.000000	33.222485
1295.000000	33.219342
1294.000000	33.198232
1293.000000	33.196370
1292.000000	33.194557
1291.000000	33.188335
1290.000000	33.183910
1289.000000	33.139027
1288.000000	33.126462
1287.000000	33.129336
1286.000000	33.121395
1285.000000	33.136692
1284.000000	33.119072
1283.000000	33.123567
1282.000000	33.139829
1281.000000	33.136498
1280.000000	33.068345
1279.000000	33.072854
1278.000000	33.073827
1277.000000	33.084472
1276.000000	33.083486
1275.000000	33.080272
1274.000000	33.094082
1273.000000	33.092577
1272.000000	33.083779
1271.000000	33.089032
1270.000000	33.098252
1269.000000	33.094464
1268.000000	33.137574
1267.000000	33.153502
1266.000000	33.152941
1265.000000	33.136913
1264.000000	33.139159
1263.000000	33.138184
1262.000000	33.151747
1261.000000	33.176999
1260.000000	33.207124
1259.000000	33.215951
1258.000000	33.191802
1257.000000	33.171160
1256.000000	33.187678
1255.000000	33.231635
1254.000000	33.228276
1253.000000	33.231560
1252.000000	33.231695
1251.000000	33.214671
1250.000000	33.204602
1249.000000	33.211743
1248.000000	33.203514
1247.000000	33.203868
1246.000000	33.198569
1245.000000	33.188624
1244.000000	33.167270
1243.000000	33.119050
1242.000000	33.110749
1241.000000	33.088516
1240.000000	33.087263
1239.000000	33.057698
1238.000000	33.004655
1237.000000	32.976234
1236.000000	32.986347
1235.000000	32.942315
1234.000000	32.906001
1233.000000	32.880481
1232.000000	32.882175
1231.000000	32.865468
1230.000000	32.807982
1229.000000	32.790489
1228.000000	32.774651
1227.000000	32.758847
1226.000000	32.760587
1225.000000	32.737980
1224.000000	32.690397
1223.000000	32.670525
1222.000000	32.655119
1221.000000	32.634773
1220.000000	32.624652
1219.000000	32.591431
1218.000000	32.572358
1217.000000	32.564171
1216.000000	32.560118
1215.000000	32.537610
1214.000000	32.494719
1213.000000	32.457527
1212.000000	32.438481
1211.000000	32.417702
1210.000000	32.389203
1209.000000	32.346084
1208.000000	32.320909
1207.000000	32.278890
1206.000000	32.233180
1205.000000	32.196166
1204.000000	32.177190
1203.000000	32.131678
1202.000000	32.098359
1201.000000	32.054572
1200.000000	32.017110
1199.000000	31.969810
1198.000000	31.934512
1197.000000	31.912606
1196.000000	31.899241
1195.000000	31.877144
1194.000000	31.846151
1193.000000	31.808122
1192.000000	31.778769
1191.000000	31.771099
1190.000000	31.727175
1189.000000	31.666576
1188.000000	31.660490
1187.000000	31.655633
1186.000000	31.643102
1185.000000	31.642239
1184.000000	31.647006
1183.000000	31.647017
1182.000000	31.670740
1181.000000	31.705082
1180.000000	31.733844
1179.000000	31.767836
1178.000000	31.796944
1177.000000	31.816629
1176.000000	31.853825
1175.000000	31.905804
1174.000000	31.960605
1173.000000	32.015995
1172.000000	32.076127
1171.000000	32.133344
1170.000000	32.203371
1169.000000	32.263357
1168.000000	32.313886
1167.000000	32.386885
1166.000000	32.462451
1165.000000	32.530204
1164.000000	32.600626
1163.000000	32.667660
1162.000000	32.726971
1161.000000	32.781203
1160.000000	32.847291
1159.000000	32.921872
1158.000000	33.000776
1157.000000	33.076608
1156.000000	33.147800
1155.000000	33.210947
1154.000000	33.258998
1153.000000	33.318119
1152.000000	33.384642
1151.000000	33.433125
1150.000000	33.480026
1149.000000	33.532483
1148.000000	33.576386
1147.000000	33.621332
1146.000000	33.676432
1145.000000	33.728638
1144.000000	33.766927
1143.000000	33.776140
1142.000000	33.799796
1141.000000	33.834880
1140.000000	33.886725
1139.000000	33.937538
1138.000000	33.971992
1137.000000	34.002970
1136.000000	34.043540
1135.000000	34.090173
1134.000000	34.139329
1133.000000	34.169870
1132.000000	34.207494
1131.000000	34.249680
1130.000000	34.269447
1129.000000	34.295136
1128.000000	34.301567
1127.000000	34.309090
1126.000000	34.322048
1125.000000	34.338875
1124.000000	34.365776
1123.000000	34.388841
1122.000000	34.410551
1121.000000	34.428455
1120.000000	34.430490
1119.000000	34.441072
1118.000000	34.457018
1117.000000	34.448442
1116.000000	34.449657
1115.000000	34.454593
1114.000000	34.452371
1113.000000	34.461969
1112.000000	34.466495
1111.000000	34.472679
1110.000000	34.481233
1109.000000	34.468519
1108.000000	34.470932
1107.000000	34.484273
1106.000000	34.485383
1105.000000	34.486928
1104.000000	34.491578
1103.000000	34.469340
1102.000000	34.455065
1101.000000	34.466633
1100.000000	34.471334
1099.000000	34.484313
1098.000000	34.476671
1097.000000	34.490560
1096.000000	34.497542
1095.000000	34.504308
1094.000000	34.470366
1093.000000	34.439824
1092.000000	34.454519
1091.000000	34.472968
1090.000000	34.479301
1089.000000	34.472811
1088.000000	34.497439
1087.000000	34.464482
1086.000000	34.452595
1085.000000	34.451288
1084.000000	34.468295
1083.000000	34.463653
1082.000000	34.466282
1081.000000	34.469363
1080.000000	34.417977
1079.000000	34.412035
1078.000000	34.414150
1077.000000	34.415239
1076.000000	34.417976
1075.000000	34.426960
1074.000000	34.407771
1073.000000	34.385615
1072.000000	34.352366
1071.000000	34.369675
1070.000000	34.369305
1069.000000	34.376361
1068.000000	34.368745
1067.000000	34.371820
1066.000000	34.374553
1065.000000	34.316803
1064.000000	34.317843
1063.000000	34.312994
1062.000000	34.327973
1061.000000	34.331139
1060.000000	34.311182
1059.000000	34.304787
1058.000000	34.265190
1057.000000	34.259641
1056.000000	34.270501
1055.000000	34.263560
1054.000000	34.267135
1053.000000	34.234042
1052.000000	34.216856
1051.000000	34.213772
1050.000000	34.204345
1049.000000	34.233566
1048.000000	34.174519
1047.000000	34.186597
1046.000000	34.193296
1045.000000	34.193903
1044.000000	34.180914
1043.000000	34.158572
1042.000000	34.156479
1041.000000	34.158792
1040.000000	34.162824
1039.000000	34.174064
1038.000000	34.139604
1037.000000	34.126574
1036.000000	34.126176
1035.000000	34.151130
1034.000000	34.125898
1033.000000	34.106004
1032.000000	34.119045
1031.000000	34.130449
1030.000000	34.106101
1029.000000	34.105559
1028.000000	34.118250
1027.000000	34.129757
1026.000000	34.098903
1025.000000	34.100786
1024.000000	34.110484
1023.000000	34.114095
1022.000000	34.086144
1021.000000	34.097181
1020.000000	34.107649
1019.000000	34.092243
1018.000000	34.096971
1017.000000	34.116788
1016.000000	34.113469
1015.000000	34.112364
1014.000000	34.114146
1013.000000	34.123035
1012.000000	34.105928
1011.000000	34.132367
1010.000000	34.125840
1009.000000	34.104846
1008.000000	34.121845
1007.000000	34.152003
1006.000000	34.148108
1005.000000	34.150857
1004.000000	34.144841
1003.000000	34.151099
1002.000000	34.163124
1001.000000	34.171970
1000.000000	34.169972
999.000000	34.165013
998.000000	34.161708
997.000000	34.170282
996.000000	34.192420
995.000000	34.192707
994.000000	34.202262
993.000000	34.209500
992.000000	34.189136
991.000000	34.193298
990.000000	34.200267
989.000000	34.221862
988.000000	34.234011
987.000000	34.229961
986.000000	34.222379
985.000000	34.239029
984.000000	34.246279
983.000000	34.266350
982.000000	34.281801
981.000000	34.280412
980.000000	34.297617
979.000000	34.322687
978.000000	34.344656
977.000000	34.366610
976.000000	34.382463
975.000000	34.388436
974.000000	34.404063
973.000000	34.416083
972.000000	34.430477
971.000000	34.443020
970.000000	34.449601
969.000000	34.464442
968.000000	34.468113
967.000000	34.489121
966.000000	34.500249
965.000000	34.510963
964.000000	34.522648
963.000000	34.535912
962.000000	34.550340
961.000000	34.556130
960.000000	34.569646
959.000000	34.564354
958.000000	34.557834
957.000000	34.572471
956.000000	34.584061
955.000000	34.596547
954.000000	34.607242
953.000000	34.617548
952.000000	34.618559
951.000000	34.629858
950.000000	34.640978
949.000000	34.641778
948.000000	34.655291
947.000000	34.659508
946.000000	34.656443
945.000000	34.659554
944.000000	34.650735
943.000000	34.657086
942.000000	34.682786
941.000000	34.674866
940.000000	34.673729
939.000000	34.683128
938.000000	34.667977
937.000000	34.656579
936.000000	34.664302
935.000000	34.675540
934.000000	34.686226
933.000000	34.687547
932.000000	34.687607
931.000000	34.691010
930.000000	34.676514
929.000000	34.656572
928.000000	34.664359
927.000000	34.676033
926.000000	34.664284
925.000000	34.652773
924.000000	34.663458
923.000000	34.653692
922.000000	34.624072
921.000000	34.627455
920.000000	34.645941
919.000000	34.660047
918.000000	34.663988
917.000000	34.658041
916.000000	34.631423
915.000000	34.633226
914.000000	34.635176
913.000000	34.662118
912.000000	34.664470
911.000000	34.656450
910.000000	34.655199
909.000000	34.660704
908.000000	34.660715
907.000000	34.664045
906.000000	34.640922
905.000000	34.646191
904.000000	34.685387
903.000000	34.708616
902.000000	34.700753
901.000000	34.688654
900.000000	34.679026
899.000000	34.686055
898.000000	34.713471
897.000000	34.749380
896.000000	34.757869
895.000000	34.717079
894.000000	34.744411
893.000000	34.733531
892.000000	34.723059
891.000000	34.728812
890.000000	34.781588
889.000000	34.812624
888.000000	34.860331
887.000000	34.834856
886.000000	34.855018
885.000000	34.824222
884.000000	34.748542
883.000000	34.787916
882.000000	34.848282
881.000000	34.838482
880.000000	34.867441
879.000000	34.905886
878.000000	34.849211
877.000000	34.782214
876.000000	34.772441
875.000000	34.828269
874.000000	34.836799
873.000000	34.831960
872.000000	34.836811
871.000000	34.883309
870.000000	34.819259
869.000000	34.861776
868.000000	34.928649
867.000000	34.898210
866.000000	34.876106
865.000000	34.910176
864.000000	34.841295
863.000000	34.800096
862.000000	34.730273
861.000000	34.794756
860.000000	34.858332
859.000000	35.082312
858.000000	35.105279
857.000000	34.937857
856.000000	34.612920
855.000000	34.558550
854.000000	34.946209
853.000000	34.994210
852.000000	34.811483
851.000000	34.791009
850.000000	34.996803
849.000000	34.642018
848.000000	34.877013
847.000000	34.733745
846.000000	34.741075
845.000000	34.821267
844.000000	34.910809
843.000000	34.913634
842.000000	34.761588
841.000000	34.943586
840.000000	34.809479
839.000000	34.812606
838.000000	34.669012
837.000000	34.759495
836.000000	34.753149
835.000000	35.001574
834.000000	34.829234
833.000000	34.764557
832.000000	34.730146
831.000000	34.845588
830.000000	34.797169
829.000000	34.791109
828.000000	34.811995
827.000000	34.876670
826.000000	34.771647
825.000000	34.719858
824.000000	34.802631
823.000000	34.744270
822.000000	34.829783
821.000000	34.876583
820.000000	34.858810
819.000000	34.775789
818.000000	34.704373
817.000000	34.749090
816.000000	34.741898
815.000000	34.740149
814.000000	34.738696
813.000000	34.725701
812.000000	34.772996
811.000000	34.787306
810.000000	34.695214
809.000000	34.809979
808.000000	34.679780
807.000000	34.810840
806.000000	34.711491
805.000000	34.706996
804.000000	34.733612
803.000000	34.794290
802.000000	34.696247
801.000000	34.745510
800.000000	34.652093
799.000000	34.676110
798.000000	34.686432
797.000000	34.705029
796.000000	34.673216
795.000000	34.747276
794.000000	34.738729
793.000000	34.711156
792.000000	34.703997
791.000000	34.640827
790.000000	34.671861
789.000000	34.782578
788.000000	34.723966
787.000000	34.709626
786.000000	34.710821
785.000000	34.743237
784.000000	34.661010
783.000000	34.652439
782.000000	34.715320
781.000000	34.715012
780.000000	34.666298
779.000000	34.665557
778.000000	34.694308
777.000000	34.719279
776.000000	34.643133
775.000000	34.695642
774.000000	34.635180
773.000000	34.664744
772.000000	34.694781
771.000000	34.681590
770.000000	34.638848
769.000000	34.611377
768.000000	34.613437
767.000000	34.633007
766.000000	34.725604
765.000000	34.673421
764.000000	34.637778
763.000000	34.711797
762.000000	34.686701
761.000000	34.644745
760.000000	34.624062
759.000000	34.614357
758.000000	34.647465
757.000000	34.649764
756.000000	34.615519
755.000000	34.622009
754.000000	34.557959
753.000000	34.595454
752.000000	34.570419
751.000000	34.625894
750.000000	34.627363
749.000000	34.639538
748.000000	34.616806
747.000000	34.586129
746.000000	34.541208
745.000000	34.558159
744.000000	34.611857
743.000000	34.574141
742.000000	34.552358
741.000000	34.602438
740.000000	34.595236
739.000000	34.596636
738.000000	34.561713
737.000000	34.564896
736.000000	34.572182
735.000000	34.584737
734.000000	34.567323
733.000000	34.595854
732.000000	34.614641
731.000000	34.596139
730.000000	34.574325
729.000000	34.548022
728.000000	34.540086
727.000000	34.578489
726.000000	34.590378
725.000000	34.561884
724.000000	34.540010
723.000000	34.559567
722.000000	34.611301
721.000000	34.630436
720.000000	34.584981
719.000000	34.554995
718.000000	34.553752
717.000000	34.537271
716.000000	34.543579
715.000000	34.556697
714.000000	34.587642
713.000000	34.549007
712.000000	34.538964
711.000000	34.574699
710.000000	34.515139
709.000000	34.495661
708.000000	34.515474
707.000000	34.506748
706.000000	34.535980
705.000000	34.543603
704.000000	34.520871
703.000000	34.524458
702.000000	34.507847
701.000000	34.476551
700.000000	34.459361
699.000000	34.479601
698.000000	34.508942
697.000000	34.495891
696.000000	34.470068
695.000000	34.466556
694.000000	34.482050
693.000000	34.470170
692.000000	34.472601
691.000000	34.498134
690.000000	34.480720
689.000000	34.408169
688.000000	34.386867
687.000000	34.394156
686.000000	34.383960
685.000000	34.403646
684.000000	34.371137
683.000000	34.348277
682.000000	34.365607
681.000000	34.379871
680.000000	34.365619
679.000000	34.332880
678.000000	34.385131
677.000000	34.380217
676.000000	34.348438
675.000000	34.335546
674.000000	34.326666
673.000000	34.347792
672.000000	34.335971
671.000000	34.306153
670.000000	34.299649
669.000000	34.293723
668.000000	34.271158
667.000000	34.311436
666.000000	34.298354
665.000000	34.303906
664.000000	34.305612
663.000000	34.299143
662.000000	34.293461
661.000000	34.292192
660.000000	34.262795
659.000000	34.263966
658.000000	34.252923
657.000000	34.249900
656.000000	34.249865
655.000000	34.244752
654.000000	34.222367
653.000000	34.212030
652.000000	34.201059
651.000000	34.221029
650.000000	34.196664
649.000000	34.187495
648.000000	34.185315
647.000000	34.189446
646.000000	34.190510
645.000000	34.192699
644.000000	34.180901
643.000000	34.146423
642.000000	34.146599
641.000000	34.144694
640.000000	34.099457
639.000000	34.161294
638.000000	34.130658
637.000000	34.112388
636.000000	34.106885
635.000000	34.088235
634.000000	34.096278
633.000000	34.101234
632.000000	34.065477
631.000000	34.079789
630.000000	34.083625
629.000000	34.051492
628.000000	34.022118
627.000000	34.007192
626.000000	34.012495
625.000000	33.978254
624.000000	34.025451
623.000000	33.982740
622.000000	33.971536
621.000000	33.946834
620.000000	33.965196
619.000000	33.978123
618.000000	33.953689
617.000000	33.978878
616.000000	33.940899
615.000000	33.938255
614.000000	33.892802
613.000000	33.918839
612.000000	33.894337
611.000000	33.869623
610.000000	33.879846
609.000000	33.839751
608.000000	33.834544
607.000000	33.828866
606.000000	33.809010
605.000000	33.827837
604.000000	33.777455
603.000000	33.780170
602.000000	33.756270
601.000000	33.773663
600.000000	33.768761
599.000000	33.715312
598.000000	33.735207
597.000000	33.743622
596.000000	33.688191
595.000000	33.711501
594.000000	33.690739
593.000000	33.626231
592.000000	33.635612
591.000000	33.597764
590.000000	33.618722
589.000000	33.582770
588.000000	33.612572
587.000000	33.575307
586.000000	33.546056
585.000000	33.516627
584.000000	33.487406
583.000000	33.492632
582.000000	33.496713
581.000000	33.471767
580.000000	33.437448
579.000000	33.433984
578.000000	33.383558
577.000000	33.379211
576.000000	33.376003
575.000000	33.378079
574.000000	33.303748
573.000000	33.323989
572.000000	33.299566
571.000000	33.294112
570.000000	33.254126
569.000000	33.292075
568.000000	33.211223
567.000000	33.202901
566.000000	33.218721
565.000000	33.187242
564.000000	33.179606
563.000000	33.111781
562.000000	33.125662
561.000000	33.107306
560.000000	33.066805
559.000000	33.066399
558.000000	33.036314
557.000000	33.029454
556.000000	33.002726
555.000000	32.970024
554.000000	32.983131
553.000000	32.955653
552.000000	32.906877
551.000000	32.879369
550.000000	32.866647
549.000000	32.817930
548.000000	32.818586
547.000000	32.790027
546.000000	32.745931
545.000000	32.747510
544.000000	32.707100
543.000000	32.682994
542.000000	32.662142
541.000000	32.652023
540.000000	32.594248
539.000000	32.568995
538.000000	32.551505
537.000000	32.537456
536.000000	32.493014
535.000000	32.485545
534.000000	32.418757
533.000000	32.392660
532.000000	32.362819
531.000000	32.355775
530.000000	32.314793
529.000000	32.299517
528.000000	32.249139
527.000000	32.206600
526.000000	32.195786
525.000000	32.172400
524.000000	32.127025
523.000000	32.101482
522.000000	32.056391
521.000000	32.021143
520.000000	31.984901
519.000000	31.934749
518.000000	31.890246
517.000000	31.864409
516.000000	31.829667
515.000000	31.792284
514.000000	31.759592
513.000000	31.706209
512.000000	31.685237
511.000000	31.664723
510.000000	31.599953
509.000000	31.580000
508.000000	31.523742
507.000000	31.486905
506.000000	31.435350
505.000000	31.401543
504.000000	31.367822
503.000000	31.318787
502.000000	31.282470
501.000000	31.231896
500.000000	31.200983
499.000000	31.148205
498.000000	31.083107
497.000000	31.024878
496.000000	30.988803
495.000000	30.926231
494.000000	30.870659
493.000000	30.835398
492.000000	30.771691
491.000000	30.745505
490.000000	30.698025
489.000000	30.641366
488.000000	30.586802
487.000000	30.530741
486.000000	30.478916
485.000000	30.425618
484.000000	30.388752
483.000000	30.336800
482.000000	30.281754
481.000000	30.231039
480.000000	30.168186
479.000000	30.098993
478.000000	30.032646
477.000000	29.969423
476.000000	29.898752
475.000000	29.847134
474.000000	29.790923
473.000000	29.728751
472.000000	29.670102
471.000000	29.590557
470.000000	29.530687
469.000000	29.480640
468.000000	29.412505
467.000000	29.352006
466.000000	29.291871
465.000000	29.229937
464.000000	29.148682
463.000000	29.053686
462.000000	28.967437
461.000000	28.916767
460.000000	28.837390
459.000000	28.735501
458.000000	28.651216
457.000000	28.557931
456.000000	28.464334
455.000000	28.381580
454.000000	28.281724
453.000000	28.158073
452.000000	28.074522
451.000000	27.979825
450.000000	27.850475
449.000000	27.754396
448.000000	27.672800
447.000000	27.571114
446.000000	27.440489
445.000000	27.302992
444.000000	27.205728
443.000000	27.113689
442.000000	26.985741
441.000000	26.850109
440.000000	26.764365
439.000000	26.663200
438.000000	26.552472
437.000000	26.438141
436.000000	26.342241
435.000000	26.230350
434.000000	26.090009
433.000000	25.965291
432.000000	25.851224
431.000000	25.738447
430.000000	25.621824
429.000000	25.518824
428.000000	25.403091
427.000000	25.282553
426.000000	25.146951
425.000000	25.015634
424.000000	24.884409
423.000000	24.718961
422.000000	24.580958
421.000000	24.489312
420.000000	24.361756
419.000000	24.215846
418.000000	24.067911
417.000000	23.911949
416.000000	23.765101
415.000000	23.598051
414.000000	23.463253
413.000000	23.306342
412.000000	23.157682
411.000000	22.995427
410.000000	22.828396
409.000000	22.691896
408.000000	22.501990
407.000000	22.334057
406.000000	22.179585
405.000000	22.031367
404.000000	21.882686
403.000000	21.691202
402.000000	21.523352
401.000000	21.371092
400.000000	21.215265
399.000000	21.018135
398.000000	20.848525
397.000000	20.727226
396.000000	20.580908
395.000000	20.371784
394.000000	20.201808
393.000000	20.011054
392.000000	19.856553
391.000000	19.732246
390.000000	19.548853
389.000000	19.395037
388.000000	19.215793
387.000000	19.020023
386.000000	18.858916
385.000000	18.646139
384.000000	18.499849
383.000000	18.342944
382.000000	18.149743
381.000000	17.956358
380.000000	17.793627
379.000000	17.614069
378.000000	17.452088
377.000000	17.281604
376.000000	17.150728
375.000000	16.835660
374.000000	16.661177
373.000000	16.581879
372.000000	16.430377
371.000000	16.141126
370.000000	15.921623
369.000000	15.806512
368.000000	15.623484
367.000000	15.358624
366.000000	15.146312
365.000000	15.011935
364.000000	14.813854
363.000000	14.657093
362.000000	14.392973
361.000000	14.186598
360.000000	13.970598
359.000000	13.809040
358.000000	13.584134
357.000000	13.395086
356.000000	13.157870
355.000000	12.991703
354.000000	12.815942
353.000000	12.582924
352.000000	12.302230
351.000000	12.206845
350.000000	11.913938
349.000000	11.801148
348.000000	11.548637
347.000000	11.428661
346.000000	11.208575
345.000000	10.971741
344.000000	10.769102
343.000000	10.608522
342.000000	10.326105
341.000000	10.195299
340.000000	9.973284
339.000000	9.732987
338.000000	9.578011
337.000000	9.354263
336.000000	9.136852
335.000000	8.985136
334.000000	8.768097
333.000000	8.467989
332.000000	8.307404
331.000000	8.103844
330.000000	7.898363
329.000000	7.690031
328.000000	7.459871
327.000000	7.280084
326.000000	7.059035
325.000000	6.857862
324.000000	6.664923
323.000000	6.430028
322.000000	6.234371
321.000000	6.002303
320.000000	5.764308
319.000000	5.534177
318.000000	5.422649
317.000000	5.278892
316.000000	5.072297
315.000000	4.843003
314.000000	4.647079
313.000000	4.474367
312.000000	4.308907
311.000000	4.108926
310.000000	3.893072
309.000000	3.734872
308.000000	3.527753
307.000000	3.348550
306.000000	3.163277
305.000000	2.942502
304.000000	2.762696
303.000000	2.584600
302.000000	2.392873
301.000000	2.184845
300.000000	1.966187
299.000000	1.758432
298.000000	1.575952
297.000000	1.383997
296.000000	1.211083
295.000000	1.052571
294.000000	0.891267
293.000000	0.765613
292.000000	0.661856
291.000000	0.588473
290.000000	0.519511
289.000000	0.472660
288.000000	0.438099
287.000000	0.417988
286.000000	0.412506
285.000000	0.399466
284.000000	0.397197
283.000000	0.382369
282.000000	0.371789
281.000000	0.373149
280.000000	0.358998
279.000000	0.358608
278.000000	0.362761
277.000000	0.363413
276.000000	0.371884
275.000000	0.373408
274.000000	0.366196
273.000000	0.361361
272.000000	0.369457
271.000000	0.373685
270.000000	0.372692
269.000000	0.372297
268.000000	0.372382
267.000000	0.386770
266.000000	0.395167
265.000000	0.403648
264.000000	0.408150
263.000000	0.411817
262.000000	0.417947
261.000000	0.408644
260.000000	0.429508
259.000000	0.442942
258.000000	0.463647
257.000000	0.489048
256.000000	0.501637
255.000000	0.511829
254.000000	0.507734
253.000000	0.512638
252.000000	0.539409
251.000000	0.555009
250.000000	0.560285
249.000000	0.564680
248.000000	0.585686
247.000000	0.600954
246.000000	0.613416
245.000000	0.611673
244.000000	0.612113
243.000000	0.624221
242.000000	0.617399
241.000000	0.603672
240.000000	0.594869
239.000000	0.587523
238.000000	0.569252
237.000000	0.546111
236.000000	0.527364
235.000000	0.509015
234.000000	0.470374
233.000000	0.442126
232.000000	0.417779
231.000000	0.378417
230.000000	0.348217
229.000000	0.322047
228.000000	0.309845
227.000000	0.287665
226.000000	0.257523
225.000000	0.241887
224.000000	0.222202
223.000000	0.201512
222.000000	0.195630
221.000000	0.180275
220.000000	0.155974
219.000000	0.157940
218.000000	0.159328
217.000000	0.140561
216.000000	0.136399
215.000000	0.145145
214.000000	0.153978
213.000000	0.157768
212.000000	0.149442
211.000000	0.132553
210.000000	0.130197
209.000000	0.108841
208.000000	0.118212
207.000000	0.145298
206.000000	0.131617
205.000000	0.106317
204.000000	0.098889
203.000000	0.141198
202.000000	0.205019
201.000000	0.210407
200.000000	0.192090
