PE UV       SUBTECH     SPECTRUM    ASCII       PEDS        4.00        
   -1
TTgVeauAl 42.Sample.asc
18/03/08
10:48:55.00
18/03/08
10:48:55.00
Administrator

200.000000
1
Lambda 750
750N8071901
PerkinElmer UV WinLab 6.0.4.0738 / 1.61.00 Lambda 900

0
0
3350/servo 860.8/2
0
0
UV/VIS
1
1
1
CommonBeamDepol,150mm sphere / downward view
0
0
0
0
Program
Program
3350/servo 860.8/2
3350/0.2 860.8/0.2
3350/0.2 860.8/0.2
0
1
 
 
 
0
 
860.8
319.2
860.8
Front
100
on
 
 
0
0
0
 
0
 
 
 
0
 
 
0
0
0
0
0
 
 
 
 
0
0


0
0
#HDR
-1
-1
#GR
nm
%T
1.0
0.0
2350.000000
-1.000000
2151
8
39.110660
0.153782
#DATA
2350.000000	12.381282
2349.000000	12.102785
2348.000000	11.881323
2347.000000	12.693845
2346.000000	12.270239
2345.000000	11.764510
2344.000000	12.154264
2343.000000	11.911925
2342.000000	12.062037
2341.000000	12.152328
2340.000000	12.210392
2339.000000	12.452835
2338.000000	12.305106
2337.000000	12.621034
2336.000000	12.730025
2335.000000	12.946269
2334.000000	12.575077
2333.000000	12.880089
2332.000000	13.022825
2331.000000	12.800783
2330.000000	12.592184
2329.000000	12.604600
2328.000000	12.702113
2327.000000	12.660954
2326.000000	12.561996
2325.000000	12.354913
2324.000000	12.634230
2323.000000	12.491102
2322.000000	12.249170
2321.000000	12.516861
2320.000000	12.497499
2319.000000	12.545577
2318.000000	12.457904
2317.000000	12.360960
2316.000000	12.325170
2315.000000	12.034559
2314.000000	12.154870
2313.000000	11.917339
2312.000000	12.074163
2311.000000	11.944501
2310.000000	12.026589
2309.000000	11.899097
2308.000000	11.931668
2307.000000	11.794484
2306.000000	11.733151
2305.000000	11.738291
2304.000000	11.683391
2303.000000	11.712440
2302.000000	11.853389
2301.000000	11.652234
2300.000000	11.493718
2299.000000	11.551480
2298.000000	11.454743
2297.000000	11.297860
2296.000000	11.295739
2295.000000	11.223879
2294.000000	11.214948
2293.000000	11.032213
2292.000000	11.123502
2291.000000	11.053395
2290.000000	10.967025
2289.000000	10.846200
2288.000000	10.916221
2287.000000	10.894279
2286.000000	11.003603
2285.000000	10.952262
2284.000000	10.873722
2283.000000	10.672727
2282.000000	10.704191
2281.000000	10.769605
2280.000000	10.878626
2279.000000	10.984515
2278.000000	10.933916
2277.000000	10.932038
2276.000000	10.972338
2275.000000	10.940954
2274.000000	10.874558
2273.000000	10.915297
2272.000000	10.893741
2271.000000	11.033299
2270.000000	11.090076
2269.000000	10.978160
2268.000000	11.082339
2267.000000	11.205299
2266.000000	11.292060
2265.000000	11.261641
2264.000000	11.371967
2263.000000	11.516411
2262.000000	11.586519
2261.000000	11.732951
2260.000000	11.878943
2259.000000	11.934104
2258.000000	11.968927
2257.000000	12.265295
2256.000000	12.404587
2255.000000	12.269774
2254.000000	12.379065
2253.000000	12.650835
2252.000000	12.863427
2251.000000	12.962448
2250.000000	13.094440
2249.000000	13.297507
2248.000000	13.438733
2247.000000	13.543594
2246.000000	13.639488
2245.000000	13.788311
2244.000000	13.888810
2243.000000	14.115357
2242.000000	14.274346
2241.000000	14.290883
2240.000000	14.408613
2239.000000	14.502339
2238.000000	14.518450
2237.000000	14.655200
2236.000000	14.866830
2235.000000	15.014270
2234.000000	15.067422
2233.000000	15.000193
2232.000000	15.025507
2231.000000	15.027718
2230.000000	14.978328
2229.000000	15.065489
2228.000000	15.079103
2227.000000	15.097717
2226.000000	14.967072
2225.000000	14.900907
2224.000000	15.110123
2223.000000	15.109217
2222.000000	15.097595
2221.000000	15.136511
2220.000000	15.088640
2219.000000	15.123930
2218.000000	15.084870
2217.000000	15.035731
2216.000000	15.029690
2215.000000	14.938949
2214.000000	14.880308
2213.000000	14.896573
2212.000000	14.875835
2211.000000	14.736328
2210.000000	14.572638
2209.000000	14.513851
2208.000000	14.405195
2207.000000	14.407333
2206.000000	14.362285
2205.000000	14.379985
2204.000000	14.303506
2203.000000	14.274720
2202.000000	14.220600
2201.000000	14.121133
2200.000000	14.082836
2199.000000	14.077548
2198.000000	13.919679
2197.000000	13.849465
2196.000000	13.811115
2195.000000	13.790290
2194.000000	13.694188
2193.000000	13.654764
2192.000000	13.603673
2191.000000	13.554130
2190.000000	13.497892
2189.000000	13.426245
2188.000000	13.350646
2187.000000	13.320726
2186.000000	13.390014
2185.000000	13.265134
2184.000000	13.292886
2183.000000	13.244210
2182.000000	13.213568
2181.000000	13.158278
2180.000000	13.027907
2179.000000	13.040381
2178.000000	12.979393
2177.000000	13.103777
2176.000000	12.999197
2175.000000	13.147345
2174.000000	13.224301
2173.000000	13.141401
2172.000000	13.210075
2171.000000	13.109021
2170.000000	13.231456
2169.000000	13.317859
2168.000000	13.360704
2167.000000	13.405538
2166.000000	13.496817
2165.000000	13.469712
2164.000000	13.529798
2163.000000	13.564410
2162.000000	13.736091
2161.000000	13.763105
2160.000000	13.958367
2159.000000	13.852080
2158.000000	13.868621
2157.000000	14.068920
2156.000000	14.280453
2155.000000	14.301147
2154.000000	14.341749
2153.000000	14.534531
2152.000000	14.599192
2151.000000	14.767059
2150.000000	14.951359
2149.000000	15.047746
2148.000000	14.991376
2147.000000	15.320418
2146.000000	15.178615
2145.000000	15.211514
2144.000000	15.354267
2143.000000	15.496317
2142.000000	15.435040
2141.000000	15.543691
2140.000000	15.897839
2139.000000	15.934618
2138.000000	16.026056
2137.000000	16.205130
2136.000000	16.072536
2135.000000	16.197490
2134.000000	16.237226
2133.000000	16.092124
2132.000000	16.386661
2131.000000	16.436759
2130.000000	16.682902
2129.000000	16.415409
2128.000000	16.504724
2127.000000	16.559384
2126.000000	16.624456
2125.000000	16.701852
2124.000000	16.854138
2123.000000	16.883054
2122.000000	16.876787
2121.000000	16.874446
2120.000000	16.869546
2119.000000	16.996896
2118.000000	16.861843
2117.000000	16.891018
2116.000000	16.978843
2115.000000	17.157218
2114.000000	17.046653
2113.000000	16.994250
2112.000000	17.056195
2111.000000	17.076158
2110.000000	17.078156
2109.000000	16.998207
2108.000000	17.111705
2107.000000	17.083243
2106.000000	17.258172
2105.000000	17.220079
2104.000000	17.257313
2103.000000	17.350646
2102.000000	17.286671
2101.000000	17.360440
2100.000000	17.421050
2099.000000	17.238896
2098.000000	17.150354
2097.000000	17.210339
2096.000000	17.260086
2095.000000	17.169483
2094.000000	17.232744
2093.000000	17.149778
2092.000000	17.191249
2091.000000	17.152641
2090.000000	17.228337
2089.000000	17.194630
2088.000000	17.181966
2087.000000	17.115425
2086.000000	17.216228
2085.000000	17.148394
2084.000000	16.990234
2083.000000	16.950357
2082.000000	16.911217
2081.000000	16.907571
2080.000000	16.769387
2079.000000	16.793012
2078.000000	16.736769
2077.000000	16.695685
2076.000000	16.586723
2075.000000	16.445909
2074.000000	16.394500
2073.000000	16.384620
2072.000000	16.274632
2071.000000	16.204343
2070.000000	16.170849
2069.000000	15.972158
2068.000000	15.803501
2067.000000	15.684104
2066.000000	15.575763
2065.000000	15.521309
2064.000000	15.420341
2063.000000	15.223748
2062.000000	15.145689
2061.000000	15.114474
2060.000000	14.979802
2059.000000	14.758687
2058.000000	14.620813
2057.000000	14.596707
2056.000000	14.498119
2055.000000	14.370778
2054.000000	14.252391
2053.000000	14.209934
2052.000000	14.125540
2051.000000	14.024529
2050.000000	13.888290
2049.000000	13.809833
2048.000000	13.808474
2047.000000	13.788438
2046.000000	13.713566
2045.000000	13.626061
2044.000000	13.601512
2043.000000	13.551658
2042.000000	13.548866
2041.000000	13.703150
2040.000000	13.710427
2039.000000	13.675182
2038.000000	13.683380
2037.000000	13.735229
2036.000000	13.836721
2035.000000	13.920817
2034.000000	13.984419
2033.000000	14.048715
2032.000000	14.157775
2031.000000	14.201963
2030.000000	14.251676
2029.000000	14.380918
2028.000000	14.493005
2027.000000	14.593486
2026.000000	14.690954
2025.000000	14.808043
2024.000000	14.885706
2023.000000	14.915536
2022.000000	14.984467
2021.000000	15.002262
2020.000000	15.001258
2019.000000	15.035350
2018.000000	15.095989
2017.000000	15.129766
2016.000000	15.146871
2015.000000	15.176196
2014.000000	15.134777
2013.000000	15.096433
2012.000000	15.089583
2011.000000	15.090064
2010.000000	15.068279
2009.000000	14.997192
2008.000000	14.914878
2007.000000	14.878840
2006.000000	14.835605
2005.000000	14.794071
2004.000000	14.724978
2003.000000	14.658417
2002.000000	14.562046
2001.000000	14.499570
2000.000000	14.445030
1999.000000	14.370560
1998.000000	14.331064
1997.000000	14.241257
1996.000000	14.147926
1995.000000	14.066333
1994.000000	13.971436
1993.000000	13.878122
1992.000000	13.789841
1991.000000	13.715868
1990.000000	13.665390
1989.000000	13.571500
1988.000000	13.528331
1987.000000	13.415605
1986.000000	13.335957
1985.000000	13.270515
1984.000000	13.195512
1983.000000	13.106625
1982.000000	13.043102
1981.000000	12.972674
1980.000000	12.900845
1979.000000	12.841771
1978.000000	12.753455
1977.000000	12.675952
1976.000000	12.620982
1975.000000	12.565099
1974.000000	12.462941
1973.000000	12.414318
1972.000000	12.322647
1971.000000	12.298507
1970.000000	12.200357
1969.000000	12.123937
1968.000000	12.074276
1967.000000	11.994340
1966.000000	11.932456
1965.000000	11.863156
1964.000000	11.741714
1963.000000	11.721431
1962.000000	11.648865
1961.000000	11.574393
1960.000000	11.527252
1959.000000	11.496550
1958.000000	11.443556
1957.000000	11.350381
1956.000000	11.338277
1955.000000	11.278698
1954.000000	11.214421
1953.000000	11.203682
1952.000000	11.145130
1951.000000	11.210763
1950.000000	11.118303
1949.000000	11.109903
1948.000000	11.055826
1947.000000	10.989993
1946.000000	10.979364
1945.000000	11.040273
1944.000000	11.000298
1943.000000	10.999915
1942.000000	11.027993
1941.000000	11.055532
1940.000000	11.099799
1939.000000	11.132581
1938.000000	11.163572
1937.000000	11.235788
1936.000000	11.301134
1935.000000	11.442375
1934.000000	11.503864
1933.000000	11.626479
1932.000000	11.605379
1931.000000	11.665469
1930.000000	11.824126
1929.000000	11.958483
1928.000000	12.166963
1927.000000	12.247042
1926.000000	12.468944
1925.000000	12.598614
1924.000000	12.729222
1923.000000	12.915425
1922.000000	13.107756
1921.000000	13.334671
1920.000000	13.511637
1919.000000	13.758012
1918.000000	14.048215
1917.000000	14.250362
1916.000000	14.355382
1915.000000	14.681874
1914.000000	14.989368
1913.000000	15.349256
1912.000000	15.572220
1911.000000	15.854198
1910.000000	16.194720
1909.000000	16.455987
1908.000000	16.821344
1907.000000	17.153803
1906.000000	17.511788
1905.000000	17.899601
1904.000000	18.301815
1903.000000	18.686650
1902.000000	19.025392
1901.000000	19.447541
1900.000000	19.761743
1899.000000	20.183914
1898.000000	20.681467
1897.000000	21.075136
1896.000000	21.374495
1895.000000	21.751428
1894.000000	22.183561
1893.000000	22.545398
1892.000000	22.926350
1891.000000	23.325416
1890.000000	23.708042
1889.000000	24.066104
1888.000000	24.417984
1887.000000	24.731414
1886.000000	25.055736
1885.000000	25.405680
1884.000000	25.713269
1883.000000	26.042404
1882.000000	26.311756
1881.000000	26.606326
1880.000000	26.903295
1879.000000	27.176213
1878.000000	27.438044
1877.000000	27.653306
1876.000000	27.906211
1875.000000	28.094236
1874.000000	28.255356
1873.000000	28.528790
1872.000000	28.679013
1871.000000	28.813710
1870.000000	28.966483
1869.000000	29.095233
1868.000000	29.193564
1867.000000	29.291722
1866.000000	29.399303
1865.000000	29.467757
1864.000000	29.510503
1863.000000	29.556347
1862.000000	29.647391
1861.000000	29.689375
1860.000000	29.726005
1859.000000	29.770493
1858.000000	29.831066
1857.000000	29.856788
1856.000000	29.922676
1855.000000	29.968700
1854.000000	29.983007
1853.000000	30.006051
1852.000000	30.008040
1851.000000	30.019684
1850.000000	30.026273
1849.000000	29.998845
1848.000000	30.013002
1847.000000	30.009530
1846.000000	29.994271
1845.000000	29.982987
1844.000000	30.005716
1843.000000	30.001125
1842.000000	29.948063
1841.000000	29.900035
1840.000000	29.887264
1839.000000	29.862653
1838.000000	29.805944
1837.000000	29.772112
1836.000000	29.751124
1835.000000	29.700089
1834.000000	29.671227
1833.000000	29.630144
1832.000000	29.582018
1831.000000	29.542907
1830.000000	29.505253
1829.000000	29.455246
1828.000000	29.413275
1827.000000	29.360896
1826.000000	29.329464
1825.000000	29.303233
1824.000000	29.282720
1823.000000	29.250075
1822.000000	29.204499
1821.000000	29.171783
1820.000000	29.144493
1819.000000	29.108828
1818.000000	29.077885
1817.000000	29.059252
1816.000000	29.027174
1815.000000	28.984461
1814.000000	28.964247
1813.000000	28.941316
1812.000000	28.911589
1811.000000	28.872658
1810.000000	28.844946
1809.000000	28.821554
1808.000000	28.780658
1807.000000	28.755035
1806.000000	28.734642
1805.000000	28.707962
1804.000000	28.665830
1803.000000	28.635077
1802.000000	28.611865
1801.000000	28.588918
1800.000000	28.571661
1799.000000	28.544072
1798.000000	28.527480
1797.000000	28.509917
1796.000000	28.476190
1795.000000	28.440842
1794.000000	28.433473
1793.000000	28.429780
1792.000000	28.402233
1791.000000	28.385901
1790.000000	28.371886
1789.000000	28.341651
1788.000000	28.325142
1787.000000	28.309436
1786.000000	28.293085
1785.000000	28.274640
1784.000000	28.244712
1783.000000	28.224929
1782.000000	28.188246
1781.000000	28.149271
1780.000000	28.131453
1779.000000	28.108092
1778.000000	28.062426
1777.000000	27.993201
1776.000000	27.954234
1775.000000	27.909882
1774.000000	27.860593
1773.000000	27.814722
1772.000000	27.756425
1771.000000	27.715365
1770.000000	27.656408
1769.000000	27.608125
1768.000000	27.560587
1767.000000	27.521491
1766.000000	27.449072
1765.000000	27.421715
1764.000000	27.394943
1763.000000	27.332684
1762.000000	27.266061
1761.000000	27.228338
1760.000000	27.179861
1759.000000	27.148483
1758.000000	27.095680
1757.000000	27.060152
1756.000000	27.027929
1755.000000	26.980452
1754.000000	26.918871
1753.000000	26.869345
1752.000000	26.836517
1751.000000	26.789925
1750.000000	26.750827
1749.000000	26.730867
1748.000000	26.656544
1747.000000	26.588018
1746.000000	26.538637
1745.000000	26.467932
1744.000000	26.442104
1743.000000	26.401089
1742.000000	26.343285
1741.000000	26.301703
1740.000000	26.233752
1739.000000	26.193254
1738.000000	26.183584
1737.000000	26.117292
1736.000000	26.071520
1735.000000	26.066148
1734.000000	26.067108
1733.000000	26.039693
1732.000000	26.029944
1731.000000	26.055971
1730.000000	26.061123
1729.000000	26.062145
1728.000000	26.080200
1727.000000	26.129935
1726.000000	26.188915
1725.000000	26.231304
1724.000000	26.281193
1723.000000	26.349990
1722.000000	26.460036
1721.000000	26.518395
1720.000000	26.578149
1719.000000	26.678848
1718.000000	26.752328
1717.000000	26.844730
1716.000000	26.901331
1715.000000	26.973025
1714.000000	27.058275
1713.000000	27.113370
1712.000000	27.204012
1711.000000	27.235219
1710.000000	27.304384
1709.000000	27.378279
1708.000000	27.409581
1707.000000	27.438370
1706.000000	27.471729
1705.000000	27.480211
1704.000000	27.520496
1703.000000	27.532014
1702.000000	27.546057
1701.000000	27.596148
1700.000000	27.615132
1699.000000	27.596494
1698.000000	27.615023
1697.000000	27.660035
1696.000000	27.716540
1695.000000	27.714702
1694.000000	27.769543
1693.000000	27.805294
1692.000000	27.819386
1691.000000	27.887318
1690.000000	27.949992
1689.000000	28.031701
1688.000000	28.135059
1687.000000	28.221910
1686.000000	28.308394
1685.000000	28.417541
1684.000000	28.555063
1683.000000	28.652604
1682.000000	28.789606
1681.000000	28.949043
1680.000000	29.085789
1679.000000	29.212265
1678.000000	29.360697
1677.000000	29.500027
1676.000000	29.643917
1675.000000	29.800796
1674.000000	29.939768
1673.000000	30.079728
1672.000000	30.221890
1671.000000	30.338822
1670.000000	30.470415
1669.000000	30.610920
1668.000000	30.705577
1667.000000	30.846953
1666.000000	30.913609
1665.000000	30.978784
1664.000000	31.073886
1663.000000	31.149545
1662.000000	31.217397
1661.000000	31.263559
1660.000000	31.339776
1659.000000	31.395565
1658.000000	31.411808
1657.000000	31.467473
1656.000000	31.503182
1655.000000	31.525453
1654.000000	31.548280
1653.000000	31.553871
1652.000000	31.579049
1651.000000	31.569028
1650.000000	31.562055
1649.000000	31.566536
1648.000000	31.559648
1647.000000	31.551656
1646.000000	31.543463
1645.000000	31.528521
1644.000000	31.515617
1643.000000	31.475090
1642.000000	31.459924
1641.000000	31.444142
1640.000000	31.424171
1639.000000	31.406094
1638.000000	31.386526
1637.000000	31.365486
1636.000000	31.319861
1635.000000	31.292070
1634.000000	31.247771
1633.000000	31.208823
1632.000000	31.190281
1631.000000	31.147199
1630.000000	31.093847
1629.000000	31.059956
1628.000000	31.021065
1627.000000	30.981557
1626.000000	30.943765
1625.000000	30.906620
1624.000000	30.879669
1623.000000	30.842972
1622.000000	30.781562
1621.000000	30.718552
1620.000000	30.686433
1619.000000	30.654224
1618.000000	30.596917
1617.000000	30.535310
1616.000000	30.483055
1615.000000	30.440985
1614.000000	30.395408
1613.000000	30.348429
1612.000000	30.305662
1611.000000	30.256247
1610.000000	30.203070
1609.000000	30.149520
1608.000000	30.081165
1607.000000	30.023996
1606.000000	29.972459
1605.000000	29.913383
1604.000000	29.854197
1603.000000	29.805726
1602.000000	29.762889
1601.000000	29.698435
1600.000000	29.652317
1599.000000	29.606222
1598.000000	29.550957
1597.000000	29.500073
1596.000000	29.452446
1595.000000	29.412356
1594.000000	29.362210
1593.000000	29.311893
1592.000000	29.263689
1591.000000	29.222305
1590.000000	29.177843
1589.000000	29.122323
1588.000000	29.071583
1587.000000	29.036505
1586.000000	28.998931
1585.000000	28.958153
1584.000000	28.910392
1583.000000	28.872414
1582.000000	28.840167
1581.000000	28.804573
1580.000000	28.762853
1579.000000	28.721082
1578.000000	28.683533
1577.000000	28.632537
1576.000000	28.578597
1575.000000	28.548951
1574.000000	28.502953
1573.000000	28.460928
1572.000000	28.426850
1571.000000	28.386234
1570.000000	28.354273
1569.000000	28.324947
1568.000000	28.285033
1567.000000	28.251248
1566.000000	28.205909
1565.000000	28.180609
1564.000000	28.159027
1563.000000	28.140013
1562.000000	28.113550
1561.000000	28.090746
1560.000000	28.065543
1559.000000	28.045150
1558.000000	28.027641
1557.000000	28.007987
1556.000000	27.983430
1555.000000	27.954246
1554.000000	27.917539
1553.000000	27.888345
1552.000000	27.857584
1551.000000	27.837796
1550.000000	27.811145
1549.000000	27.771037
1548.000000	27.733588
1547.000000	27.678862
1546.000000	27.622570
1545.000000	27.572459
1544.000000	27.510287
1543.000000	27.449368
1542.000000	27.374426
1541.000000	27.316963
1540.000000	27.251021
1539.000000	27.178363
1538.000000	27.097571
1537.000000	27.015949
1536.000000	26.929547
1535.000000	26.874759
1534.000000	26.838037
1533.000000	26.814824
1532.000000	26.798873
1531.000000	26.732115
1530.000000	26.616486
1529.000000	26.534009
1528.000000	26.440622
1527.000000	26.370656
1526.000000	26.300187
1525.000000	26.250589
1524.000000	26.230217
1523.000000	26.190998
1522.000000	26.120674
1521.000000	26.061930
1520.000000	26.021301
1519.000000	25.981832
1518.000000	25.957353
1517.000000	25.921600
1516.000000	25.865707
1515.000000	25.848202
1514.000000	25.844246
1513.000000	25.808385
1512.000000	25.765492
1511.000000	25.728145
1510.000000	25.725551
1509.000000	25.711918
1508.000000	25.712057
1507.000000	25.692345
1506.000000	25.663230
1505.000000	25.640341
1504.000000	25.625182
1503.000000	25.605114
1502.000000	25.568651
1501.000000	25.576323
1500.000000	25.569125
1499.000000	25.556821
1498.000000	25.578202
1497.000000	25.571202
1496.000000	25.583847
1495.000000	25.588728
1494.000000	25.615693
1493.000000	25.618966
1492.000000	25.633983
1491.000000	25.676330
1490.000000	25.680337
1489.000000	25.715818
1488.000000	25.749678
1487.000000	25.763868
1486.000000	25.802266
1485.000000	25.847189
1484.000000	25.886712
1483.000000	25.931917
1482.000000	25.966486
1481.000000	26.001470
1480.000000	26.055279
1479.000000	26.100733
1478.000000	26.131757
1477.000000	26.185631
1476.000000	26.225398
1475.000000	26.251915
1474.000000	26.312552
1473.000000	26.342849
1472.000000	26.362804
1471.000000	26.400050
1470.000000	26.438203
1469.000000	26.471314
1468.000000	26.513708
1467.000000	26.564949
1466.000000	26.626116
1465.000000	26.635700
1464.000000	26.655136
1463.000000	26.701481
1462.000000	26.752237
1461.000000	26.824699
1460.000000	26.844053
1459.000000	26.864034
1458.000000	26.914044
1457.000000	26.971438
1456.000000	27.008156
1455.000000	27.049050
1454.000000	27.081050
1453.000000	27.144472
1452.000000	27.213317
1451.000000	27.276123
1450.000000	27.323729
1449.000000	27.372777
1448.000000	27.416852
1447.000000	27.499843
1446.000000	27.581549
1445.000000	27.647067
1444.000000	27.702358
1443.000000	27.769613
1442.000000	27.826601
1441.000000	27.891406
1440.000000	27.958838
1439.000000	28.057174
1438.000000	28.154401
1437.000000	28.241499
1436.000000	28.316103
1435.000000	28.410328
1434.000000	28.491432
1433.000000	28.583055
1432.000000	28.681783
1431.000000	28.764470
1430.000000	28.861645
1429.000000	28.980881
1428.000000	29.100140
1427.000000	29.219678
1426.000000	29.341690
1425.000000	29.481191
1424.000000	29.603399
1423.000000	29.721211
1422.000000	29.834047
1421.000000	29.979041
1420.000000	30.132968
1419.000000	30.294659
1418.000000	30.446722
1417.000000	30.586182
1416.000000	30.751622
1415.000000	30.918851
1414.000000	31.061600
1413.000000	31.212825
1412.000000	31.377305
1411.000000	31.551422
1410.000000	31.708606
1409.000000	31.874208
1408.000000	32.041471
1407.000000	32.215877
1406.000000	32.370470
1405.000000	32.514716
1404.000000	32.671221
1403.000000	32.844358
1402.000000	32.996869
1401.000000	33.142393
1400.000000	33.284000
1399.000000	33.418868
1398.000000	33.557284
1397.000000	33.687821
1396.000000	33.824835
1395.000000	33.965700
1394.000000	34.092120
1393.000000	34.207475
1392.000000	34.315054
1391.000000	34.431020
1390.000000	34.541510
1389.000000	34.652398
1388.000000	34.753147
1387.000000	34.838864
1386.000000	34.938379
1385.000000	35.044899
1384.000000	35.149134
1383.000000	35.232857
1382.000000	35.301492
1381.000000	35.368984
1380.000000	35.440776
1379.000000	35.492550
1378.000000	35.554668
1377.000000	35.621102
1376.000000	35.658085
1375.000000	35.705924
1374.000000	35.754254
1373.000000	35.804868
1372.000000	35.847485
1371.000000	35.877101
1370.000000	35.907720
1369.000000	35.950879
1368.000000	35.993455
1367.000000	36.032569
1366.000000	36.072553
1365.000000	36.107684
1364.000000	36.156848
1363.000000	36.197485
1362.000000	36.228303
1361.000000	36.272612
1360.000000	36.333177
1359.000000	36.375833
1358.000000	36.383988
1357.000000	36.417284
1356.000000	36.477672
1355.000000	36.537422
1354.000000	36.568225
1353.000000	36.582293
1352.000000	36.615429
1351.000000	36.664561
1350.000000	36.735897
1349.000000	36.784743
1348.000000	36.800367
1347.000000	36.819678
1346.000000	36.850150
1345.000000	36.902909
1344.000000	36.960248
1343.000000	37.020459
1342.000000	37.059210
1341.000000	37.072711
1340.000000	37.086776
1339.000000	37.107310
1338.000000	37.143057
1337.000000	37.175255
1336.000000	37.237804
1335.000000	37.273301
1334.000000	37.305029
1333.000000	37.319257
1332.000000	37.335187
1331.000000	37.359081
1330.000000	37.387134
1329.000000	37.427673
1328.000000	37.440582
1327.000000	37.439529
1326.000000	37.480464
1325.000000	37.507786
1324.000000	37.511809
1323.000000	37.533370
1322.000000	37.548944
1321.000000	37.549946
1320.000000	37.548456
1319.000000	37.593668
1318.000000	37.610481
1317.000000	37.600651
1316.000000	37.613085
1315.000000	37.613736
1314.000000	37.624831
1313.000000	37.644384
1312.000000	37.655634
1311.000000	37.675777
1310.000000	37.684012
1309.000000	37.685856
1308.000000	37.688312
1307.000000	37.706330
1306.000000	37.707739
1305.000000	37.713504
1304.000000	37.724408
1303.000000	37.708522
1302.000000	37.734159
1301.000000	37.760817
1300.000000	37.757342
1299.000000	37.746827
1298.000000	37.742729
1297.000000	37.750210
1296.000000	37.734323
1295.000000	37.747475
1294.000000	37.753746
1293.000000	37.741788
1292.000000	37.731431
1291.000000	37.734153
1290.000000	37.718576
1289.000000	37.718215
1288.000000	37.686719
1287.000000	37.674813
1286.000000	37.674196
1285.000000	37.681788
1284.000000	37.677796
1283.000000	37.679842
1282.000000	37.694125
1281.000000	37.696708
1280.000000	37.675139
1279.000000	37.677451
1278.000000	37.641487
1277.000000	37.632595
1276.000000	37.618688
1275.000000	37.610280
1274.000000	37.642384
1273.000000	37.648120
1272.000000	37.647408
1271.000000	37.637830
1270.000000	37.663524
1269.000000	37.678646
1268.000000	37.681810
1267.000000	37.684451
1266.000000	37.683437
1265.000000	37.662237
1264.000000	37.685041
1263.000000	37.686144
1262.000000	37.696911
1261.000000	37.728748
1260.000000	37.722949
1259.000000	37.710595
1258.000000	37.709604
1257.000000	37.699800
1256.000000	37.738195
1255.000000	37.763354
1254.000000	37.746090
1253.000000	37.736920
1252.000000	37.756848
1251.000000	37.751462
1250.000000	37.729154
1249.000000	37.728993
1248.000000	37.728806
1247.000000	37.733503
1246.000000	37.719545
1245.000000	37.727950
1244.000000	37.710150
1243.000000	37.681813
1242.000000	37.642512
1241.000000	37.625586
1240.000000	37.627063
1239.000000	37.626607
1238.000000	37.602982
1237.000000	37.551571
1236.000000	37.537569
1235.000000	37.532033
1234.000000	37.488565
1233.000000	37.462083
1232.000000	37.472788
1231.000000	37.467323
1230.000000	37.450060
1229.000000	37.399682
1228.000000	37.384257
1227.000000	37.373657
1226.000000	37.360942
1225.000000	37.357655
1224.000000	37.333856
1223.000000	37.332868
1222.000000	37.314368
1221.000000	37.285766
1220.000000	37.263374
1219.000000	37.224561
1218.000000	37.214483
1217.000000	37.203869
1216.000000	37.181450
1215.000000	37.145264
1214.000000	37.119658
1213.000000	37.099246
1212.000000	37.100026
1211.000000	37.071614
1210.000000	37.044117
1209.000000	37.035083
1208.000000	37.004266
1207.000000	36.953237
1206.000000	36.918440
1205.000000	36.907322
1204.000000	36.897963
1203.000000	36.855580
1202.000000	36.838335
1201.000000	36.805669
1200.000000	36.761989
1199.000000	36.730408
1198.000000	36.712186
1197.000000	36.708646
1196.000000	36.684818
1195.000000	36.656179
1194.000000	36.628873
1193.000000	36.613743
1192.000000	36.593462
1191.000000	36.568860
1190.000000	36.541614
1189.000000	36.498871
1188.000000	36.495442
1187.000000	36.500934
1186.000000	36.494537
1185.000000	36.489214
1184.000000	36.497631
1183.000000	36.504814
1182.000000	36.521298
1181.000000	36.539125
1180.000000	36.556304
1179.000000	36.588125
1178.000000	36.627578
1177.000000	36.650318
1176.000000	36.676065
1175.000000	36.707620
1174.000000	36.755264
1173.000000	36.802904
1172.000000	36.845934
1171.000000	36.893104
1170.000000	36.937688
1169.000000	36.974207
1168.000000	37.015796
1167.000000	37.088510
1166.000000	37.141709
1165.000000	37.191904
1164.000000	37.250379
1163.000000	37.300429
1162.000000	37.353249
1161.000000	37.414830
1160.000000	37.476767
1159.000000	37.528900
1158.000000	37.562487
1157.000000	37.602899
1156.000000	37.657719
1155.000000	37.701618
1154.000000	37.745754
1153.000000	37.799965
1152.000000	37.856163
1151.000000	37.897489
1150.000000	37.927336
1149.000000	37.972550
1148.000000	38.012827
1147.000000	38.049933
1146.000000	38.086214
1145.000000	38.121766
1144.000000	38.147929
1143.000000	38.175383
1142.000000	38.209849
1141.000000	38.243358
1140.000000	38.260035
1139.000000	38.277735
1138.000000	38.297341
1137.000000	38.328667
1136.000000	38.365783
1135.000000	38.398458
1134.000000	38.436365
1133.000000	38.469394
1132.000000	38.484885
1131.000000	38.508326
1130.000000	38.541872
1129.000000	38.560283
1128.000000	38.591744
1127.000000	38.610822
1126.000000	38.598172
1125.000000	38.591854
1124.000000	38.599650
1123.000000	38.610705
1122.000000	38.626948
1121.000000	38.647987
1120.000000	38.642207
1119.000000	38.645738
1118.000000	38.660593
1117.000000	38.665375
1116.000000	38.673349
1115.000000	38.672932
1114.000000	38.671008
1113.000000	38.671682
1112.000000	38.670556
1111.000000	38.675275
1110.000000	38.693592
1109.000000	38.691392
1108.000000	38.691552
1107.000000	38.689169
1106.000000	38.703099
1105.000000	38.705164
1104.000000	38.706536
1103.000000	38.710219
1102.000000	38.702644
1101.000000	38.674881
1100.000000	38.665002
1099.000000	38.675546
1098.000000	38.682885
1097.000000	38.691295
1096.000000	38.694066
1095.000000	38.692600
1094.000000	38.694603
1093.000000	38.664625
1092.000000	38.652103
1091.000000	38.671820
1090.000000	38.680737
1089.000000	38.683004
1088.000000	38.687523
1087.000000	38.680315
1086.000000	38.654812
1085.000000	38.650997
1084.000000	38.663823
1083.000000	38.660476
1082.000000	38.667229
1081.000000	38.663346
1080.000000	38.658552
1079.000000	38.649926
1078.000000	38.625234
1077.000000	38.637506
1076.000000	38.630961
1075.000000	38.642691
1074.000000	38.620255
1073.000000	38.619574
1072.000000	38.592288
1071.000000	38.580459
1070.000000	38.588618
1069.000000	38.594458
1068.000000	38.591188
1067.000000	38.587306
1066.000000	38.609235
1065.000000	38.591506
1064.000000	38.560736
1063.000000	38.554726
1062.000000	38.564241
1061.000000	38.566146
1060.000000	38.557731
1059.000000	38.556012
1058.000000	38.536626
1057.000000	38.521463
1056.000000	38.511792
1055.000000	38.512602
1054.000000	38.514472
1053.000000	38.503181
1052.000000	38.477587
1051.000000	38.469382
1050.000000	38.483476
1049.000000	38.488254
1048.000000	38.464119
1047.000000	38.456905
1046.000000	38.461067
1045.000000	38.463037
1044.000000	38.458977
1043.000000	38.463089
1042.000000	38.429436
1041.000000	38.429110
1040.000000	38.448002
1039.000000	38.436320
1038.000000	38.413136
1037.000000	38.412105
1036.000000	38.408791
1035.000000	38.414783
1034.000000	38.436862
1033.000000	38.413390
1032.000000	38.408633
1031.000000	38.422443
1030.000000	38.400458
1029.000000	38.386578
1028.000000	38.393835
1027.000000	38.406358
1026.000000	38.407111
1025.000000	38.379401
1024.000000	38.389877
1023.000000	38.407203
1022.000000	38.370565
1021.000000	38.384055
1020.000000	38.399065
1019.000000	38.404434
1018.000000	38.391857
1017.000000	38.396949
1016.000000	38.410964
1015.000000	38.402687
1014.000000	38.412439
1013.000000	38.410055
1012.000000	38.389589
1011.000000	38.405437
1010.000000	38.414987
1009.000000	38.422322
1008.000000	38.408937
1007.000000	38.393871
1006.000000	38.403733
1005.000000	38.439952
1004.000000	38.461193
1003.000000	38.476860
1002.000000	38.452108
1001.000000	38.427661
1000.000000	38.436098
999.000000	38.452517
998.000000	38.470640
997.000000	38.466020
996.000000	38.483537
995.000000	38.472832
994.000000	38.483943
993.000000	38.496083
992.000000	38.473496
991.000000	38.480972
990.000000	38.485258
989.000000	38.502533
988.000000	38.518590
987.000000	38.519394
986.000000	38.512399
985.000000	38.524350
984.000000	38.527803
983.000000	38.543358
982.000000	38.547051
981.000000	38.549819
980.000000	38.567848
979.000000	38.606566
978.000000	38.631199
977.000000	38.646815
976.000000	38.649959
975.000000	38.653908
974.000000	38.653978
973.000000	38.663400
972.000000	38.685279
971.000000	38.692798
970.000000	38.695335
969.000000	38.705137
968.000000	38.712397
967.000000	38.735739
966.000000	38.747070
965.000000	38.745778
964.000000	38.749664
963.000000	38.755097
962.000000	38.770679
961.000000	38.786238
960.000000	38.799420
959.000000	38.793139
958.000000	38.792153
957.000000	38.799007
956.000000	38.810586
955.000000	38.816997
954.000000	38.830515
953.000000	38.840320
952.000000	38.829108
951.000000	38.830515
950.000000	38.854399
949.000000	38.863734
948.000000	38.868920
947.000000	38.864483
946.000000	38.863143
945.000000	38.882705
944.000000	38.881517
943.000000	38.860870
942.000000	38.864339
941.000000	38.870572
940.000000	38.880116
939.000000	38.885991
938.000000	38.884390
937.000000	38.876278
936.000000	38.879923
935.000000	38.887441
934.000000	38.876741
933.000000	38.875528
932.000000	38.879458
931.000000	38.871497
930.000000	38.872154
929.000000	38.849319
928.000000	38.840011
927.000000	38.849125
926.000000	38.852908
925.000000	38.864007
924.000000	38.874693
923.000000	38.870805
922.000000	38.843180
921.000000	38.825506
920.000000	38.839523
919.000000	38.856031
918.000000	38.862980
917.000000	38.872503
916.000000	38.860012
915.000000	38.857072
914.000000	38.850975
913.000000	38.859418
912.000000	38.880238
911.000000	38.879488
910.000000	38.853488
909.000000	38.851003
908.000000	38.862062
907.000000	38.850765
906.000000	38.868955
905.000000	38.872751
904.000000	38.854634
903.000000	38.884289
902.000000	38.927916
901.000000	38.911269
900.000000	38.896843
899.000000	38.902575
898.000000	38.909173
897.000000	38.939627
896.000000	38.936659
895.000000	38.941371
894.000000	38.947231
893.000000	38.939324
892.000000	38.931232
891.000000	38.986462
890.000000	39.019231
889.000000	38.953074
888.000000	38.982207
887.000000	39.008218
886.000000	39.004694
885.000000	38.973596
884.000000	38.913434
883.000000	38.932461
882.000000	39.021082
881.000000	38.946525
880.000000	38.957482
879.000000	39.021934
878.000000	39.011767
877.000000	39.002642
876.000000	39.015096
875.000000	39.070111
874.000000	39.030693
873.000000	39.029704
872.000000	39.001042
871.000000	38.990755
870.000000	39.006637
869.000000	38.981748
868.000000	39.073276
867.000000	38.974719
866.000000	38.958655
865.000000	39.009269
864.000000	39.021207
863.000000	39.028517
862.000000	38.948372
861.000000	39.110660
860.000000	39.073811
859.000000	38.995059
858.000000	39.093407
857.000000	38.795649
856.000000	38.788442
855.000000	38.948117
854.000000	39.062423
853.000000	38.860030
852.000000	38.622453
851.000000	38.594928
850.000000	38.786100
849.000000	38.722894
848.000000	38.873363
847.000000	39.053612
846.000000	38.793654
845.000000	38.773619
844.000000	38.981010
843.000000	38.780572
842.000000	38.773944
841.000000	38.898547
840.000000	38.900211
839.000000	38.866064
838.000000	38.840157
837.000000	38.707527
836.000000	38.882569
835.000000	38.969304
834.000000	38.838373
833.000000	38.690946
832.000000	38.867784
831.000000	38.819926
830.000000	38.814857
829.000000	38.900918
828.000000	38.857424
827.000000	38.789645
826.000000	38.790332
825.000000	38.699661
824.000000	38.773373
823.000000	38.743729
822.000000	38.854126
821.000000	38.800262
820.000000	38.905855
819.000000	38.842142
818.000000	38.715303
817.000000	38.707870
816.000000	38.743622
815.000000	38.806614
814.000000	38.677287
813.000000	38.725255
812.000000	38.828627
811.000000	38.711698
810.000000	38.820766
809.000000	38.849834
808.000000	38.746723
807.000000	38.832632
806.000000	38.675794
805.000000	38.712559
804.000000	38.752931
803.000000	38.750296
802.000000	38.713644
801.000000	38.710746
800.000000	38.675717
799.000000	38.665435
798.000000	38.790815
797.000000	38.781199
796.000000	38.724272
795.000000	38.759409
794.000000	38.833926
793.000000	38.769481
792.000000	38.738737
791.000000	38.691859
790.000000	38.652776
789.000000	38.758434
788.000000	38.722205
787.000000	38.689559
786.000000	38.684877
785.000000	38.707905
784.000000	38.741684
783.000000	38.640492
782.000000	38.711575
781.000000	38.776998
780.000000	38.684640
779.000000	38.644906
778.000000	38.653689
777.000000	38.693442
776.000000	38.726720
775.000000	38.680098
774.000000	38.644959
773.000000	38.720038
772.000000	38.718193
771.000000	38.738770
770.000000	38.686032
769.000000	38.621712
768.000000	38.669834
767.000000	38.697716
766.000000	38.697385
765.000000	38.642507
764.000000	38.643040
763.000000	38.744985
762.000000	38.732986
761.000000	38.683755
760.000000	38.646653
759.000000	38.659332
758.000000	38.638869
757.000000	38.657413
756.000000	38.624576
755.000000	38.621639
754.000000	38.591333
753.000000	38.638713
752.000000	38.621975
751.000000	38.603123
750.000000	38.656025
749.000000	38.663721
748.000000	38.634065
747.000000	38.607440
746.000000	38.584213
745.000000	38.619356
744.000000	38.622620
743.000000	38.578348
742.000000	38.611496
741.000000	38.625566
740.000000	38.571799
739.000000	38.572269
738.000000	38.597504
737.000000	38.588100
736.000000	38.599571
735.000000	38.628270
734.000000	38.614164
733.000000	38.602079
732.000000	38.606733
731.000000	38.574551
730.000000	38.546973
729.000000	38.599901
728.000000	38.631302
727.000000	38.599062
726.000000	38.584538
725.000000	38.573111
724.000000	38.564005
723.000000	38.600970
722.000000	38.618582
721.000000	38.631970
720.000000	38.615267
719.000000	38.619940
718.000000	38.621410
717.000000	38.578458
716.000000	38.523554
715.000000	38.533367
714.000000	38.541822
713.000000	38.525112
712.000000	38.529091
711.000000	38.538709
710.000000	38.507396
709.000000	38.495756
708.000000	38.488812
707.000000	38.505841
706.000000	38.523285
705.000000	38.522588
704.000000	38.539641
703.000000	38.549413
702.000000	38.493799
701.000000	38.452517
700.000000	38.475636
699.000000	38.493491
698.000000	38.477902
697.000000	38.462983
696.000000	38.458141
695.000000	38.500526
694.000000	38.536123
693.000000	38.459796
692.000000	38.459457
691.000000	38.498894
690.000000	38.480467
689.000000	38.412477
688.000000	38.406929
687.000000	38.400323
686.000000	38.432243
685.000000	38.413531
684.000000	38.371460
683.000000	38.349543
682.000000	38.321463
681.000000	38.342826
680.000000	38.341337
679.000000	38.337586
678.000000	38.357250
677.000000	38.332028
676.000000	38.308718
675.000000	38.319752
674.000000	38.327263
673.000000	38.293487
672.000000	38.314125
671.000000	38.321150
670.000000	38.296238
669.000000	38.328869
668.000000	38.304272
667.000000	38.291690
666.000000	38.289403
665.000000	38.256249
664.000000	38.263278
663.000000	38.274026
662.000000	38.288130
661.000000	38.266601
660.000000	38.232022
659.000000	38.218742
658.000000	38.194441
657.000000	38.276644
656.000000	38.243855
655.000000	38.189571
654.000000	38.193857
653.000000	38.196914
652.000000	38.187939
651.000000	38.192440
650.000000	38.178419
649.000000	38.146022
648.000000	38.150288
647.000000	38.154185
646.000000	38.157785
645.000000	38.142779
644.000000	38.151103
643.000000	38.124199
642.000000	38.113671
641.000000	38.119311
640.000000	38.101530
639.000000	38.122012
638.000000	38.094617
637.000000	38.072532
636.000000	38.070958
635.000000	38.045847
634.000000	38.001029
633.000000	38.014349
632.000000	38.002907
631.000000	38.017458
630.000000	38.050323
629.000000	37.978370
628.000000	37.983170
627.000000	37.996311
626.000000	37.955437
625.000000	37.906595
624.000000	37.953458
623.000000	37.906798
622.000000	37.891771
621.000000	37.872933
620.000000	37.868812
619.000000	37.891106
618.000000	37.884127
617.000000	37.904425
616.000000	37.837379
615.000000	37.824677
614.000000	37.822173
613.000000	37.802870
612.000000	37.798158
611.000000	37.778549
610.000000	37.814945
609.000000	37.720368
608.000000	37.704076
607.000000	37.729907
606.000000	37.716531
605.000000	37.722410
604.000000	37.667626
603.000000	37.661639
602.000000	37.625961
601.000000	37.664787
600.000000	37.612111
599.000000	37.575633
598.000000	37.592604
597.000000	37.592387
596.000000	37.598414
595.000000	37.573348
594.000000	37.559915
593.000000	37.516898
592.000000	37.535351
591.000000	37.464463
590.000000	37.442085
589.000000	37.472417
588.000000	37.457975
587.000000	37.438719
586.000000	37.383721
585.000000	37.398090
584.000000	37.354633
583.000000	37.343038
582.000000	37.352393
581.000000	37.337396
580.000000	37.293908
579.000000	37.301084
578.000000	37.217113
577.000000	37.203156
576.000000	37.216783
575.000000	37.217631
574.000000	37.169325
573.000000	37.171135
572.000000	37.119638
571.000000	37.111247
570.000000	37.070058
569.000000	37.114244
568.000000	37.050422
567.000000	37.025629
566.000000	37.033468
565.000000	36.993686
564.000000	36.964646
563.000000	36.933529
562.000000	36.923483
561.000000	36.933463
560.000000	36.870565
559.000000	36.851852
558.000000	36.837519
557.000000	36.819010
556.000000	36.804429
555.000000	36.761973
554.000000	36.758303
553.000000	36.736558
552.000000	36.688468
551.000000	36.668609
550.000000	36.627085
549.000000	36.588940
548.000000	36.590053
547.000000	36.548704
546.000000	36.518809
545.000000	36.505213
544.000000	36.495017
543.000000	36.443801
542.000000	36.415955
541.000000	36.409656
540.000000	36.341848
539.000000	36.321304
538.000000	36.303067
537.000000	36.280260
536.000000	36.242837
535.000000	36.233151
534.000000	36.183728
533.000000	36.144184
532.000000	36.113165
531.000000	36.102891
530.000000	36.052700
529.000000	36.047498
528.000000	35.975784
527.000000	35.930013
526.000000	35.908400
525.000000	35.864172
524.000000	35.840703
523.000000	35.824519
522.000000	35.771966
521.000000	35.720862
520.000000	35.700301
519.000000	35.654237
518.000000	35.616285
517.000000	35.576237
516.000000	35.514734
515.000000	35.481176
514.000000	35.466121
513.000000	35.395973
512.000000	35.365923
511.000000	35.348436
510.000000	35.273467
509.000000	35.252631
508.000000	35.193243
507.000000	35.161434
506.000000	35.080027
505.000000	35.048988
504.000000	35.024586
503.000000	34.979986
502.000000	34.937208
501.000000	34.887206
500.000000	34.860612
499.000000	34.803954
498.000000	34.756111
497.000000	34.714589
496.000000	34.640520
495.000000	34.551191
494.000000	34.501076
493.000000	34.495479
492.000000	34.444904
491.000000	34.397556
490.000000	34.334792
489.000000	34.253049
488.000000	34.184616
487.000000	34.155304
486.000000	34.111366
485.000000	34.062462
484.000000	34.019307
483.000000	33.941724
482.000000	33.877559
481.000000	33.826299
480.000000	33.773885
479.000000	33.695250
478.000000	33.639875
477.000000	33.608301
476.000000	33.529605
475.000000	33.446175
474.000000	33.367673
473.000000	33.299177
472.000000	33.246965
471.000000	33.172808
470.000000	33.100657
469.000000	33.034038
468.000000	32.936818
467.000000	32.881762
466.000000	32.823355
465.000000	32.726825
464.000000	32.666169
463.000000	32.578925
462.000000	32.483763
461.000000	32.420642
460.000000	32.307341
459.000000	32.204995
458.000000	32.128108
457.000000	32.024578
456.000000	31.913083
455.000000	31.821923
454.000000	31.728094
453.000000	31.606680
452.000000	31.502161
451.000000	31.386187
450.000000	31.282615
449.000000	31.177354
448.000000	31.038022
447.000000	30.938722
446.000000	30.848797
445.000000	30.721678
444.000000	30.596586
443.000000	30.488289
442.000000	30.368877
441.000000	30.224535
440.000000	30.141688
439.000000	30.015081
438.000000	29.858457
437.000000	29.747735
436.000000	29.648603
435.000000	29.507860
434.000000	29.356265
433.000000	29.234053
432.000000	29.126045
431.000000	28.986530
430.000000	28.835265
429.000000	28.685584
428.000000	28.572654
427.000000	28.439642
426.000000	28.289789
425.000000	28.140926
424.000000	27.993768
423.000000	27.816520
422.000000	27.667034
421.000000	27.537437
420.000000	27.372332
419.000000	27.201417
418.000000	27.032789
417.000000	26.849863
416.000000	26.720092
415.000000	26.558350
414.000000	26.367448
413.000000	26.193373
412.000000	25.997939
411.000000	25.850087
410.000000	25.664974
409.000000	25.492049
408.000000	25.324491
407.000000	25.117582
406.000000	24.914481
405.000000	24.737071
404.000000	24.543275
403.000000	24.366194
402.000000	24.158289
401.000000	23.983654
400.000000	23.825747
399.000000	23.595110
398.000000	23.384044
397.000000	23.203619
396.000000	23.014563
395.000000	22.815369
394.000000	22.597876
393.000000	22.388789
392.000000	22.201526
391.000000	22.000252
390.000000	21.814442
389.000000	21.628374
388.000000	21.365418
387.000000	21.160983
386.000000	20.972886
385.000000	20.761198
384.000000	20.501104
383.000000	20.293680
382.000000	20.077587
381.000000	19.867885
380.000000	19.636119
379.000000	19.394745
378.000000	19.168289
377.000000	18.961128
376.000000	18.745144
375.000000	18.535533
374.000000	18.268660
373.000000	17.991899
372.000000	17.897828
371.000000	17.571218
370.000000	17.284730
369.000000	17.107508
368.000000	16.881960
367.000000	16.688528
366.000000	16.407513
365.000000	16.078539
364.000000	15.932481
363.000000	15.638111
362.000000	15.426669
361.000000	15.180173
360.000000	14.967918
359.000000	14.725891
358.000000	14.481287
357.000000	14.205218
356.000000	13.935408
355.000000	13.755133
354.000000	13.509462
353.000000	13.338913
352.000000	13.090485
351.000000	12.832815
350.000000	12.639144
349.000000	12.391409
348.000000	12.220634
347.000000	11.959100
346.000000	11.785109
345.000000	11.535644
344.000000	11.332579
343.000000	11.117029
342.000000	10.901468
341.000000	10.691117
340.000000	10.435979
339.000000	10.238028
338.000000	10.073619
337.000000	9.829763
336.000000	9.584677
335.000000	9.480419
334.000000	9.216986
333.000000	8.980599
332.000000	8.701351
331.000000	8.495391
330.000000	8.295246
329.000000	8.086018
328.000000	7.841571
327.000000	7.642916
326.000000	7.395682
325.000000	7.223989
324.000000	6.975740
323.000000	6.793815
322.000000	6.595518
321.000000	6.345227
320.000000	6.158479
319.000000	5.850483
318.000000	5.754783
317.000000	5.550944
316.000000	5.326586
315.000000	5.162530
314.000000	4.919287
313.000000	4.749099
312.000000	4.581219
311.000000	4.417592
310.000000	4.251613
309.000000	4.042903
308.000000	3.897936
307.000000	3.714575
306.000000	3.571475
305.000000	3.417582
304.000000	3.261033
303.000000	3.143311
302.000000	3.003957
301.000000	2.827926
300.000000	2.666662
299.000000	2.501318
298.000000	2.358756
297.000000	2.188244
296.000000	2.003613
295.000000	1.856428
294.000000	1.678935
293.000000	1.517606
292.000000	1.365325
291.000000	1.202802
290.000000	1.071457
289.000000	0.979591
288.000000	0.904629
287.000000	0.866207
286.000000	0.832615
285.000000	0.824438
284.000000	0.808844
283.000000	0.799422
282.000000	0.793207
281.000000	0.792753
280.000000	0.794539
279.000000	0.785068
278.000000	0.786281
277.000000	0.795940
276.000000	0.797873
275.000000	0.807047
274.000000	0.811813
273.000000	0.837740
272.000000	0.852260
271.000000	0.862194
270.000000	0.869872
269.000000	0.866213
268.000000	0.863043
267.000000	0.897221
266.000000	0.923944
265.000000	0.947258
264.000000	0.960012
263.000000	0.964688
262.000000	0.988793
261.000000	1.003242
260.000000	1.027282
259.000000	1.052386
258.000000	1.066919
257.000000	1.080182
256.000000	1.094645
255.000000	1.113111
254.000000	1.117645
253.000000	1.117150
252.000000	1.113585
251.000000	1.108173
250.000000	1.094840
249.000000	1.090263
248.000000	1.074258
247.000000	1.066860
246.000000	1.053375
245.000000	1.007271
244.000000	0.981952
243.000000	0.965116
242.000000	0.931815
241.000000	0.903516
240.000000	0.877442
239.000000	0.842990
238.000000	0.808645
237.000000	0.780605
236.000000	0.753570
235.000000	0.712392
234.000000	0.664057
233.000000	0.647698
232.000000	0.600939
231.000000	0.543387
230.000000	0.508264
229.000000	0.470023
228.000000	0.427550
227.000000	0.390040
226.000000	0.357176
225.000000	0.327496
224.000000	0.304137
223.000000	0.285389
222.000000	0.267973
221.000000	0.254119
220.000000	0.238315
219.000000	0.224230
218.000000	0.206400
217.000000	0.205686
216.000000	0.225085
215.000000	0.212005
214.000000	0.193639
213.000000	0.182064
212.000000	0.172066
211.000000	0.175606
210.000000	0.172958
209.000000	0.175106
208.000000	0.153782
207.000000	0.156705
206.000000	0.178378
205.000000	0.202100
204.000000	0.193891
203.000000	0.209150
202.000000	0.230255
201.000000	0.265953
200.000000	0.332820
