PE UV       SUBTECH     SPECTRUM    ASCII       PEDS        4.00        
   -1
TTms148351.Sample.asc
18/03/13
16:19:09.00
18/03/13
16:19:09.00
Administrator

200.000000
1
Lambda 750
750N8071901
PerkinElmer UV WinLab 6.0.4.0738 / 1.61.00 Lambda 900

0
0
3350/servo 860.8/2
0
0
UV/VIS
1
1
1
CommonBeamDepol,150mm sphere / downward view
0
0
0
0
Program
Program
3350/servo 860.8/2
3350/0.2 860.8/0.2
3350/0.2 860.8/0.2
0
1
 
 
 
0
 
860.8
319.2
860.8
Front
100
on
 
 
0
0
0
 
0
 
 
 
0
 
 
0
0
0
0
0
 
 
 
 
0
0


0
0
#HDR
-1
-1
#GR
nm
%T
1.0
0.0
2350.000000
-1.000000
2151
8
9.891289
-0.009436
#DATA
2350.000000	3.865678
2349.000000	3.314454
2348.000000	2.953481
2347.000000	3.375949
2346.000000	3.655864
2345.000000	3.161910
2344.000000	3.444869
2343.000000	3.531588
2342.000000	3.320394
2341.000000	3.481943
2340.000000	3.507599
2339.000000	3.543298
2338.000000	3.759332
2337.000000	4.008226
2336.000000	4.035577
2335.000000	4.235852
2334.000000	4.321401
2333.000000	4.454641
2332.000000	4.479271
2331.000000	4.230686
2330.000000	4.310219
2329.000000	3.774905
2328.000000	4.258359
2327.000000	3.924965
2326.000000	3.877715
2325.000000	4.125531
2324.000000	4.050679
2323.000000	4.032757
2322.000000	3.996689
2321.000000	3.930307
2320.000000	3.806236
2319.000000	3.869466
2318.000000	3.950996
2317.000000	4.060231
2316.000000	4.108257
2315.000000	3.884264
2314.000000	3.684754
2313.000000	3.725916
2312.000000	3.686371
2311.000000	3.528834
2310.000000	3.599819
2309.000000	3.711577
2308.000000	3.540906
2307.000000	3.518359
2306.000000	3.583964
2305.000000	3.578037
2304.000000	3.569863
2303.000000	3.614892
2302.000000	3.693150
2301.000000	3.453684
2300.000000	3.487413
2299.000000	3.464738
2298.000000	3.324156
2297.000000	3.455116
2296.000000	3.619198
2295.000000	3.552666
2294.000000	3.503632
2293.000000	3.512221
2292.000000	3.583243
2291.000000	3.589415
2290.000000	3.640814
2289.000000	3.683965
2288.000000	3.662657
2287.000000	3.627762
2286.000000	3.601433
2285.000000	3.467473
2284.000000	3.356300
2283.000000	3.390822
2282.000000	3.485644
2281.000000	3.405184
2280.000000	3.443561
2279.000000	3.604820
2278.000000	3.443382
2277.000000	3.389600
2276.000000	3.533647
2275.000000	3.432429
2274.000000	3.489350
2273.000000	3.578314
2272.000000	3.595978
2271.000000	3.664254
2270.000000	3.590302
2269.000000	3.603992
2268.000000	3.673494
2267.000000	3.429947
2266.000000	3.483387
2265.000000	3.638920
2264.000000	3.721938
2263.000000	3.804272
2262.000000	3.720458
2261.000000	3.648960
2260.000000	3.779644
2259.000000	3.940472
2258.000000	3.983052
2257.000000	3.976067
2256.000000	3.899511
2255.000000	3.850491
2254.000000	3.967712
2253.000000	3.931954
2252.000000	4.041842
2251.000000	4.198087
2250.000000	4.230097
2249.000000	4.285355
2248.000000	4.317762
2247.000000	4.372976
2246.000000	4.497708
2245.000000	4.469559
2244.000000	4.437782
2243.000000	4.567924
2242.000000	4.562749
2241.000000	4.569510
2240.000000	4.539421
2239.000000	4.539032
2238.000000	4.622773
2237.000000	4.680400
2236.000000	4.715244
2235.000000	4.701082
2234.000000	4.723969
2233.000000	4.763611
2232.000000	4.691622
2231.000000	4.752430
2230.000000	4.840439
2229.000000	4.841042
2228.000000	4.828623
2227.000000	4.867512
2226.000000	4.861085
2225.000000	4.867091
2224.000000	4.775139
2223.000000	4.809809
2222.000000	4.829720
2221.000000	4.804643
2220.000000	4.875405
2219.000000	4.802634
2218.000000	4.674540
2217.000000	4.691159
2216.000000	4.847128
2215.000000	4.882240
2214.000000	4.892294
2213.000000	4.861905
2212.000000	4.741508
2211.000000	4.662423
2210.000000	4.623157
2209.000000	4.671086
2208.000000	4.705125
2207.000000	4.711651
2206.000000	4.598298
2205.000000	4.592218
2204.000000	4.610555
2203.000000	4.486990
2202.000000	4.534126
2201.000000	4.678551
2200.000000	4.609448
2199.000000	4.448830
2198.000000	4.443703
2197.000000	4.583681
2196.000000	4.460327
2195.000000	4.384373
2194.000000	4.359241
2193.000000	4.330088
2192.000000	4.371363
2191.000000	4.363687
2190.000000	4.327404
2189.000000	4.346192
2188.000000	4.379851
2187.000000	4.205603
2186.000000	4.175997
2185.000000	4.338591
2184.000000	4.341517
2183.000000	4.311224
2182.000000	4.276608
2181.000000	4.068901
2180.000000	4.295179
2179.000000	4.349988
2178.000000	4.217309
2177.000000	4.291124
2176.000000	4.267304
2175.000000	4.168430
2174.000000	4.129673
2173.000000	4.160060
2172.000000	4.249699
2171.000000	4.255700
2170.000000	4.197326
2169.000000	4.230673
2168.000000	4.314691
2167.000000	4.345557
2166.000000	4.288148
2165.000000	4.423861
2164.000000	4.191046
2163.000000	4.362094
2162.000000	4.468610
2161.000000	4.328410
2160.000000	4.429446
2159.000000	4.491590
2158.000000	4.476217
2157.000000	4.526514
2156.000000	4.464269
2155.000000	4.699753
2154.000000	4.649576
2153.000000	4.631036
2152.000000	4.742488
2151.000000	4.570190
2150.000000	4.603446
2149.000000	4.658269
2148.000000	4.569173
2147.000000	4.762694
2146.000000	4.794688
2145.000000	4.724081
2144.000000	4.750921
2143.000000	4.974549
2142.000000	4.804512
2141.000000	5.135636
2140.000000	4.905749
2139.000000	5.038188
2138.000000	5.029474
2137.000000	4.986458
2136.000000	5.014522
2135.000000	4.946031
2134.000000	5.172594
2133.000000	4.912016
2132.000000	5.086291
2131.000000	5.229715
2130.000000	5.241071
2129.000000	5.047265
2128.000000	5.012995
2127.000000	5.065253
2126.000000	5.009980
2125.000000	4.929888
2124.000000	4.971276
2123.000000	5.079698
2122.000000	5.156251
2121.000000	5.160494
2120.000000	4.976250
2119.000000	5.058066
2118.000000	5.066027
2117.000000	5.138338
2116.000000	5.133804
2115.000000	5.157915
2114.000000	5.180847
2113.000000	5.171888
2112.000000	5.216033
2111.000000	5.221173
2110.000000	5.212890
2109.000000	5.223775
2108.000000	5.085435
2107.000000	5.234628
2106.000000	5.248644
2105.000000	5.224154
2104.000000	5.176588
2103.000000	5.204664
2102.000000	5.289283
2101.000000	5.372043
2100.000000	5.315206
2099.000000	5.197646
2098.000000	5.118883
2097.000000	5.103997
2096.000000	5.140256
2095.000000	5.136399
2094.000000	5.294833
2093.000000	5.112576
2092.000000	5.091246
2091.000000	5.093579
2090.000000	5.157680
2089.000000	5.238948
2088.000000	5.236320
2087.000000	5.253753
2086.000000	5.184957
2085.000000	5.084951
2084.000000	5.111467
2083.000000	5.105645
2082.000000	5.092588
2081.000000	5.035626
2080.000000	5.013418
2079.000000	5.031672
2078.000000	4.995737
2077.000000	4.910049
2076.000000	4.822348
2075.000000	4.852820
2074.000000	4.877098
2073.000000	4.876738
2072.000000	4.892584
2071.000000	4.808302
2070.000000	4.791707
2069.000000	4.793957
2068.000000	4.770939
2067.000000	4.696704
2066.000000	4.595492
2065.000000	4.590108
2064.000000	4.583896
2063.000000	4.580653
2062.000000	4.569948
2061.000000	4.511166
2060.000000	4.424594
2059.000000	4.415455
2058.000000	4.376390
2057.000000	4.346345
2056.000000	4.279680
2055.000000	4.271009
2054.000000	4.195810
2053.000000	4.146094
2052.000000	4.140770
2051.000000	4.121169
2050.000000	4.088201
2049.000000	4.076091
2048.000000	4.068841
2047.000000	4.046985
2046.000000	4.023461
2045.000000	4.030850
2044.000000	4.043961
2043.000000	3.991543
2042.000000	3.971117
2041.000000	4.009020
2040.000000	4.021219
2039.000000	3.962282
2038.000000	3.979539
2037.000000	3.974749
2036.000000	3.963614
2035.000000	3.986592
2034.000000	4.008268
2033.000000	4.038190
2032.000000	4.037025
2031.000000	4.011807
2030.000000	4.033527
2029.000000	4.086160
2028.000000	4.103958
2027.000000	4.143622
2026.000000	4.208074
2025.000000	4.203317
2024.000000	4.194223
2023.000000	4.200664
2022.000000	4.240866
2021.000000	4.223191
2020.000000	4.175137
2019.000000	4.150880
2018.000000	4.158885
2017.000000	4.202453
2016.000000	4.203977
2015.000000	4.209659
2014.000000	4.208568
2013.000000	4.202627
2012.000000	4.174275
2011.000000	4.148254
2010.000000	4.135702
2009.000000	4.105054
2008.000000	4.115097
2007.000000	4.121201
2006.000000	4.087131
2005.000000	4.049636
2004.000000	3.992010
2003.000000	3.988698
2002.000000	3.971033
2001.000000	3.945367
2000.000000	3.905881
1999.000000	3.904887
1998.000000	3.893925
1997.000000	3.868860
1996.000000	3.882460
1995.000000	3.838905
1994.000000	3.800116
1993.000000	3.813563
1992.000000	3.759999
1991.000000	3.700466
1990.000000	3.678571
1989.000000	3.629593
1988.000000	3.606646
1987.000000	3.611157
1986.000000	3.616984
1985.000000	3.563578
1984.000000	3.539349
1983.000000	3.532537
1982.000000	3.505576
1981.000000	3.519430
1980.000000	3.507939
1979.000000	3.437927
1978.000000	3.406198
1977.000000	3.388458
1976.000000	3.358670
1975.000000	3.348596
1974.000000	3.327456
1973.000000	3.333792
1972.000000	3.312689
1971.000000	3.270945
1970.000000	3.295221
1969.000000	3.286759
1968.000000	3.274145
1967.000000	3.272793
1966.000000	3.241037
1965.000000	3.261382
1964.000000	3.194138
1963.000000	3.149387
1962.000000	3.150043
1961.000000	3.087507
1960.000000	3.076778
1959.000000	3.085267
1958.000000	3.112433
1957.000000	3.101247
1956.000000	3.080170
1955.000000	3.097025
1954.000000	3.108489
1953.000000	3.101086
1952.000000	3.059410
1951.000000	3.110930
1950.000000	3.056442
1949.000000	3.017296
1948.000000	3.051760
1947.000000	3.076833
1946.000000	3.062941
1945.000000	3.048747
1944.000000	3.070186
1943.000000	3.103178
1942.000000	3.097386
1941.000000	3.064538
1940.000000	3.100101
1939.000000	3.069285
1938.000000	3.098319
1937.000000	3.097416
1936.000000	3.135543
1935.000000	3.225152
1934.000000	3.277458
1933.000000	3.234470
1932.000000	3.285240
1931.000000	3.250573
1930.000000	3.324589
1929.000000	3.304958
1928.000000	3.316167
1927.000000	3.403587
1926.000000	3.334039
1925.000000	3.444102
1924.000000	3.494669
1923.000000	3.576921
1922.000000	3.635691
1921.000000	3.662816
1920.000000	3.697521
1919.000000	3.713044
1918.000000	3.792077
1917.000000	3.870154
1916.000000	3.857385
1915.000000	4.002356
1914.000000	4.101822
1913.000000	4.200657
1912.000000	4.237512
1911.000000	4.248549
1910.000000	4.398330
1909.000000	4.470026
1908.000000	4.565121
1907.000000	4.659991
1906.000000	4.773118
1905.000000	4.839929
1904.000000	4.870646
1903.000000	5.024767
1902.000000	5.146649
1901.000000	5.237770
1900.000000	5.386237
1899.000000	5.487249
1898.000000	5.697246
1897.000000	5.759030
1896.000000	5.867719
1895.000000	5.980357
1894.000000	6.069413
1893.000000	6.218256
1892.000000	6.382938
1891.000000	6.501363
1890.000000	6.660290
1889.000000	6.734775
1888.000000	6.840076
1887.000000	6.952693
1886.000000	7.070799
1885.000000	7.172495
1884.000000	7.314153
1883.000000	7.472952
1882.000000	7.520008
1881.000000	7.640685
1880.000000	7.745923
1879.000000	7.787593
1878.000000	7.900671
1877.000000	8.009798
1876.000000	8.081043
1875.000000	8.175634
1874.000000	8.283406
1873.000000	8.311384
1872.000000	8.366700
1871.000000	8.434346
1870.000000	8.490757
1869.000000	8.566851
1868.000000	8.588747
1867.000000	8.567709
1866.000000	8.563231
1865.000000	8.591160
1864.000000	8.656739
1863.000000	8.628169
1862.000000	8.647014
1861.000000	8.634122
1860.000000	8.672736
1859.000000	8.669314
1858.000000	8.653409
1857.000000	8.657743
1856.000000	8.678781
1855.000000	8.736432
1854.000000	8.795658
1853.000000	8.781744
1852.000000	8.773240
1851.000000	8.831099
1850.000000	8.821076
1849.000000	8.770973
1848.000000	8.769958
1847.000000	8.794424
1846.000000	8.751502
1845.000000	8.772093
1844.000000	8.749682
1843.000000	8.724725
1842.000000	8.741168
1841.000000	8.744789
1840.000000	8.748540
1839.000000	8.744527
1838.000000	8.733342
1837.000000	8.701720
1836.000000	8.665012
1835.000000	8.597507
1834.000000	8.588001
1833.000000	8.587868
1832.000000	8.569770
1831.000000	8.552823
1830.000000	8.532055
1829.000000	8.513894
1828.000000	8.511567
1827.000000	8.493659
1826.000000	8.487177
1825.000000	8.471484
1824.000000	8.466144
1823.000000	8.438524
1822.000000	8.408316
1821.000000	8.398153
1820.000000	8.378305
1819.000000	8.353900
1818.000000	8.350095
1817.000000	8.328335
1816.000000	8.333418
1815.000000	8.336005
1814.000000	8.317798
1813.000000	8.309653
1812.000000	8.311548
1811.000000	8.309579
1810.000000	8.306203
1809.000000	8.292355
1808.000000	8.269879
1807.000000	8.242742
1806.000000	8.237892
1805.000000	8.250762
1804.000000	8.245721
1803.000000	8.229323
1802.000000	8.220595
1801.000000	8.221514
1800.000000	8.218809
1799.000000	8.218445
1798.000000	8.205086
1797.000000	8.191935
1796.000000	8.188994
1795.000000	8.189315
1794.000000	8.209332
1793.000000	8.209842
1792.000000	8.198763
1791.000000	8.210200
1790.000000	8.202372
1789.000000	8.196847
1788.000000	8.204524
1787.000000	8.206356
1786.000000	8.219325
1785.000000	8.202909
1784.000000	8.182924
1783.000000	8.182874
1782.000000	8.188088
1781.000000	8.182686
1780.000000	8.167630
1779.000000	8.170287
1778.000000	8.171218
1777.000000	8.138894
1776.000000	8.130477
1775.000000	8.088063
1774.000000	8.072119
1773.000000	8.074633
1772.000000	8.038514
1771.000000	8.031945
1770.000000	8.020295
1769.000000	7.996488
1768.000000	7.980471
1767.000000	7.960303
1766.000000	7.955251
1765.000000	7.961925
1764.000000	7.917381
1763.000000	7.884494
1762.000000	7.868392
1761.000000	7.870790
1760.000000	7.833233
1759.000000	7.801694
1758.000000	7.796255
1757.000000	7.786350
1756.000000	7.789492
1755.000000	7.769848
1754.000000	7.771403
1753.000000	7.738045
1752.000000	7.744115
1751.000000	7.741541
1750.000000	7.697151
1749.000000	7.706928
1748.000000	7.698468
1747.000000	7.669720
1746.000000	7.620274
1745.000000	7.602324
1744.000000	7.606534
1743.000000	7.565163
1742.000000	7.561709
1741.000000	7.567759
1740.000000	7.545935
1739.000000	7.532507
1738.000000	7.508229
1737.000000	7.500906
1736.000000	7.485608
1735.000000	7.459477
1734.000000	7.472017
1733.000000	7.462681
1732.000000	7.400435
1731.000000	7.433359
1730.000000	7.438769
1729.000000	7.434010
1728.000000	7.439895
1727.000000	7.462702
1726.000000	7.469569
1725.000000	7.482356
1724.000000	7.482627
1723.000000	7.518069
1722.000000	7.534832
1721.000000	7.548170
1720.000000	7.567763
1719.000000	7.607807
1718.000000	7.635649
1717.000000	7.651434
1716.000000	7.691490
1715.000000	7.679039
1714.000000	7.709263
1713.000000	7.730315
1712.000000	7.738359
1711.000000	7.799316
1710.000000	7.764803
1709.000000	7.796199
1708.000000	7.810422
1707.000000	7.823826
1706.000000	7.830289
1705.000000	7.854423
1704.000000	7.861028
1703.000000	7.895248
1702.000000	7.881213
1701.000000	7.883991
1700.000000	7.899164
1699.000000	7.855037
1698.000000	7.912038
1697.000000	7.928931
1696.000000	7.931978
1695.000000	7.927567
1694.000000	7.959218
1693.000000	7.955576
1692.000000	7.954118
1691.000000	7.977192
1690.000000	7.992814
1689.000000	8.050965
1688.000000	8.031983
1687.000000	8.078475
1686.000000	8.122244
1685.000000	8.130080
1684.000000	8.168443
1683.000000	8.216497
1682.000000	8.249798
1681.000000	8.302009
1680.000000	8.330904
1679.000000	8.368857
1678.000000	8.391196
1677.000000	8.439431
1676.000000	8.470153
1675.000000	8.528083
1674.000000	8.552885
1673.000000	8.595217
1672.000000	8.649966
1671.000000	8.691049
1670.000000	8.695692
1669.000000	8.753957
1668.000000	8.777686
1667.000000	8.820152
1666.000000	8.828820
1665.000000	8.831089
1664.000000	8.858410
1663.000000	8.860480
1662.000000	8.893075
1661.000000	8.918905
1660.000000	8.923478
1659.000000	8.950014
1658.000000	8.961149
1657.000000	8.982206
1656.000000	8.988992
1655.000000	9.001864
1654.000000	8.998458
1653.000000	9.016182
1652.000000	9.021368
1651.000000	9.011271
1650.000000	9.012899
1649.000000	9.021757
1648.000000	9.000763
1647.000000	8.985544
1646.000000	8.980790
1645.000000	8.983389
1644.000000	8.963406
1643.000000	8.963712
1642.000000	8.950024
1641.000000	8.951094
1640.000000	8.936894
1639.000000	8.920899
1638.000000	8.909723
1637.000000	8.904597
1636.000000	8.889253
1635.000000	8.880073
1634.000000	8.868562
1633.000000	8.855990
1632.000000	8.846957
1631.000000	8.823175
1630.000000	8.795706
1629.000000	8.790918
1628.000000	8.778676
1627.000000	8.768877
1626.000000	8.752120
1625.000000	8.736855
1624.000000	8.738628
1623.000000	8.718858
1622.000000	8.698462
1621.000000	8.686502
1620.000000	8.667584
1619.000000	8.645786
1618.000000	8.634831
1617.000000	8.625188
1616.000000	8.608919
1615.000000	8.584182
1614.000000	8.570122
1613.000000	8.564597
1612.000000	8.538846
1611.000000	8.524178
1610.000000	8.504193
1609.000000	8.493518
1608.000000	8.480495
1607.000000	8.471614
1606.000000	8.454102
1605.000000	8.436240
1604.000000	8.415881
1603.000000	8.386283
1602.000000	8.369373
1601.000000	8.355805
1600.000000	8.343793
1599.000000	8.317067
1598.000000	8.298120
1597.000000	8.297862
1596.000000	8.277549
1595.000000	8.263334
1594.000000	8.261898
1593.000000	8.252774
1592.000000	8.241865
1591.000000	8.232744
1590.000000	8.207937
1589.000000	8.179454
1588.000000	8.174533
1587.000000	8.170799
1586.000000	8.156560
1585.000000	8.133654
1584.000000	8.117434
1583.000000	8.117084
1582.000000	8.105701
1581.000000	8.091949
1580.000000	8.081782
1579.000000	8.070438
1578.000000	8.067085
1577.000000	8.055912
1576.000000	8.037131
1575.000000	8.021278
1574.000000	7.997682
1573.000000	7.978971
1572.000000	7.972982
1571.000000	7.952811
1570.000000	7.942974
1569.000000	7.924933
1568.000000	7.905962
1567.000000	7.905239
1566.000000	7.899979
1565.000000	7.878347
1564.000000	7.846888
1563.000000	7.836666
1562.000000	7.838966
1561.000000	7.830934
1560.000000	7.807252
1559.000000	7.793148
1558.000000	7.786412
1557.000000	7.783413
1556.000000	7.784021
1555.000000	7.771417
1554.000000	7.745715
1553.000000	7.744113
1552.000000	7.726491
1551.000000	7.712562
1550.000000	7.700308
1549.000000	7.693932
1548.000000	7.678539
1547.000000	7.663498
1546.000000	7.644080
1545.000000	7.611853
1544.000000	7.593540
1543.000000	7.569502
1542.000000	7.553063
1541.000000	7.538841
1540.000000	7.510958
1539.000000	7.472825
1538.000000	7.450032
1537.000000	7.418119
1536.000000	7.392671
1535.000000	7.360498
1534.000000	7.342618
1533.000000	7.311564
1532.000000	7.287573
1531.000000	7.274131
1530.000000	7.256589
1529.000000	7.244340
1528.000000	7.288070
1527.000000	7.325370
1526.000000	7.343803
1525.000000	7.324425
1524.000000	7.280520
1523.000000	7.216797
1522.000000	7.172704
1521.000000	7.146293
1520.000000	7.119936
1519.000000	7.091423
1518.000000	7.103566
1517.000000	7.127342
1516.000000	7.116973
1515.000000	7.101769
1514.000000	7.078591
1513.000000	7.073293
1512.000000	7.039761
1511.000000	7.025816
1510.000000	7.039523
1509.000000	7.039268
1508.000000	7.019505
1507.000000	7.000089
1506.000000	6.977341
1505.000000	6.969377
1504.000000	6.948943
1503.000000	6.954371
1502.000000	6.953312
1501.000000	6.927407
1500.000000	6.937555
1499.000000	6.928555
1498.000000	6.923402
1497.000000	6.922425
1496.000000	6.925694
1495.000000	6.917750
1494.000000	6.917881
1493.000000	6.926786
1492.000000	6.927431
1491.000000	6.929570
1490.000000	6.929982
1489.000000	6.932221
1488.000000	6.945558
1487.000000	6.957082
1486.000000	6.949451
1485.000000	6.952153
1484.000000	6.965902
1483.000000	6.952223
1482.000000	6.968461
1481.000000	6.960233
1480.000000	6.975031
1479.000000	6.987886
1478.000000	6.991495
1477.000000	7.004147
1476.000000	6.995378
1475.000000	7.003474
1474.000000	7.006088
1473.000000	7.001378
1472.000000	6.990914
1471.000000	6.994184
1470.000000	7.007260
1469.000000	7.007250
1468.000000	7.005792
1467.000000	7.041770
1466.000000	7.046351
1465.000000	7.058202
1464.000000	7.056532
1463.000000	7.050275
1462.000000	7.078168
1461.000000	7.095329
1460.000000	7.102475
1459.000000	7.100123
1458.000000	7.088391
1457.000000	7.124425
1456.000000	7.142626
1455.000000	7.119641
1454.000000	7.126496
1453.000000	7.133867
1452.000000	7.172689
1451.000000	7.185095
1450.000000	7.189063
1449.000000	7.198303
1448.000000	7.203844
1447.000000	7.206604
1446.000000	7.221621
1445.000000	7.281945
1444.000000	7.305784
1443.000000	7.313671
1442.000000	7.325955
1441.000000	7.331564
1440.000000	7.357022
1439.000000	7.371392
1438.000000	7.369890
1437.000000	7.374554
1436.000000	7.401473
1435.000000	7.429034
1434.000000	7.490225
1433.000000	7.519594
1432.000000	7.549011
1431.000000	7.575170
1430.000000	7.586773
1429.000000	7.613043
1428.000000	7.653465
1427.000000	7.683993
1426.000000	7.696368
1425.000000	7.697734
1424.000000	7.741411
1423.000000	7.787045
1422.000000	7.842484
1421.000000	7.884226
1420.000000	7.924904
1419.000000	7.940918
1418.000000	7.998379
1417.000000	8.056943
1416.000000	8.089439
1415.000000	8.098314
1414.000000	8.162095
1413.000000	8.213268
1412.000000	8.249928
1411.000000	8.302983
1410.000000	8.363276
1409.000000	8.409429
1408.000000	8.448779
1407.000000	8.494125
1406.000000	8.545179
1405.000000	8.594122
1404.000000	8.641018
1403.000000	8.694637
1402.000000	8.744673
1401.000000	8.796480
1400.000000	8.837296
1399.000000	8.879455
1398.000000	8.917485
1397.000000	8.966106
1396.000000	9.012681
1395.000000	9.042835
1394.000000	9.071609
1393.000000	9.109854
1392.000000	9.147653
1391.000000	9.187048
1390.000000	9.212770
1389.000000	9.232884
1388.000000	9.255687
1387.000000	9.272297
1386.000000	9.294262
1385.000000	9.319304
1384.000000	9.340502
1383.000000	9.380262
1382.000000	9.426083
1381.000000	9.444352
1380.000000	9.473042
1379.000000	9.496513
1378.000000	9.492561
1377.000000	9.506303
1376.000000	9.538243
1375.000000	9.545642
1374.000000	9.542291
1373.000000	9.544480
1372.000000	9.544889
1371.000000	9.566482
1370.000000	9.601668
1369.000000	9.614084
1368.000000	9.609601
1367.000000	9.616163
1366.000000	9.626718
1365.000000	9.637172
1364.000000	9.645164
1363.000000	9.650287
1362.000000	9.652364
1361.000000	9.649337
1360.000000	9.657043
1359.000000	9.669395
1358.000000	9.675859
1357.000000	9.664686
1356.000000	9.682330
1355.000000	9.713685
1354.000000	9.741620
1353.000000	9.729726
1352.000000	9.708197
1351.000000	9.725042
1350.000000	9.739083
1349.000000	9.736302
1348.000000	9.748300
1347.000000	9.763546
1346.000000	9.773888
1345.000000	9.785244
1344.000000	9.780999
1343.000000	9.763353
1342.000000	9.768311
1341.000000	9.799015
1340.000000	9.806053
1339.000000	9.799846
1338.000000	9.794738
1337.000000	9.823441
1336.000000	9.834340
1335.000000	9.843050
1334.000000	9.847574
1333.000000	9.836835
1332.000000	9.829119
1331.000000	9.852562
1330.000000	9.871441
1329.000000	9.852780
1328.000000	9.855567
1327.000000	9.857071
1326.000000	9.856957
1325.000000	9.877809
1324.000000	9.863824
1323.000000	9.869499
1322.000000	9.860008
1321.000000	9.849643
1320.000000	9.871175
1319.000000	9.891289
1318.000000	9.865038
1317.000000	9.866587
1316.000000	9.868967
1315.000000	9.880381
1314.000000	9.876808
1313.000000	9.867877
1312.000000	9.837671
1311.000000	9.846380
1310.000000	9.846097
1309.000000	9.852428
1308.000000	9.855978
1307.000000	9.874045
1306.000000	9.854268
1305.000000	9.844246
1304.000000	9.836627
1303.000000	9.851304
1302.000000	9.854301
1301.000000	9.851323
1300.000000	9.842006
1299.000000	9.833357
1298.000000	9.838087
1297.000000	9.816771
1296.000000	9.819735
1295.000000	9.810930
1294.000000	9.806307
1293.000000	9.826357
1292.000000	9.827991
1291.000000	9.812520
1290.000000	9.814200
1289.000000	9.805001
1288.000000	9.817881
1287.000000	9.811833
1286.000000	9.814099
1285.000000	9.771727
1284.000000	9.763561
1283.000000	9.760138
1282.000000	9.782626
1281.000000	9.759195
1280.000000	9.754525
1279.000000	9.757061
1278.000000	9.750370
1277.000000	9.766562
1276.000000	9.739893
1275.000000	9.751846
1274.000000	9.736935
1273.000000	9.737940
1272.000000	9.727184
1271.000000	9.732002
1270.000000	9.726955
1269.000000	9.719049
1268.000000	9.717402
1267.000000	9.692601
1266.000000	9.680741
1265.000000	9.667904
1264.000000	9.685652
1263.000000	9.724405
1262.000000	9.741341
1261.000000	9.723971
1260.000000	9.697186
1259.000000	9.689932
1258.000000	9.676368
1257.000000	9.690560
1256.000000	9.715107
1255.000000	9.719066
1254.000000	9.694625
1253.000000	9.677371
1252.000000	9.671157
1251.000000	9.670781
1250.000000	9.654872
1249.000000	9.662412
1248.000000	9.659111
1247.000000	9.651258
1246.000000	9.661392
1245.000000	9.673645
1244.000000	9.679289
1243.000000	9.679396
1242.000000	9.677533
1241.000000	9.659378
1240.000000	9.623859
1239.000000	9.626145
1238.000000	9.628317
1237.000000	9.620750
1236.000000	9.576857
1235.000000	9.558264
1234.000000	9.557967
1233.000000	9.537640
1232.000000	9.536462
1231.000000	9.526375
1230.000000	9.549408
1229.000000	9.545816
1228.000000	9.507626
1227.000000	9.489247
1226.000000	9.488477
1225.000000	9.498291
1224.000000	9.489831
1223.000000	9.482901
1222.000000	9.475815
1221.000000	9.462768
1220.000000	9.445041
1219.000000	9.442468
1218.000000	9.415329
1217.000000	9.419178
1216.000000	9.399520
1215.000000	9.383490
1214.000000	9.367405
1213.000000	9.356213
1212.000000	9.372692
1211.000000	9.371236
1210.000000	9.358605
1209.000000	9.363134
1208.000000	9.355526
1207.000000	9.336564
1206.000000	9.328594
1205.000000	9.335031
1204.000000	9.299362
1203.000000	9.287021
1202.000000	9.302025
1201.000000	9.279249
1200.000000	9.258852
1199.000000	9.249464
1198.000000	9.266049
1197.000000	9.269886
1196.000000	9.258982
1195.000000	9.239941
1194.000000	9.229113
1193.000000	9.219993
1192.000000	9.209142
1191.000000	9.202625
1190.000000	9.180426
1189.000000	9.150301
1188.000000	9.155855
1187.000000	9.178870
1186.000000	9.169818
1185.000000	9.158173
1184.000000	9.148393
1183.000000	9.149576
1182.000000	9.157892
1181.000000	9.167735
1180.000000	9.176213
1179.000000	9.193932
1178.000000	9.207666
1177.000000	9.216668
1176.000000	9.222559
1175.000000	9.231540
1174.000000	9.237555
1173.000000	9.256370
1172.000000	9.264344
1171.000000	9.268779
1170.000000	9.279103
1169.000000	9.286456
1168.000000	9.293674
1167.000000	9.302656
1166.000000	9.323798
1165.000000	9.331079
1164.000000	9.339645
1163.000000	9.355174
1162.000000	9.365018
1161.000000	9.381734
1160.000000	9.397244
1159.000000	9.401460
1158.000000	9.415338
1157.000000	9.429799
1156.000000	9.415160
1155.000000	9.399970
1154.000000	9.400263
1153.000000	9.412613
1152.000000	9.431165
1151.000000	9.445556
1150.000000	9.470032
1149.000000	9.483547
1148.000000	9.491182
1147.000000	9.501781
1146.000000	9.512423
1145.000000	9.520432
1144.000000	9.524057
1143.000000	9.536110
1142.000000	9.540625
1141.000000	9.541499
1140.000000	9.521427
1139.000000	9.513921
1138.000000	9.525297
1137.000000	9.533890
1136.000000	9.541445
1135.000000	9.550961
1134.000000	9.575243
1133.000000	9.589164
1132.000000	9.588208
1131.000000	9.587679
1130.000000	9.595804
1129.000000	9.605171
1128.000000	9.583851
1127.000000	9.569211
1126.000000	9.562841
1125.000000	9.567843
1124.000000	9.565625
1123.000000	9.573192
1122.000000	9.584424
1121.000000	9.605552
1120.000000	9.602955
1119.000000	9.592345
1118.000000	9.592584
1117.000000	9.593061
1116.000000	9.584714
1115.000000	9.591757
1114.000000	9.584871
1113.000000	9.586922
1112.000000	9.589078
1111.000000	9.577107
1110.000000	9.560716
1109.000000	9.572163
1108.000000	9.583181
1107.000000	9.570233
1106.000000	9.571235
1105.000000	9.571414
1104.000000	9.576221
1103.000000	9.579380
1102.000000	9.545006
1101.000000	9.532377
1100.000000	9.540594
1099.000000	9.550217
1098.000000	9.551846
1097.000000	9.549634
1096.000000	9.539263
1095.000000	9.537851
1094.000000	9.536676
1093.000000	9.511778
1092.000000	9.503002
1091.000000	9.502939
1090.000000	9.511343
1089.000000	9.525397
1088.000000	9.543434
1087.000000	9.538536
1086.000000	9.507785
1085.000000	9.489885
1084.000000	9.500854
1083.000000	9.500708
1082.000000	9.508661
1081.000000	9.525688
1080.000000	9.512389
1079.000000	9.482996
1078.000000	9.480801
1077.000000	9.491262
1076.000000	9.483051
1075.000000	9.491998
1074.000000	9.484512
1073.000000	9.443317
1072.000000	9.438054
1071.000000	9.458432
1070.000000	9.459363
1069.000000	9.459080
1068.000000	9.480059
1067.000000	9.469410
1066.000000	9.469619
1065.000000	9.432097
1064.000000	9.426646
1063.000000	9.424409
1062.000000	9.442917
1061.000000	9.443087
1060.000000	9.429166
1059.000000	9.434120
1058.000000	9.414494
1057.000000	9.404527
1056.000000	9.418716
1055.000000	9.423260
1054.000000	9.427743
1053.000000	9.444579
1052.000000	9.384368
1051.000000	9.380186
1050.000000	9.399145
1049.000000	9.415088
1048.000000	9.375621
1047.000000	9.374889
1046.000000	9.383296
1045.000000	9.385576
1044.000000	9.391865
1043.000000	9.362967
1042.000000	9.344106
1041.000000	9.356654
1040.000000	9.356201
1039.000000	9.368820
1038.000000	9.337053
1037.000000	9.336258
1036.000000	9.356665
1035.000000	9.366070
1034.000000	9.327347
1033.000000	9.338445
1032.000000	9.349121
1031.000000	9.350450
1030.000000	9.322755
1029.000000	9.309508
1028.000000	9.322824
1027.000000	9.338592
1026.000000	9.313846
1025.000000	9.316538
1024.000000	9.319738
1023.000000	9.290886
1022.000000	9.300310
1021.000000	9.312240
1020.000000	9.325848
1019.000000	9.310199
1018.000000	9.301729
1017.000000	9.318996
1016.000000	9.319365
1015.000000	9.300108
1014.000000	9.298601
1013.000000	9.272104
1012.000000	9.293674
1011.000000	9.312000
1010.000000	9.317171
1009.000000	9.298015
1008.000000	9.300109
1007.000000	9.302728
1006.000000	9.280517
1005.000000	9.275254
1004.000000	9.265446
1003.000000	9.261224
1002.000000	9.275747
1001.000000	9.292374
1000.000000	9.272562
999.000000	9.249264
998.000000	9.275774
997.000000	9.297908
996.000000	9.299797
995.000000	9.273722
994.000000	9.258851
993.000000	9.257097
992.000000	9.277309
991.000000	9.282534
990.000000	9.272960
989.000000	9.266702
988.000000	9.277213
987.000000	9.278872
986.000000	9.296044
985.000000	9.322241
984.000000	9.335045
983.000000	9.345792
982.000000	9.337031
981.000000	9.336248
980.000000	9.336238
979.000000	9.348174
978.000000	9.360823
977.000000	9.365644
976.000000	9.354627
975.000000	9.363041
974.000000	9.366759
973.000000	9.370106
972.000000	9.355149
971.000000	9.361762
970.000000	9.363620
969.000000	9.364233
968.000000	9.369863
967.000000	9.363724
966.000000	9.358975
965.000000	9.362409
964.000000	9.351108
963.000000	9.335271
962.000000	9.341180
961.000000	9.351702
960.000000	9.352438
959.000000	9.361825
958.000000	9.354027
957.000000	9.354068
956.000000	9.355506
955.000000	9.340400
954.000000	9.344236
953.000000	9.358897
952.000000	9.335558
951.000000	9.325319
950.000000	9.349273
949.000000	9.361032
948.000000	9.362038
947.000000	9.349121
946.000000	9.331881
945.000000	9.333069
944.000000	9.333221
943.000000	9.339441
942.000000	9.343463
941.000000	9.315641
940.000000	9.306224
939.000000	9.302374
938.000000	9.298833
937.000000	9.284666
936.000000	9.278475
935.000000	9.299975
934.000000	9.310234
933.000000	9.296942
932.000000	9.282700
931.000000	9.280667
930.000000	9.255491
929.000000	9.264420
928.000000	9.300653
927.000000	9.287255
926.000000	9.258549
925.000000	9.249967
924.000000	9.247422
923.000000	9.257579
922.000000	9.269542
921.000000	9.255841
920.000000	9.236351
919.000000	9.231082
918.000000	9.231836
917.000000	9.248591
916.000000	9.249511
915.000000	9.238192
914.000000	9.214787
913.000000	9.194862
912.000000	9.198446
911.000000	9.211981
910.000000	9.210997
909.000000	9.228841
908.000000	9.231774
907.000000	9.190236
906.000000	9.204262
905.000000	9.230340
904.000000	9.214430
903.000000	9.233596
902.000000	9.256366
901.000000	9.224176
900.000000	9.211888
899.000000	9.232111
898.000000	9.206480
897.000000	9.192966
896.000000	9.227661
895.000000	9.223076
894.000000	9.175572
893.000000	9.166873
892.000000	9.189127
891.000000	9.233269
890.000000	9.210625
889.000000	9.203808
888.000000	9.218301
887.000000	9.199963
886.000000	9.185978
885.000000	9.142602
884.000000	9.170674
883.000000	9.185578
882.000000	9.182868
881.000000	9.219018
880.000000	9.194896
879.000000	9.148444
878.000000	9.140485
877.000000	9.178319
876.000000	9.166111
875.000000	9.162623
874.000000	9.178427
873.000000	9.173921
872.000000	9.124056
871.000000	9.157152
870.000000	9.178872
869.000000	9.052391
868.000000	9.077701
867.000000	9.097729
866.000000	9.119964
865.000000	9.057168
864.000000	9.107287
863.000000	9.110939
862.000000	9.121073
861.000000	9.118457
860.000000	9.095007
859.000000	8.818826
858.000000	8.732399
857.000000	8.821170
856.000000	8.715468
855.000000	8.729659
854.000000	8.827927
853.000000	8.809846
852.000000	8.761319
851.000000	8.697081
850.000000	8.724434
849.000000	8.671591
848.000000	8.700303
847.000000	8.685458
846.000000	8.702192
845.000000	8.651991
844.000000	8.634025
843.000000	8.674452
842.000000	8.697319
841.000000	8.686932
840.000000	8.645883
839.000000	8.648861
838.000000	8.641090
837.000000	8.642460
836.000000	8.659817
835.000000	8.632206
834.000000	8.589715
833.000000	8.603385
832.000000	8.579244
831.000000	8.620429
830.000000	8.582720
829.000000	8.556107
828.000000	8.557893
827.000000	8.546458
826.000000	8.536303
825.000000	8.507946
824.000000	8.473630
823.000000	8.569159
822.000000	8.509469
821.000000	8.542391
820.000000	8.505559
819.000000	8.469249
818.000000	8.460399
817.000000	8.461123
816.000000	8.457210
815.000000	8.448719
814.000000	8.444363
813.000000	8.427164
812.000000	8.422467
811.000000	8.430801
810.000000	8.440369
809.000000	8.410453
808.000000	8.400383
807.000000	8.412445
806.000000	8.387411
805.000000	8.388477
804.000000	8.402044
803.000000	8.359537
802.000000	8.355796
801.000000	8.380685
800.000000	8.363160
799.000000	8.360208
798.000000	8.359745
797.000000	8.345456
796.000000	8.339816
795.000000	8.326277
794.000000	8.292794
793.000000	8.313880
792.000000	8.277831
791.000000	8.266057
790.000000	8.268778
789.000000	8.271421
788.000000	8.247082
787.000000	8.234450
786.000000	8.259920
785.000000	8.231938
784.000000	8.215476
783.000000	8.200877
782.000000	8.198868
781.000000	8.183723
780.000000	8.191092
779.000000	8.184883
778.000000	8.171182
777.000000	8.158807
776.000000	8.143667
775.000000	8.152513
774.000000	8.138859
773.000000	8.131541
772.000000	8.134838
771.000000	8.126128
770.000000	8.118846
769.000000	8.071129
768.000000	8.046830
767.000000	8.047859
766.000000	8.060516
765.000000	8.054336
764.000000	8.046172
763.000000	8.047509
762.000000	8.015621
761.000000	8.015124
760.000000	8.001308
759.000000	7.993560
758.000000	7.979138
757.000000	7.974966
756.000000	7.958358
755.000000	7.929741
754.000000	7.937082
753.000000	7.945692
752.000000	7.920357
751.000000	7.918949
750.000000	7.907840
749.000000	7.888283
748.000000	7.882962
747.000000	7.876862
746.000000	7.845042
745.000000	7.845677
744.000000	7.844964
743.000000	7.816858
742.000000	7.806251
741.000000	7.799046
740.000000	7.793395
739.000000	7.786015
738.000000	7.779379
737.000000	7.767091
736.000000	7.738285
735.000000	7.734718
734.000000	7.723415
733.000000	7.711756
732.000000	7.694420
731.000000	7.674688
730.000000	7.672019
729.000000	7.661647
728.000000	7.641540
727.000000	7.644481
726.000000	7.630838
725.000000	7.619616
724.000000	7.601236
723.000000	7.595472
722.000000	7.589331
721.000000	7.573013
720.000000	7.557286
719.000000	7.535900
718.000000	7.522318
717.000000	7.498508
716.000000	7.479604
715.000000	7.473282
714.000000	7.477380
713.000000	7.463960
712.000000	7.430501
711.000000	7.427917
710.000000	7.421257
709.000000	7.403046
708.000000	7.384787
707.000000	7.365178
706.000000	7.358207
705.000000	7.346754
704.000000	7.331097
703.000000	7.320198
702.000000	7.309417
701.000000	7.289076
700.000000	7.267824
699.000000	7.255318
698.000000	7.246597
697.000000	7.218032
696.000000	7.197012
695.000000	7.202528
694.000000	7.187057
693.000000	7.161899
692.000000	7.154614
691.000000	7.149220
690.000000	7.131140
689.000000	7.096785
688.000000	7.072447
687.000000	7.066163
686.000000	7.054260
685.000000	7.037913
684.000000	7.015603
683.000000	6.998306
682.000000	6.979153
681.000000	6.963333
680.000000	6.952272
679.000000	6.941116
678.000000	6.922098
677.000000	6.901858
676.000000	6.880114
675.000000	6.858310
674.000000	6.837765
673.000000	6.814786
672.000000	6.808217
671.000000	6.801288
670.000000	6.779334
669.000000	6.757913
668.000000	6.738999
667.000000	6.714143
666.000000	6.694393
665.000000	6.680897
664.000000	6.673925
663.000000	6.655204
662.000000	6.630585
661.000000	6.615785
660.000000	6.596678
659.000000	6.576935
658.000000	6.553064
657.000000	6.540404
656.000000	6.507221
655.000000	6.492921
654.000000	6.477086
653.000000	6.456661
652.000000	6.432449
651.000000	6.420275
650.000000	6.400004
649.000000	6.379264
648.000000	6.362057
647.000000	6.339284
646.000000	6.317120
645.000000	6.299760
644.000000	6.279330
643.000000	6.257134
642.000000	6.243959
641.000000	6.221307
640.000000	6.192024
639.000000	6.166458
638.000000	6.153726
637.000000	6.130291
636.000000	6.113893
635.000000	6.084425
634.000000	6.063894
633.000000	6.049918
632.000000	6.021025
631.000000	6.001162
630.000000	5.982821
629.000000	5.958013
628.000000	5.925159
627.000000	5.902718
626.000000	5.878697
625.000000	5.867767
624.000000	5.843107
623.000000	5.822075
622.000000	5.799418
621.000000	5.769356
620.000000	5.751489
619.000000	5.728986
618.000000	5.700192
617.000000	5.682070
616.000000	5.656603
615.000000	5.628613
614.000000	5.607293
613.000000	5.590089
612.000000	5.567222
611.000000	5.534992
610.000000	5.518563
609.000000	5.495451
608.000000	5.470503
607.000000	5.443150
606.000000	5.413854
605.000000	5.394475
604.000000	5.365081
603.000000	5.338811
602.000000	5.310673
601.000000	5.291626
600.000000	5.270926
599.000000	5.239341
598.000000	5.217822
597.000000	5.185737
596.000000	5.158437
595.000000	5.135172
594.000000	5.114356
593.000000	5.085242
592.000000	5.053749
591.000000	5.036277
590.000000	5.008072
589.000000	4.985891
588.000000	4.945217
587.000000	4.923379
586.000000	4.897535
585.000000	4.872118
584.000000	4.841483
583.000000	4.824612
582.000000	4.797333
581.000000	4.759937
580.000000	4.733322
579.000000	4.714121
578.000000	4.687861
577.000000	4.665615
576.000000	4.629371
575.000000	4.604726
574.000000	4.566285
573.000000	4.538810
572.000000	4.506133
571.000000	4.492584
570.000000	4.463796
569.000000	4.434210
568.000000	4.399130
567.000000	4.365192
566.000000	4.347533
565.000000	4.311831
564.000000	4.299024
563.000000	4.262923
562.000000	4.235385
561.000000	4.206418
560.000000	4.172188
559.000000	4.155571
558.000000	4.116405
557.000000	4.086355
556.000000	4.064387
555.000000	4.038097
554.000000	4.000266
553.000000	3.972052
552.000000	3.947395
551.000000	3.931178
550.000000	3.898288
549.000000	3.862924
548.000000	3.824543
547.000000	3.797610
546.000000	3.773200
545.000000	3.744976
544.000000	3.712516
543.000000	3.679711
542.000000	3.648608
541.000000	3.625484
540.000000	3.592651
539.000000	3.571933
538.000000	3.544385
537.000000	3.507962
536.000000	3.474240
535.000000	3.444902
534.000000	3.421245
533.000000	3.397424
532.000000	3.358876
531.000000	3.325839
530.000000	3.299139
529.000000	3.269277
528.000000	3.241115
527.000000	3.214097
526.000000	3.181299
525.000000	3.150912
524.000000	3.121839
523.000000	3.088730
522.000000	3.059739
521.000000	3.034626
520.000000	3.003757
519.000000	2.970298
518.000000	2.941760
517.000000	2.910640
516.000000	2.879202
515.000000	2.857483
514.000000	2.819969
513.000000	2.782554
512.000000	2.752844
511.000000	2.727444
510.000000	2.700190
509.000000	2.670151
508.000000	2.639497
507.000000	2.609691
506.000000	2.570281
505.000000	2.544531
504.000000	2.514395
503.000000	2.491105
502.000000	2.463734
501.000000	2.434883
500.000000	2.405405
499.000000	2.379345
498.000000	2.357013
497.000000	2.327561
496.000000	2.299076
495.000000	2.278302
494.000000	2.254610
493.000000	2.229480
492.000000	2.205992
491.000000	2.183457
490.000000	2.157944
489.000000	2.134885
488.000000	2.114353
487.000000	2.092981
486.000000	2.068534
485.000000	2.043941
484.000000	2.026443
483.000000	2.004879
482.000000	1.979392
481.000000	1.957971
480.000000	1.934600
479.000000	1.907452
478.000000	1.875145
477.000000	1.849462
476.000000	1.825544
475.000000	1.797315
474.000000	1.775704
473.000000	1.754841
472.000000	1.729621
471.000000	1.703976
470.000000	1.680051
469.000000	1.656706
468.000000	1.636305
467.000000	1.614762
466.000000	1.588709
465.000000	1.566624
464.000000	1.545062
463.000000	1.522775
462.000000	1.502101
461.000000	1.480271
460.000000	1.455044
459.000000	1.433600
458.000000	1.413255
457.000000	1.393465
456.000000	1.374806
455.000000	1.355970
454.000000	1.332979
453.000000	1.309090
452.000000	1.291923
451.000000	1.271784
450.000000	1.253364
449.000000	1.233292
448.000000	1.211342
447.000000	1.192839
446.000000	1.175012
445.000000	1.155793
444.000000	1.139047
443.000000	1.120333
442.000000	1.098353
441.000000	1.076916
440.000000	1.055294
439.000000	1.037725
438.000000	1.021172
437.000000	1.005564
436.000000	0.986529
435.000000	0.966017
434.000000	0.945852
433.000000	0.930019
432.000000	0.913237
431.000000	0.891638
430.000000	0.873375
429.000000	0.855900
428.000000	0.838911
427.000000	0.825860
426.000000	0.813403
425.000000	0.795971
424.000000	0.775926
423.000000	0.760951
422.000000	0.746043
421.000000	0.732061
420.000000	0.716546
419.000000	0.701437
418.000000	0.690992
417.000000	0.667993
416.000000	0.650293
415.000000	0.638980
414.000000	0.628078
413.000000	0.615418
412.000000	0.599422
411.000000	0.587769
410.000000	0.573397
409.000000	0.558610
408.000000	0.547576
407.000000	0.535260
406.000000	0.522662
405.000000	0.511211
404.000000	0.498149
403.000000	0.490519
402.000000	0.479496
401.000000	0.462940
400.000000	0.451997
399.000000	0.444137
398.000000	0.427298
397.000000	0.421229
396.000000	0.408890
395.000000	0.399878
394.000000	0.388150
393.000000	0.379710
392.000000	0.367027
391.000000	0.365721
390.000000	0.357578
389.000000	0.344803
388.000000	0.342036
387.000000	0.330465
386.000000	0.322936
385.000000	0.314788
384.000000	0.312632
383.000000	0.299261
382.000000	0.289282
381.000000	0.281317
380.000000	0.270491
379.000000	0.267929
378.000000	0.267647
377.000000	0.278887
376.000000	0.272495
375.000000	0.269413
374.000000	0.265826
373.000000	0.247427
372.000000	0.232051
371.000000	0.232592
370.000000	0.224495
369.000000	0.218050
368.000000	0.215143
367.000000	0.204523
366.000000	0.203863
365.000000	0.187498
364.000000	0.186992
363.000000	0.181595
362.000000	0.174748
361.000000	0.166013
360.000000	0.164564
359.000000	0.159111
358.000000	0.159210
357.000000	0.155990
356.000000	0.157095
355.000000	0.149572
354.000000	0.137081
353.000000	0.133060
352.000000	0.139404
351.000000	0.133722
350.000000	0.134375
349.000000	0.129668
348.000000	0.127225
347.000000	0.117538
346.000000	0.126474
345.000000	0.122039
344.000000	0.120611
343.000000	0.113664
342.000000	0.116181
341.000000	0.113411
340.000000	0.107810
339.000000	0.108921
338.000000	0.111476
337.000000	0.107157
336.000000	0.104805
335.000000	0.092345
334.000000	0.092512
333.000000	0.092070
332.000000	0.103595
331.000000	0.089764
330.000000	0.085641
329.000000	0.091000
328.000000	0.078808
327.000000	0.083001
326.000000	0.080352
325.000000	0.069756
324.000000	0.084575
323.000000	0.077548
322.000000	0.070536
321.000000	0.081160
320.000000	0.080400
319.000000	0.074240
318.000000	0.089968
317.000000	0.091835
316.000000	0.093447
315.000000	0.093978
314.000000	0.097809
313.000000	0.095228
312.000000	0.090337
311.000000	0.087780
310.000000	0.086749
309.000000	0.094723
308.000000	0.093621
307.000000	0.084513
306.000000	0.086388
305.000000	0.084277
304.000000	0.084100
303.000000	0.085400
302.000000	0.087886
301.000000	0.088789
300.000000	0.088481
299.000000	0.089160
298.000000	0.087927
297.000000	0.089648
296.000000	0.093357
295.000000	0.088138
294.000000	0.085144
293.000000	0.085070
292.000000	0.088101
291.000000	0.087087
290.000000	0.090231
289.000000	0.090645
288.000000	0.089732
287.000000	0.082282
286.000000	0.089915
285.000000	0.087577
284.000000	0.095226
283.000000	0.100810
282.000000	0.098207
281.000000	0.101087
280.000000	0.097887
279.000000	0.097677
278.000000	0.105905
277.000000	0.103420
276.000000	0.103059
275.000000	0.102415
274.000000	0.107283
273.000000	0.109699
272.000000	0.115218
271.000000	0.112746
270.000000	0.117028
269.000000	0.118544
268.000000	0.126386
267.000000	0.124010
266.000000	0.129834
265.000000	0.129949
264.000000	0.131054
263.000000	0.134839
262.000000	0.133870
261.000000	0.134100
260.000000	0.141957
259.000000	0.141783
258.000000	0.145635
257.000000	0.147871
256.000000	0.151958
255.000000	0.155214
254.000000	0.149304
253.000000	0.145738
252.000000	0.154194
251.000000	0.153426
250.000000	0.148146
249.000000	0.150755
248.000000	0.152755
247.000000	0.146982
246.000000	0.142880
245.000000	0.144599
244.000000	0.138693
243.000000	0.137367
242.000000	0.136682
241.000000	0.128503
240.000000	0.122138
239.000000	0.109438
238.000000	0.105160
237.000000	0.104810
236.000000	0.100512
235.000000	0.094334
234.000000	0.082882
233.000000	0.080955
232.000000	0.077614
231.000000	0.076090
230.000000	0.077208
229.000000	0.072175
228.000000	0.064414
227.000000	0.056524
226.000000	0.052235
225.000000	0.046036
224.000000	0.043078
223.000000	0.041528
222.000000	0.034210
221.000000	0.029385
220.000000	0.034497
219.000000	0.035387
218.000000	0.033298
217.000000	0.029459
216.000000	0.019853
215.000000	0.010088
214.000000	0.015140
213.000000	0.023099
212.000000	0.020587
211.000000	0.020027
210.000000	0.021541
209.000000	0.016359
208.000000	0.013779
207.000000	0.010563
206.000000	0.008937
205.000000	0.016578
204.000000	0.009021
203.000000	-0.009436
202.000000	0.007472
201.000000	0.008546
200.000000	0.004152
