PE IR       SUBTECH     SPECTRUM    ASCII       PEDS        4.00        
   -1
A1G-C001_1.ASC
23/09/14
11:08:15.00
23/09/14
11:18:22.00
uco
Sample 001 By uco Date Thursday, September 14 2023
450.000000
#HDR
-1
-1
#GR
cm-1
%T
1.0
0.0
4000.000000
-1.000000
3551
8
98.581347
86.350801
#DATA
4000.000000	98.517490
3999.000000	98.517778
3998.000000	98.518836
3997.000000	98.520279
3996.000000	98.520959
3995.000000	98.519648
3994.000000	98.516298
3993.000000	98.512431
3992.000000	98.509833
3991.000000	98.508869
3990.000000	98.508299
3989.000000	98.506981
3988.000000	98.505390
3987.000000	98.505256
3986.000000	98.507724
3985.000000	98.511897
3984.000000	98.515225
3983.000000	98.515498
3982.000000	98.512341
3981.000000	98.506957
3980.000000	98.500829
3979.000000	98.494953
3978.000000	98.490026
3977.000000	98.486844
3976.000000	98.486243
3975.000000	98.488403
3974.000000	98.492441
3973.000000	98.496811
3972.000000	98.500305
3971.000000	98.502418
3970.000000	98.502766
3969.000000	98.500899
3968.000000	98.496995
3967.000000	98.492858
3966.000000	98.491329
3965.000000	98.494010
3964.000000	98.499268
3963.000000	98.502961
3962.000000	98.501772
3961.000000	98.495723
3960.000000	98.488024
3959.000000	98.482346
3958.000000	98.480312
3957.000000	98.481513
3956.000000	98.484375
3955.000000	98.487037
3954.000000	98.488230
3953.000000	98.488056
3952.000000	98.488096
3951.000000	98.489919
3950.000000	98.493448
3949.000000	98.496701
3948.000000	98.497432
3947.000000	98.495106
3946.000000	98.490826
3945.000000	98.486187
3944.000000	98.482578
3943.000000	98.480888
3942.000000	98.481585
3941.000000	98.483425
3940.000000	98.483545
3939.000000	98.479824
3938.000000	98.472817
3937.000000	98.466147
3936.000000	98.463740
3935.000000	98.466942
3934.000000	98.473761
3933.000000	98.479655
3932.000000	98.480817
3931.000000	98.476394
3930.000000	98.468590
3929.000000	98.460462
3928.000000	98.453746
3927.000000	98.450549
3926.000000	98.453331
3925.000000	98.462355
3924.000000	98.473943
3923.000000	98.482232
3922.000000	98.483775
3921.000000	98.480351
3920.000000	98.476870
3919.000000	98.476731
3918.000000	98.478320
3917.000000	98.476977
3916.000000	98.470850
3915.000000	98.462464
3914.000000	98.455280
3913.000000	98.449954
3912.000000	98.445302
3911.000000	98.440529
3910.000000	98.436331
3909.000000	98.434624
3908.000000	98.437106
3907.000000	98.444964
3906.000000	98.458985
3905.000000	98.478284
3904.000000	98.498367
3903.000000	98.511107
3902.000000	98.509223
3901.000000	98.492955
3900.000000	98.470175
3899.000000	98.451483
3898.000000	98.442949
3897.000000	98.442460
3896.000000	98.444389
3895.000000	98.445018
3894.000000	98.444117
3893.000000	98.444197
3892.000000	98.448018
3891.000000	98.455449
3890.000000	98.462750
3889.000000	98.466112
3888.000000	98.465431
3887.000000	98.463843
3886.000000	98.464758
3885.000000	98.469612
3884.000000	98.476250
3883.000000	98.480766
3882.000000	98.480434
3881.000000	98.475937
3880.000000	98.470994
3879.000000	98.468253
3878.000000	98.466371
3877.000000	98.463079
3876.000000	98.458246
3875.000000	98.454258
3874.000000	98.454279
3873.000000	98.458926
3872.000000	98.465249
3871.000000	98.468938
3870.000000	98.468131
3869.000000	98.465150
3868.000000	98.462792
3867.000000	98.461828
3866.000000	98.461743
3865.000000	98.461774
3864.000000	98.462173
3863.000000	98.463248
3862.000000	98.464803
3861.000000	98.467386
3860.000000	98.471092
3859.000000	98.475067
3858.000000	98.477564
3857.000000	98.477869
3856.000000	98.476999
3855.000000	98.475793
3854.000000	98.474143
3853.000000	98.471685
3852.000000	98.467081
3851.000000	98.460466
3850.000000	98.454063
3849.000000	98.449126
3848.000000	98.446286
3847.000000	98.445403
3846.000000	98.445155
3845.000000	98.444244
3844.000000	98.443545
3843.000000	98.445317
3842.000000	98.450611
3841.000000	98.457507
3840.000000	98.462626
3839.000000	98.464974
3838.000000	98.466216
3837.000000	98.467247
3836.000000	98.467053
3835.000000	98.464726
3834.000000	98.460813
3833.000000	98.456238
3832.000000	98.451345
3831.000000	98.447369
3830.000000	98.445982
3829.000000	98.447523
3828.000000	98.450277
3827.000000	98.451813
3826.000000	98.451011
3825.000000	98.448302
3824.000000	98.444333
3823.000000	98.437948
3822.000000	98.428696
3821.000000	98.420869
3820.000000	98.419541
3819.000000	98.422942
3818.000000	98.425710
3817.000000	98.425105
3816.000000	98.421517
3815.000000	98.419072
3814.000000	98.421018
3813.000000	98.426300
3812.000000	98.431580
3811.000000	98.434072
3810.000000	98.433314
3809.000000	98.430507
3808.000000	98.427118
3807.000000	98.424196
3806.000000	98.422578
3805.000000	98.422097
3804.000000	98.421934
3803.000000	98.420708
3802.000000	98.417594
3801.000000	98.414842
3800.000000	98.415974
3799.000000	98.420316
3798.000000	98.425571
3797.000000	98.430146
3796.000000	98.433503
3795.000000	98.435511
3794.000000	98.436243
3793.000000	98.436264
3792.000000	98.436230
3791.000000	98.436171
3790.000000	98.435721
3789.000000	98.434981
3788.000000	98.434199
3787.000000	98.433277
3786.000000	98.431564
3785.000000	98.428778
3784.000000	98.425858
3783.000000	98.424365
3782.000000	98.424545
3781.000000	98.424978
3780.000000	98.424289
3779.000000	98.422955
3778.000000	98.422766
3777.000000	98.424621
3776.000000	98.428454
3775.000000	98.433580
3774.000000	98.438853
3773.000000	98.442689
3772.000000	98.443707
3771.000000	98.441926
3770.000000	98.439794
3769.000000	98.440652
3768.000000	98.444331
3767.000000	98.447848
3766.000000	98.449410
3765.000000	98.450103
3764.000000	98.452730
3763.000000	98.459139
3762.000000	98.468492
3761.000000	98.477786
3760.000000	98.483535
3759.000000	98.484377
3758.000000	98.481944
3757.000000	98.479119
3756.000000	98.477892
3755.000000	98.478380
3754.000000	98.480297
3753.000000	98.483976
3752.000000	98.489501
3751.000000	98.495932
3750.000000	98.500973
3749.000000	98.502201
3748.000000	98.499023
3747.000000	98.491940
3746.000000	98.481316
3745.000000	98.468862
3744.000000	98.463059
3743.000000	98.471125
3742.000000	98.489418
3741.000000	98.509627
3740.000000	98.524633
3739.000000	98.531118
3738.000000	98.528982
3737.000000	98.521255
3736.000000	98.513646
3735.000000	98.511740
3734.000000	98.517673
3733.000000	98.526328
3732.000000	98.530283
3731.000000	98.527072
3730.000000	98.518933
3729.000000	98.509743
3728.000000	98.502489
3727.000000	98.498795
3726.000000	98.498997
3725.000000	98.502068
3724.000000	98.505471
3723.000000	98.505673
3722.000000	98.500929
3721.000000	98.492328
3720.000000	98.483742
3719.000000	98.479923
3718.000000	98.482596
3717.000000	98.489095
3716.000000	98.495655
3715.000000	98.500111
3714.000000	98.500755
3713.000000	98.495689
3712.000000	98.486907
3711.000000	98.483184
3710.000000	98.490070
3709.000000	98.503330
3708.000000	98.515303
3707.000000	98.522285
3706.000000	98.526052
3705.000000	98.528689
3704.000000	98.529743
3703.000000	98.526715
3702.000000	98.518537
3701.000000	98.508314
3700.000000	98.500862
3699.000000	98.499151
3698.000000	98.503607
3697.000000	98.511985
3696.000000	98.520527
3695.000000	98.526127
3694.000000	98.527644
3693.000000	98.526176
3692.000000	98.523594
3691.000000	98.521286
3690.000000	98.518331
3689.000000	98.512317
3688.000000	98.502972
3687.000000	98.493609
3686.000000	98.487406
3685.000000	98.484163
3684.000000	98.481738
3683.000000	98.478447
3682.000000	98.474451
3681.000000	98.471459
3680.000000	98.471417
3679.000000	98.475680
3678.000000	98.485182
3677.000000	98.497927
3676.000000	98.506871
3675.000000	98.507503
3674.000000	98.503426
3673.000000	98.498276
3672.000000	98.492834
3671.000000	98.484242
3670.000000	98.469409
3669.000000	98.452443
3668.000000	98.439877
3667.000000	98.432477
3666.000000	98.427871
3665.000000	98.423742
3664.000000	98.419505
3663.000000	98.416622
3662.000000	98.417391
3661.000000	98.422914
3660.000000	98.431881
3659.000000	98.441483
3658.000000	98.449320
3657.000000	98.454004
3656.000000	98.455548
3655.000000	98.454703
3654.000000	98.452465
3653.000000	98.449959
3652.000000	98.448291
3651.000000	98.446806
3650.000000	98.440786
3649.000000	98.424363
3648.000000	98.399596
3647.000000	98.377348
3646.000000	98.364632
3645.000000	98.359507
3644.000000	98.357149
3643.000000	98.355204
3642.000000	98.353790
3641.000000	98.353550
3640.000000	98.353287
3639.000000	98.350044
3638.000000	98.342730
3637.000000	98.333595
3636.000000	98.326354
3635.000000	98.323281
3634.000000	98.324720
3633.000000	98.330124
3632.000000	98.338398
3631.000000	98.346648
3630.000000	98.349395
3629.000000	98.341633
3628.000000	98.326676
3627.000000	98.311724
3626.000000	98.298277
3625.000000	98.286974
3624.000000	98.280510
3623.000000	98.281481
3622.000000	98.288959
3621.000000	98.296616
3620.000000	98.294922
3619.000000	98.279631
3618.000000	98.256714
3617.000000	98.235523
3616.000000	98.221001
3615.000000	98.213038
3614.000000	98.209300
3613.000000	98.208125
3612.000000	98.209505
3611.000000	98.211774
3610.000000	98.209271
3609.000000	98.195506
3608.000000	98.170974
3607.000000	98.145154
3606.000000	98.126980
3605.000000	98.117521
3604.000000	98.112536
3603.000000	98.108065
3602.000000	98.102930
3601.000000	98.097723
3600.000000	98.093413
3599.000000	98.090871
3598.000000	98.089893
3597.000000	98.088757
3596.000000	98.085456
3595.000000	98.078773
3594.000000	98.070420
3593.000000	98.063873
3592.000000	98.060457
3591.000000	98.057493
3590.000000	98.050064
3589.000000	98.034403
3588.000000	98.011518
3587.000000	97.987735
3586.000000	97.969762
3585.000000	97.957444
3584.000000	97.946335
3583.000000	97.933675
3582.000000	97.919672
3581.000000	97.904791
3580.000000	97.889454
3579.000000	97.874958
3578.000000	97.863363
3577.000000	97.855615
3576.000000	97.850527
3575.000000	97.846384
3574.000000	97.842319
3573.000000	97.838871
3572.000000	97.835852
3571.000000	97.831662
3570.000000	97.824072
3569.000000	97.811820
3568.000000	97.794017
3567.000000	97.771237
3566.000000	97.747998
3565.000000	97.730357
3564.000000	97.718827
3563.000000	97.709240
3562.000000	97.698037
3561.000000	97.685243
3560.000000	97.673014
3559.000000	97.662723
3558.000000	97.653099
3557.000000	97.642020
3556.000000	97.628839
3555.000000	97.614653
3554.000000	97.600359
3553.000000	97.585973
3552.000000	97.571847
3551.000000	97.559361
3550.000000	97.549767
3549.000000	97.542841
3548.000000	97.536646
3547.000000	97.527890
3546.000000	97.513469
3545.000000	97.493169
3544.000000	97.470481
3543.000000	97.449469
3542.000000	97.432295
3541.000000	97.419186
3540.000000	97.408865
3539.000000	97.399025
3538.000000	97.387478
3537.000000	97.374144
3536.000000	97.361601
3535.000000	97.352568
3534.000000	97.347263
3533.000000	97.342973
3532.000000	97.336142
3531.000000	97.324343
3530.000000	97.307844
3529.000000	97.290470
3528.000000	97.277831
3527.000000	97.272751
3526.000000	97.271970
3525.000000	97.268132
3524.000000	97.255565
3523.000000	97.234926
3522.000000	97.212397
3521.000000	97.194430
3520.000000	97.183102
3519.000000	97.175617
3518.000000	97.167252
3517.000000	97.154927
3516.000000	97.139444
3515.000000	97.123869
3514.000000	97.110502
3513.000000	97.099105
3512.000000	97.088010
3511.000000	97.076369
3510.000000	97.065322
3509.000000	97.056867
3508.000000	97.051766
3507.000000	97.048882
3506.000000	97.046260
3505.000000	97.042684
3504.000000	97.037654
3503.000000	97.030364
3502.000000	97.019513
3501.000000	97.004283
3500.000000	96.985542
3499.000000	96.966349
3498.000000	96.951133
3497.000000	96.942797
3496.000000	96.939816
3495.000000	96.936750
3494.000000	96.928664
3493.000000	96.915072
3492.000000	96.899079
3491.000000	96.883540
3490.000000	96.869109
3489.000000	96.855554
3488.000000	96.843580
3487.000000	96.834478
3486.000000	96.828476
3485.000000	96.824151
3484.000000	96.819551
3483.000000	96.813441
3482.000000	96.805972
3481.000000	96.798100
3480.000000	96.789930
3479.000000	96.779851
3478.000000	96.766089
3477.000000	96.749234
3476.000000	96.732227
3475.000000	96.717634
3474.000000	96.705802
3473.000000	96.696264
3472.000000	96.689486
3471.000000	96.685647
3470.000000	96.682525
3469.000000	96.676519
3468.000000	96.666137
3467.000000	96.653756
3466.000000	96.643362
3465.000000	96.636961
3464.000000	96.632971
3463.000000	96.627244
3462.000000	96.616143
3461.000000	96.599635
3460.000000	96.581728
3459.000000	96.567073
3458.000000	96.556856
3457.000000	96.548645
3456.000000	96.539661
3455.000000	96.529203
3454.000000	96.518388
3453.000000	96.508475
3452.000000	96.500077
3451.000000	96.492720
3450.000000	96.484958
3449.000000	96.475783
3448.000000	96.466178
3447.000000	96.458340
3446.000000	96.452796
3445.000000	96.447081
3444.000000	96.437949
3443.000000	96.424176
3442.000000	96.407000
3441.000000	96.389110
3440.000000	96.373672
3439.000000	96.363263
3438.000000	96.358328
3437.000000	96.356409
3436.000000	96.353732
3435.000000	96.347853
3434.000000	96.338969
3433.000000	96.328556
3432.000000	96.317724
3431.000000	96.306900
3430.000000	96.296628
3429.000000	96.287664
3428.000000	96.279823
3427.000000	96.271638
3426.000000	96.261896
3425.000000	96.251250
3424.000000	96.241379
3423.000000	96.232746
3422.000000	96.224343
3421.000000	96.215630
3420.000000	96.207420
3419.000000	96.200294
3418.000000	96.193511
3417.000000	96.186315
3416.000000	96.179296
3415.000000	96.173452
3414.000000	96.168522
3413.000000	96.163142
3412.000000	96.156085
3411.000000	96.146733
3410.000000	96.135012
3409.000000	96.121830
3408.000000	96.109272
3407.000000	96.099576
3406.000000	96.093647
3405.000000	96.090501
3404.000000	96.087589
3403.000000	96.081693
3402.000000	96.071004
3401.000000	96.056987
3400.000000	96.043602
3399.000000	96.033622
3398.000000	96.025941
3397.000000	96.017153
3396.000000	96.005476
3395.000000	95.992637
3394.000000	95.982193
3393.000000	95.976412
3392.000000	95.974200
3391.000000	95.971667
3390.000000	95.965134
3389.000000	95.954157
3388.000000	95.941677
3387.000000	95.931133
3386.000000	95.923548
3385.000000	95.917139
3384.000000	95.909124
3383.000000	95.897766
3382.000000	95.883809
3381.000000	95.870331
3380.000000	95.860432
3379.000000	95.854057
3378.000000	95.847607
3377.000000	95.837070
3376.000000	95.821024
3375.000000	95.800566
3374.000000	95.777724
3373.000000	95.755140
3372.000000	95.736030
3371.000000	95.722395
3370.000000	95.712851
3369.000000	95.703435
3368.000000	95.690857
3367.000000	95.674562
3366.000000	95.655880
3365.000000	95.636288
3364.000000	95.616605
3363.000000	95.596940
3362.000000	95.576863
3361.000000	95.555755
3360.000000	95.532925
3359.000000	95.507278
3358.000000	95.477778
3357.000000	95.445143
3356.000000	95.412598
3355.000000	95.383877
3354.000000	95.360285
3353.000000	95.340192
3352.000000	95.320830
3351.000000	95.299796
3350.000000	95.275573
3349.000000	95.248258
3348.000000	95.219734
3347.000000	95.192020
3346.000000	95.165305
3345.000000	95.138469
3344.000000	95.111691
3343.000000	95.087170
3342.000000	95.066652
3341.000000	95.048931
3340.000000	95.030436
3339.000000	95.008108
3338.000000	94.981756
3337.000000	94.954034
3336.000000	94.928029
3335.000000	94.904391
3334.000000	94.881043
3333.000000	94.856158
3332.000000	94.830864
3331.000000	94.807984
3330.000000	94.788350
3329.000000	94.769507
3328.000000	94.748336
3327.000000	94.724237
3326.000000	94.699573
3325.000000	94.677452
3324.000000	94.659259
3323.000000	94.643749
3322.000000	94.628439
3321.000000	94.612202
3320.000000	94.596220
3319.000000	94.582004
3318.000000	94.569137
3317.000000	94.555980
3316.000000	94.542392
3315.000000	94.530224
3314.000000	94.520751
3313.000000	94.512950
3312.000000	94.504945
3311.000000	94.496158
3310.000000	94.487304
3309.000000	94.478824
3308.000000	94.470289
3307.000000	94.461181
3306.000000	94.451446
3305.000000	94.441171
3304.000000	94.430113
3303.000000	94.417946
3302.000000	94.405358
3301.000000	94.394852
3300.000000	94.389633
3299.000000	94.390561
3298.000000	94.394357
3297.000000	94.395607
3296.000000	94.391165
3295.000000	94.382298
3294.000000	94.372473
3293.000000	94.363974
3292.000000	94.357121
3291.000000	94.351938
3290.000000	94.349397
3289.000000	94.350485
3288.000000	94.354408
3287.000000	94.358401
3286.000000	94.359773
3285.000000	94.358186
3284.000000	94.355826
3283.000000	94.355419
3282.000000	94.358074
3281.000000	94.362732
3280.000000	94.367147
3279.000000	94.369521
3278.000000	94.370104
3277.000000	94.371398
3276.000000	94.376057
3275.000000	94.384082
3274.000000	94.392818
3273.000000	94.400078
3272.000000	94.406336
3271.000000	94.413120
3270.000000	94.420167
3269.000000	94.425512
3268.000000	94.427895
3267.000000	94.427868
3266.000000	94.426965
3265.000000	94.427129
3264.000000	94.430930
3263.000000	94.440659
3262.000000	94.456176
3261.000000	94.474504
3260.000000	94.492217
3259.000000	94.507817
3258.000000	94.521452
3257.000000	94.533432
3256.000000	94.543966
3255.000000	94.553665
3254.000000	94.563007
3253.000000	94.571440
3252.000000	94.578488
3251.000000	94.585931
3250.000000	94.597460
3249.000000	94.614687
3248.000000	94.633925
3247.000000	94.648396
3246.000000	94.654134
3245.000000	94.653106
3244.000000	94.650186
3243.000000	94.648378
3242.000000	94.648196
3241.000000	94.650463
3240.000000	94.657259
3239.000000	94.669515
3238.000000	94.685323
3237.000000	94.701773
3236.000000	94.717503
3235.000000	94.732524
3234.000000	94.746303
3233.000000	94.757351
3232.000000	94.764682
3231.000000	94.768671
3230.000000	94.770430
3229.000000	94.771079
3228.000000	94.771624
3227.000000	94.772789
3226.000000	94.774729
3225.000000	94.777203
3224.000000	94.780239
3223.000000	94.784364
3222.000000	94.790273
3221.000000	94.798550
3220.000000	94.809278
3219.000000	94.821177
3218.000000	94.831132
3217.000000	94.835791
3216.000000	94.834556
3215.000000	94.831052
3214.000000	94.830867
3213.000000	94.837199
3212.000000	94.848632
3211.000000	94.861064
3210.000000	94.871555
3209.000000	94.879989
3208.000000	94.887339
3207.000000	94.893559
3206.000000	94.898124
3205.000000	94.902121
3204.000000	94.908214
3203.000000	94.918025
3202.000000	94.930324
3201.000000	94.942323
3200.000000	94.951917
3199.000000	94.958592
3198.000000	94.963263
3197.000000	94.968197
3196.000000	94.976035
3195.000000	94.987494
3194.000000	95.000369
3193.000000	95.011700
3192.000000	95.020796
3191.000000	95.029403
3190.000000	95.039284
3189.000000	95.050670
3188.000000	95.062819
3187.000000	95.075040
3186.000000	95.086821
3185.000000	95.097954
3184.000000	95.108922
3183.000000	95.120793
3182.000000	95.134397
3181.000000	95.149602
3180.000000	95.165244
3179.000000	95.179469
3178.000000	95.190601
3177.000000	95.198301
3176.000000	95.203734
3175.000000	95.208561
3174.000000	95.214232
3173.000000	95.222447
3172.000000	95.235085
3171.000000	95.252492
3170.000000	95.272326
3169.000000	95.291034
3168.000000	95.306445
3167.000000	95.318492
3166.000000	95.328254
3165.000000	95.337526
3164.000000	95.348527
3163.000000	95.362380
3162.000000	95.377613
3161.000000	95.391364
3160.000000	95.402303
3159.000000	95.411622
3158.000000	95.421397
3157.000000	95.433056
3156.000000	95.447212
3155.000000	95.463523
3154.000000	95.480352
3153.000000	95.495533
3152.000000	95.507827
3151.000000	95.517020
3150.000000	95.523109
3149.000000	95.526668
3148.000000	95.529923
3147.000000	95.535894
3146.000000	95.545859
3145.000000	95.558711
3144.000000	95.572918
3143.000000	95.587890
3142.000000	95.602892
3141.000000	95.615961
3140.000000	95.625209
3139.000000	95.630779
3138.000000	95.634927
3137.000000	95.640223
3136.000000	95.647907
3135.000000	95.657361
3134.000000	95.666930
3133.000000	95.675546
3132.000000	95.683746
3131.000000	95.692444
3130.000000	95.701049
3129.000000	95.707757
3128.000000	95.711913
3127.000000	95.714942
3126.000000	95.718636
3125.000000	95.723472
3124.000000	95.728972
3123.000000	95.734707
3122.000000	95.740321
3121.000000	95.745483
3120.000000	95.750494
3119.000000	95.756273
3118.000000	95.763124
3117.000000	95.769911
3116.000000	95.774675
3115.000000	95.775771
3114.000000	95.772571
3113.000000	95.766101
3112.000000	95.759274
3111.000000	95.755229
3110.000000	95.754456
3109.000000	95.754019
3108.000000	95.750161
3107.000000	95.741530
3106.000000	95.729984
3105.000000	95.719172
3104.000000	95.712355
3103.000000	95.710525
3102.000000	95.711683
3101.000000	95.712265
3100.000000	95.709719
3099.000000	95.703743
3098.000000	95.695505
3097.000000	95.686427
3096.000000	95.677739
3095.000000	95.670248
3094.000000	95.664170
3093.000000	95.659178
3092.000000	95.654444
3091.000000	95.648384
3090.000000	95.639423
3089.000000	95.628091
3088.000000	95.617870
3087.000000	95.612315
3086.000000	95.611320
3085.000000	95.611501
3084.000000	95.610159
3083.000000	95.607370
3082.000000	95.603796
3081.000000	95.598454
3080.000000	95.589958
3079.000000	95.579151
3078.000000	95.569165
3077.000000	95.562989
3076.000000	95.561358
3075.000000	95.562436
3074.000000	95.563191
3073.000000	95.561865
3072.000000	95.559937
3071.000000	95.561095
3070.000000	95.567746
3069.000000	95.578611
3068.000000	95.589876
3067.000000	95.598121
3066.000000	95.602134
3065.000000	95.603043
3064.000000	95.603485
3063.000000	95.606294
3062.000000	95.613060
3061.000000	95.623660
3060.000000	95.636877
3059.000000	95.651129
3058.000000	95.664719
3057.000000	95.676183
3056.000000	95.685003
3055.000000	95.691719
3054.000000	95.697393
3053.000000	95.703167
3052.000000	95.710249
3051.000000	95.719495
3050.000000	95.730618
3049.000000	95.742339
3048.000000	95.753656
3047.000000	95.764864
3046.000000	95.777289
3045.000000	95.792427
3044.000000	95.810970
3043.000000	95.831715
3042.000000	95.851071
3041.000000	95.864950
3040.000000	95.872192
3039.000000	95.876130
3038.000000	95.882086
3037.000000	95.893223
3036.000000	95.908942
3035.000000	95.926580
3034.000000	95.943586
3033.000000	95.958138
3032.000000	95.968857
3031.000000	95.975392
3030.000000	95.979522
3029.000000	95.984965
3028.000000	95.995255
3027.000000	96.011084
3026.000000	96.029623
3025.000000	96.046746
3024.000000	96.060264
3023.000000	96.071127
3022.000000	96.081471
3021.000000	96.091887
3020.000000	96.100876
3019.000000	96.107209
3018.000000	96.112453
3017.000000	96.120341
3016.000000	96.132959
3015.000000	96.148220
3014.000000	96.161990
3013.000000	96.172467
3012.000000	96.181046
3011.000000	96.188945
3010.000000	96.194733
3009.000000	96.196060
3008.000000	96.192546
3007.000000	96.185772
3006.000000	96.177620
3005.000000	96.170137
3004.000000	96.166184
3003.000000	96.168124
3002.000000	96.175419
3001.000000	96.184684
3000.000000	96.192539
2999.000000	96.197793
2998.000000	96.200839
2997.000000	96.201804
2996.000000	96.199810
2995.000000	96.194032
2994.000000	96.185341
2993.000000	96.176435
2992.000000	96.169394
2991.000000	96.163044
2990.000000	96.154085
2989.000000	96.141394
2988.000000	96.127809
2987.000000	96.116523
2986.000000	96.107219
2985.000000	96.097531
2984.000000	96.087087
2983.000000	96.077594
2982.000000	96.069393
2981.000000	96.060476
2980.000000	96.049363
2979.000000	96.036811
2978.000000	96.024037
2977.000000	96.011186
2976.000000	95.998445
2975.000000	95.986984
2974.000000	95.977491
2973.000000	95.968923
2972.000000	95.959787
2971.000000	95.949782
2970.000000	95.939177
2969.000000	95.927349
2968.000000	95.913085
2967.000000	95.896084
2966.000000	95.877378
2965.000000	95.858378
2964.000000	95.839833
2963.000000	95.821616
2962.000000	95.803547
2961.000000	95.786712
2960.000000	95.773469
2959.000000	95.765055
2958.000000	95.759522
2957.000000	95.753336
2956.000000	95.745316
2955.000000	95.737667
2954.000000	95.733023
2953.000000	95.732033
2952.000000	95.734153
2951.000000	95.738972
2950.000000	95.745394
2949.000000	95.750878
2948.000000	95.752994
2947.000000	95.751139
2946.000000	95.745692
2945.000000	95.736220
2944.000000	95.722113
2943.000000	95.704669
2942.000000	95.687022
2941.000000	95.671100
2940.000000	95.655143
2939.000000	95.634772
2938.000000	95.606851
2937.000000	95.572491
2936.000000	95.536180
2935.000000	95.501671
2934.000000	95.468897
2933.000000	95.434998
2932.000000	95.397875
2931.000000	95.357834
2930.000000	95.316595
2929.000000	95.276115
2928.000000	95.238445
2927.000000	95.204881
2926.000000	95.174587
2925.000000	95.145392
2924.000000	95.116814
2923.000000	95.091333
2922.000000	95.072037
2921.000000	95.060295
2920.000000	95.056820
2919.000000	95.063368
2918.000000	95.081796
2917.000000	95.112110
2916.000000	95.153040
2915.000000	95.204013
2914.000000	95.264360
2913.000000	95.330513
2912.000000	95.395929
2911.000000	95.455336
2910.000000	95.508226
2909.000000	95.557138
2908.000000	95.603382
2907.000000	95.645545
2906.000000	95.682312
2905.000000	95.714993
2904.000000	95.746449
2903.000000	95.777850
2902.000000	95.807543
2901.000000	95.832303
2900.000000	95.850773
2899.000000	95.863845
2898.000000	95.874301
2897.000000	95.885621
2896.000000	95.900094
2895.000000	95.917135
2894.000000	95.933938
2893.000000	95.948608
2892.000000	95.962089
2891.000000	95.976210
2890.000000	95.990372
2889.000000	96.001539
2888.000000	96.007458
2887.000000	96.008931
2886.000000	96.008820
2885.000000	96.009690
2884.000000	96.012298
2883.000000	96.015462
2882.000000	96.017130
2881.000000	96.016366
2880.000000	96.014518
2879.000000	96.013805
2878.000000	96.014775
2877.000000	96.015753
2876.000000	96.014723
2875.000000	96.011025
2874.000000	96.005538
2873.000000	96.000266
2872.000000	95.997858
2871.000000	96.000280
2870.000000	96.007335
2869.000000	96.016923
2868.000000	96.026891
2867.000000	96.036014
2866.000000	96.043384
2865.000000	96.048009
2864.000000	96.049218
2863.000000	96.046500
2862.000000	96.038687
2861.000000	96.024465
2860.000000	96.004122
2859.000000	95.979649
2858.000000	95.952692
2857.000000	95.923457
2856.000000	95.892159
2855.000000	95.860265
2854.000000	95.829595
2853.000000	95.801127
2852.000000	95.776057
2851.000000	95.758079
2850.000000	95.753611
2849.000000	95.769147
2848.000000	95.807068
2847.000000	95.862940
2846.000000	95.926868
2845.000000	95.988969
2844.000000	96.044396
2843.000000	96.093533
2842.000000	96.138203
2841.000000	96.178775
2840.000000	96.214691
2839.000000	96.245624
2838.000000	96.271547
2837.000000	96.293022
2836.000000	96.312029
2835.000000	96.331035
2834.000000	96.350323
2833.000000	96.367447
2832.000000	96.380395
2831.000000	96.390309
2830.000000	96.399949
2829.000000	96.410469
2828.000000	96.420931
2827.000000	96.430316
2826.000000	96.438704
2825.000000	96.446674
2824.000000	96.454615
2823.000000	96.462557
2822.000000	96.470058
2821.000000	96.476408
2820.000000	96.481384
2819.000000	96.485500
2818.000000	96.489255
2817.000000	96.492819
2816.000000	96.496790
2815.000000	96.502306
2814.000000	96.509633
2813.000000	96.517500
2812.000000	96.524721
2811.000000	96.531647
2810.000000	96.538944
2809.000000	96.545680
2808.000000	96.550082
2807.000000	96.551900
2806.000000	96.552674
2805.000000	96.553826
2804.000000	96.555704
2803.000000	96.558387
2802.000000	96.561933
2801.000000	96.565391
2800.000000	96.566951
2799.000000	96.565949
2798.000000	96.564094
2797.000000	96.563977
2796.000000	96.566877
2795.000000	96.572475
2794.000000	96.579924
2793.000000	96.588066
2792.000000	96.594901
2791.000000	96.598387
2790.000000	96.598768
2789.000000	96.599500
2788.000000	96.604556
2787.000000	96.614330
2786.000000	96.624811
2785.000000	96.631394
2784.000000	96.633217
2783.000000	96.633273
2782.000000	96.634773
2781.000000	96.638507
2780.000000	96.643768
2779.000000	96.650418
2778.000000	96.658938
2777.000000	96.668920
2776.000000	96.678641
2775.000000	96.686416
2774.000000	96.692046
2773.000000	96.696756
2772.000000	96.701886
2771.000000	96.707534
2770.000000	96.712365
2769.000000	96.714922
2768.000000	96.715373
2767.000000	96.715773
2766.000000	96.718279
2765.000000	96.723046
2764.000000	96.728169
2763.000000	96.731730
2762.000000	96.733684
2761.000000	96.735454
2760.000000	96.737885
2759.000000	96.740145
2758.000000	96.740997
2757.000000	96.740726
2756.000000	96.741122
2755.000000	96.743590
2754.000000	96.747974
2753.000000	96.753292
2752.000000	96.758784
2751.000000	96.763759
2750.000000	96.767357
2749.000000	96.769494
2748.000000	96.771833
2747.000000	96.776770
2746.000000	96.785082
2745.000000	96.794720
2744.000000	96.802064
2743.000000	96.804608
2742.000000	96.803104
2741.000000	96.801355
2740.000000	96.803119
2739.000000	96.808570
2738.000000	96.814202
2737.000000	96.816658
2736.000000	96.816027
2735.000000	96.814925
2734.000000	96.815314
2733.000000	96.817250
2732.000000	96.819892
2731.000000	96.822404
2730.000000	96.824263
2729.000000	96.825953
2728.000000	96.828955
2727.000000	96.833685
2726.000000	96.837831
2725.000000	96.838450
2724.000000	96.835966
2723.000000	96.834494
2722.000000	96.837583
2721.000000	96.844674
2720.000000	96.852107
2719.000000	96.856644
2718.000000	96.857705
2717.000000	96.857435
2716.000000	96.859274
2715.000000	96.865463
2714.000000	96.874956
2713.000000	96.884051
2712.000000	96.889464
2711.000000	96.890586
2710.000000	96.888966
2709.000000	96.886580
2708.000000	96.884942
2707.000000	96.884881
2706.000000	96.886345
2705.000000	96.888706
2704.000000	96.891693
2703.000000	96.895735
2702.000000	96.901063
2701.000000	96.906732
2700.000000	96.910840
2699.000000	96.911938
2698.000000	96.910553
2697.000000	96.909452
2696.000000	96.911714
2695.000000	96.917817
2694.000000	96.924974
2693.000000	96.929911
2692.000000	96.931880
2691.000000	96.932447
2690.000000	96.933181
2689.000000	96.934641
2688.000000	96.936837
2687.000000	96.939146
2686.000000	96.940162
2685.000000	96.939190
2684.000000	96.937747
2683.000000	96.938007
2682.000000	96.939794
2681.000000	96.940778
2680.000000	96.939811
2679.000000	96.938400
2678.000000	96.938371
2677.000000	96.939651
2676.000000	96.941048
2675.000000	96.941876
2674.000000	96.942087
2673.000000	96.941942
2672.000000	96.942329
2671.000000	96.944358
2670.000000	96.947914
2669.000000	96.951455
2668.000000	96.953782
2667.000000	96.955076
2666.000000	96.955737
2665.000000	96.955302
2664.000000	96.953242
2663.000000	96.949922
2662.000000	96.946166
2661.000000	96.942834
2660.000000	96.941313
2659.000000	96.943089
2658.000000	96.947715
2657.000000	96.952189
2656.000000	96.953688
2655.000000	96.952554
2654.000000	96.951707
2653.000000	96.953730
2652.000000	96.959369
2651.000000	96.968064
2650.000000	96.978416
2649.000000	96.988171
2648.000000	96.995051
2647.000000	96.998244
2646.000000	96.998801
2645.000000	96.998575
2644.000000	96.999077
2643.000000	97.001070
2642.000000	97.004582
2641.000000	97.008979
2640.000000	97.013213
2639.000000	97.016552
2638.000000	97.019682
2637.000000	97.025079
2636.000000	97.035069
2635.000000	97.048498
2634.000000	97.060201
2633.000000	97.065609
2632.000000	97.065818
2631.000000	97.066530
2630.000000	97.071699
2629.000000	97.079933
2628.000000	97.087326
2627.000000	97.091827
2626.000000	97.093881
2625.000000	97.094626
2624.000000	97.095229
2623.000000	97.096962
2622.000000	97.100270
2621.000000	97.103997
2620.000000	97.106652
2619.000000	97.108320
2618.000000	97.110795
2617.000000	97.115981
2616.000000	97.124279
2615.000000	97.133968
2614.000000	97.142117
2613.000000	97.146975
2612.000000	97.149614
2611.000000	97.152293
2610.000000	97.155374
2609.000000	97.157380
2608.000000	97.158208
2607.000000	97.160386
2606.000000	97.166085
2605.000000	97.174279
2604.000000	97.181861
2603.000000	97.186432
2602.000000	97.187337
2601.000000	97.185418
2600.000000	97.183074
2599.000000	97.183332
2598.000000	97.187312
2597.000000	97.192906
2596.000000	97.196995
2595.000000	97.198553
2594.000000	97.198965
2593.000000	97.199847
2592.000000	97.201407
2591.000000	97.202864
2590.000000	97.204140
2589.000000	97.207091
2588.000000	97.214564
2587.000000	97.227353
2586.000000	97.242314
2585.000000	97.254372
2584.000000	97.260279
2583.000000	97.259750
2582.000000	97.254067
2581.000000	97.245843
2580.000000	97.239593
2579.000000	97.239517
2578.000000	97.245355
2577.000000	97.252150
2576.000000	97.255092
2575.000000	97.253481
2574.000000	97.249642
2573.000000	97.246070
2572.000000	97.244720
2571.000000	97.247109
2570.000000	97.253229
2569.000000	97.260994
2568.000000	97.267901
2567.000000	97.272920
2566.000000	97.276393
2565.000000	97.279101
2564.000000	97.281973
2563.000000	97.285687
2562.000000	97.289693
2561.000000	97.292195
2560.000000	97.291744
2559.000000	97.288793
2558.000000	97.285813
2557.000000	97.286165
2556.000000	97.291942
2555.000000	97.301797
2554.000000	97.311398
2553.000000	97.317116
2552.000000	97.318483
2551.000000	97.316145
2550.000000	97.309412
2549.000000	97.298872
2548.000000	97.290142
2547.000000	97.290864
2546.000000	97.302699
2545.000000	97.319049
2544.000000	97.331606
2543.000000	97.336915
2542.000000	97.335684
2541.000000	97.329118
2540.000000	97.318779
2539.000000	97.308444
2538.000000	97.302797
2537.000000	97.303342
2536.000000	97.306597
2535.000000	97.307139
2534.000000	97.302866
2533.000000	97.297436
2532.000000	97.297042
2531.000000	97.303977
2530.000000	97.313990
2529.000000	97.320685
2528.000000	97.321704
2527.000000	97.319539
2526.000000	97.317547
2525.000000	97.317026
2524.000000	97.317298
2523.000000	97.316335
2522.000000	97.311713
2521.000000	97.303231
2520.000000	97.294675
2519.000000	97.291034
2518.000000	97.293970
2517.000000	97.301533
2516.000000	97.311841
2515.000000	97.324375
2514.000000	97.337392
2513.000000	97.346540
2512.000000	97.347679
2511.000000	97.340808
2510.000000	97.330940
2509.000000	97.325018
2508.000000	97.326375
2507.000000	97.330920
2506.000000	97.330362
2505.000000	97.321122
2504.000000	97.309149
2503.000000	97.303948
2502.000000	97.309071
2501.000000	97.320542
2500.000000	97.332689
2499.000000	97.342567
2498.000000	97.349696
2497.000000	97.355130
2496.000000	97.360766
2495.000000	97.366989
2494.000000	97.371060
2493.000000	97.370133
2492.000000	97.365318
2491.000000	97.360381
2490.000000	97.357646
2489.000000	97.357751
2488.000000	97.361954
2487.000000	97.370770
2486.000000	97.381347
2485.000000	97.390263
2484.000000	97.398647
2483.000000	97.410206
2482.000000	97.424053
2481.000000	97.434113
2480.000000	97.436496
2479.000000	97.433487
2478.000000	97.429039
2477.000000	97.424474
2476.000000	97.420407
2475.000000	97.419203
2474.000000	97.422711
2473.000000	97.429436
2472.000000	97.435751
2471.000000	97.438564
2470.000000	97.436634
2469.000000	97.431839
2468.000000	97.429617
2467.000000	97.434629
2466.000000	97.444173
2465.000000	97.448586
2464.000000	97.440922
2463.000000	97.424939
2462.000000	97.411762
2461.000000	97.409802
2460.000000	97.418562
2459.000000	97.430798
2458.000000	97.438825
2457.000000	97.439239
2456.000000	97.433789
2455.000000	97.427490
2454.000000	97.426032
2453.000000	97.433134
2452.000000	97.447158
2451.000000	97.459951
2450.000000	97.462649
2449.000000	97.454887
2448.000000	97.445885
2447.000000	97.444490
2446.000000	97.450569
2445.000000	97.458421
2444.000000	97.464728
2443.000000	97.468818
2442.000000	97.468780
2441.000000	97.463419
2440.000000	97.456754
2439.000000	97.454546
2438.000000	97.456494
2437.000000	97.456659
2436.000000	97.451599
2435.000000	97.443534
2434.000000	97.435873
2433.000000	97.430545
2432.000000	97.429593
2431.000000	97.434114
2430.000000	97.441078
2429.000000	97.446005
2428.000000	97.449494
2427.000000	97.456334
2426.000000	97.467426
2425.000000	97.477723
2424.000000	97.483401
2423.000000	97.485990
2422.000000	97.487446
2421.000000	97.485989
2420.000000	97.479603
2419.000000	97.470132
2418.000000	97.461280
2417.000000	97.455187
2416.000000	97.452779
2415.000000	97.454881
2414.000000	97.461345
2413.000000	97.471351
2412.000000	97.485302
2411.000000	97.503471
2410.000000	97.522077
2409.000000	97.534247
2408.000000	97.536761
2407.000000	97.533229
2406.000000	97.529127
2405.000000	97.526258
2404.000000	97.523380
2403.000000	97.519626
2402.000000	97.515456
2401.000000	97.512007
2400.000000	97.510501
2399.000000	97.510873
2398.000000	97.510855
2397.000000	97.508460
2396.000000	97.505227
2395.000000	97.504414
2394.000000	97.505734
2393.000000	97.504872
2392.000000	97.498877
2391.000000	97.489687
2390.000000	97.481505
2389.000000	97.476704
2388.000000	97.475244
2387.000000	97.475557
2386.000000	97.476569
2385.000000	97.480025
2384.000000	97.490469
2383.000000	97.511395
2382.000000	97.540016
2381.000000	97.569233
2380.000000	97.592781
2379.000000	97.606447
2378.000000	97.606682
2377.000000	97.592323
2376.000000	97.568767
2375.000000	97.545964
2374.000000	97.532274
2373.000000	97.531401
2372.000000	97.543089
2371.000000	97.562117
2370.000000	97.580087
2369.000000	97.594368
2368.000000	97.608991
2367.000000	97.624793
2366.000000	97.633248
2365.000000	97.626346
2364.000000	97.607576
2363.000000	97.586225
2362.000000	97.567901
2361.000000	97.554660
2360.000000	97.547268
2359.000000	97.543353
2358.000000	97.540901
2357.000000	97.544157
2356.000000	97.553667
2355.000000	97.561363
2354.000000	97.569531
2353.000000	97.588523
2352.000000	97.612610
2351.000000	97.618897
2350.000000	97.597039
2349.000000	97.556334
2348.000000	97.518204
2347.000000	97.505528
2346.000000	97.521906
2345.000000	97.540713
2344.000000	97.535494
2343.000000	97.512146
2342.000000	97.492229
2341.000000	97.488894
2340.000000	97.499395
2339.000000	97.513866
2338.000000	97.525764
2337.000000	97.532415
2336.000000	97.530918
2335.000000	97.522807
2334.000000	97.518817
2333.000000	97.529629
2332.000000	97.549059
2331.000000	97.560348
2330.000000	97.554809
2329.000000	97.536128
2328.000000	97.507931
2327.000000	97.469492
2326.000000	97.424063
2325.000000	97.385167
2324.000000	97.367916
2323.000000	97.377013
2322.000000	97.398453
2321.000000	97.411419
2320.000000	97.405914
2319.000000	97.389792
2318.000000	97.376457
2317.000000	97.374409
2316.000000	97.385611
2315.000000	97.407573
2314.000000	97.432155
2313.000000	97.450854
2312.000000	97.462488
2311.000000	97.472524
2310.000000	97.481892
2309.000000	97.484758
2308.000000	97.480274
2307.000000	97.478303
2306.000000	97.485941
2305.000000	97.496468
2304.000000	97.498327
2303.000000	97.491170
2302.000000	97.483883
2301.000000	97.481201
2300.000000	97.479921
2299.000000	97.477350
2298.000000	97.474624
2297.000000	97.472709
2296.000000	97.469066
2295.000000	97.461523
2294.000000	97.451364
2293.000000	97.443030
2292.000000	97.440761
2291.000000	97.445264
2290.000000	97.451981
2289.000000	97.455185
2288.000000	97.454364
2287.000000	97.453911
2286.000000	97.455938
2285.000000	97.458601
2284.000000	97.463210
2283.000000	97.475434
2282.000000	97.495740
2281.000000	97.514912
2280.000000	97.524640
2279.000000	97.526139
2278.000000	97.523379
2277.000000	97.515893
2276.000000	97.505459
2275.000000	97.501714
2274.000000	97.510735
2273.000000	97.522789
2272.000000	97.522835
2271.000000	97.511551
2270.000000	97.505913
2269.000000	97.518925
2268.000000	97.546403
2267.000000	97.574120
2266.000000	97.591242
2265.000000	97.596211
2264.000000	97.595434
2263.000000	97.596903
2262.000000	97.601455
2261.000000	97.600944
2260.000000	97.587947
2259.000000	97.565875
2258.000000	97.546074
2257.000000	97.537450
2256.000000	97.541934
2255.000000	97.556783
2254.000000	97.576981
2253.000000	97.597145
2252.000000	97.614633
2251.000000	97.629225
2250.000000	97.638774
2249.000000	97.639235
2248.000000	97.631398
2247.000000	97.621796
2246.000000	97.616365
2245.000000	97.616505
2244.000000	97.622097
2243.000000	97.631309
2242.000000	97.636749
2241.000000	97.631255
2240.000000	97.620914
2239.000000	97.622500
2238.000000	97.642848
2237.000000	97.669426
2236.000000	97.686507
2235.000000	97.691821
2234.000000	97.691409
2233.000000	97.688597
2232.000000	97.686483
2231.000000	97.691633
2230.000000	97.704565
2229.000000	97.712880
2228.000000	97.703635
2227.000000	97.678194
2226.000000	97.648205
2225.000000	97.623417
2224.000000	97.610102
2223.000000	97.613131
2222.000000	97.629732
2221.000000	97.646823
2220.000000	97.654068
2219.000000	97.655305
2218.000000	97.658614
2217.000000	97.660963
2216.000000	97.652411
2215.000000	97.632286
2214.000000	97.611886
2213.000000	97.602948
2212.000000	97.609507
2211.000000	97.628420
2210.000000	97.651671
2209.000000	97.669647
2208.000000	97.677349
2207.000000	97.676738
2206.000000	97.671596
2205.000000	97.664391
2204.000000	97.658961
2203.000000	97.659395
2202.000000	97.663612
2201.000000	97.665075
2200.000000	97.664137
2199.000000	97.670245
2198.000000	97.688910
2197.000000	97.712664
2196.000000	97.728506
2195.000000	97.729149
2194.000000	97.715685
2193.000000	97.696202
2192.000000	97.682347
2191.000000	97.678956
2190.000000	97.677420
2189.000000	97.668251
2188.000000	97.657830
2187.000000	97.660395
2186.000000	97.676060
2185.000000	97.693536
2184.000000	97.713056
2183.000000	97.744776
2182.000000	97.779140
2181.000000	97.784289
2180.000000	97.746472
2179.000000	97.693219
2178.000000	97.662805
2177.000000	97.667211
2176.000000	97.694735
2175.000000	97.732489
2174.000000	97.772725
2173.000000	97.806162
2172.000000	97.821664
2171.000000	97.809534
2170.000000	97.764070
2169.000000	97.695276
2168.000000	97.638339
2167.000000	97.632103
2166.000000	97.680029
2165.000000	97.744785
2164.000000	97.788102
2163.000000	97.805919
2162.000000	97.819893
2161.000000	97.855243
2160.000000	97.930774
2159.000000	98.041044
2158.000000	98.139050
2157.000000	98.173478
2156.000000	98.149993
2155.000000	98.117783
2154.000000	98.101987
2153.000000	98.082762
2152.000000	98.036467
2151.000000	97.967803
2150.000000	97.896964
2149.000000	97.839154
2148.000000	97.806764
2147.000000	97.811429
2146.000000	97.850864
2145.000000	97.904159
2144.000000	97.949062
2143.000000	97.975449
2142.000000	97.979414
2141.000000	97.959501
2140.000000	97.924768
2139.000000	97.893255
2138.000000	97.875436
2137.000000	97.867781
2136.000000	97.863240
2135.000000	97.857753
2134.000000	97.846253
2133.000000	97.826983
2132.000000	97.811865
2131.000000	97.818690
2130.000000	97.848663
2129.000000	97.881768
2128.000000	97.897104
2127.000000	97.889440
2126.000000	97.865134
2125.000000	97.833351
2124.000000	97.804652
2123.000000	97.786937
2122.000000	97.777476
2121.000000	97.766331
2120.000000	97.751201
2119.000000	97.740882
2118.000000	97.740979
2117.000000	97.745047
2116.000000	97.743953
2115.000000	97.736395
2114.000000	97.725309
2113.000000	97.711892
2112.000000	97.698598
2111.000000	97.691306
2110.000000	97.692136
2109.000000	97.694832
2108.000000	97.692405
2107.000000	97.686484
2106.000000	97.685774
2105.000000	97.698015
2104.000000	97.724034
2103.000000	97.755476
2102.000000	97.778942
2101.000000	97.787827
2100.000000	97.788455
2099.000000	97.788277
2098.000000	97.782497
2097.000000	97.763521
2096.000000	97.740754
2095.000000	97.734279
2094.000000	97.747545
2093.000000	97.762106
2092.000000	97.763245
2091.000000	97.756600
2090.000000	97.754399
2089.000000	97.757802
2088.000000	97.759233
2087.000000	97.753610
2086.000000	97.741877
2085.000000	97.730669
2084.000000	97.730571
2083.000000	97.745953
2082.000000	97.765270
2081.000000	97.771681
2080.000000	97.764710
2079.000000	97.759825
2078.000000	97.764954
2077.000000	97.772139
2076.000000	97.776170
2075.000000	97.784310
2074.000000	97.800398
2073.000000	97.813793
2072.000000	97.813929
2071.000000	97.803824
2070.000000	97.790787
2069.000000	97.776389
2068.000000	97.764292
2067.000000	97.765210
2066.000000	97.784112
2065.000000	97.812097
2064.000000	97.839544
2063.000000	97.866893
2062.000000	97.893101
2061.000000	97.906509
2060.000000	97.897482
2059.000000	97.871077
2058.000000	97.839405
2057.000000	97.810833
2056.000000	97.790961
2055.000000	97.781625
2054.000000	97.773725
2053.000000	97.754693
2052.000000	97.730451
2051.000000	97.727275
2050.000000	97.763546
2049.000000	97.827229
2048.000000	97.889136
2047.000000	97.930276
2046.000000	97.945307
2045.000000	97.935022
2044.000000	97.912829
2043.000000	97.903674
2042.000000	97.921081
2041.000000	97.954821
2040.000000	97.989191
2039.000000	98.018566
2038.000000	98.036629
2037.000000	98.032336
2036.000000	98.009975
2035.000000	97.994020
2034.000000	98.000573
2033.000000	98.022542
2032.000000	98.051137
2031.000000	98.088590
2030.000000	98.129482
2029.000000	98.155806
2028.000000	98.163333
2027.000000	98.166925
2026.000000	98.169411
2025.000000	98.154490
2024.000000	98.122656
2023.000000	98.105714
2022.000000	98.129258
2021.000000	98.182830
2020.000000	98.238821
2019.000000	98.280775
2018.000000	98.302311
2017.000000	98.300604
2016.000000	98.283056
2015.000000	98.258006
2014.000000	98.215884
2013.000000	98.147287
2012.000000	98.078779
2011.000000	98.056644
2010.000000	98.089771
2009.000000	98.139965
2008.000000	98.175981
2007.000000	98.205621
2006.000000	98.241072
2005.000000	98.269531
2004.000000	98.278943
2003.000000	98.281412
2002.000000	98.288484
2001.000000	98.287706
2000.000000	98.260218
1999.000000	98.206536
1998.000000	98.146481
1997.000000	98.104319
1996.000000	98.096782
1995.000000	98.122831
1994.000000	98.160472
1993.000000	98.180613
1992.000000	98.169448
1991.000000	98.132926
1990.000000	98.081955
1989.000000	98.028978
1988.000000	97.992427
1987.000000	97.982432
1986.000000	97.986769
1985.000000	97.990339
1984.000000	97.998686
1983.000000	98.018401
1982.000000	98.028199
1981.000000	98.007643
1980.000000	97.988418
1979.000000	98.030255
1978.000000	98.134417
1977.000000	98.223312
1976.000000	98.235934
1975.000000	98.198223
1974.000000	98.169520
1973.000000	98.174171
1972.000000	98.207103
1971.000000	98.260280
1970.000000	98.318335
1969.000000	98.355404
1968.000000	98.357098
1967.000000	98.330632
1966.000000	98.284804
1965.000000	98.223614
1964.000000	98.163705
1963.000000	98.131078
1962.000000	98.136090
1961.000000	98.168025
1960.000000	98.212539
1959.000000	98.255606
1958.000000	98.275156
1957.000000	98.257513
1956.000000	98.221175
1955.000000	98.196666
1954.000000	98.185344
1953.000000	98.163858
1952.000000	98.127652
1951.000000	98.100540
1950.000000	98.097156
1949.000000	98.107602
1948.000000	98.123811
1947.000000	98.151029
1946.000000	98.184648
1945.000000	98.202305
1944.000000	98.190514
1943.000000	98.159853
1942.000000	98.125938
1941.000000	98.097885
1940.000000	98.087729
1939.000000	98.103192
1938.000000	98.128329
1937.000000	98.131214
1936.000000	98.100143
1935.000000	98.057539
1934.000000	98.031354
1933.000000	98.029626
1932.000000	98.048483
1931.000000	98.082637
1930.000000	98.116215
1929.000000	98.128478
1928.000000	98.118257
1927.000000	98.106729
1926.000000	98.109004
1925.000000	98.118219
1924.000000	98.125509
1923.000000	98.131608
1922.000000	98.132727
1921.000000	98.119934
1920.000000	98.098183
1919.000000	98.088364
1918.000000	98.099599
1917.000000	98.109578
1916.000000	98.098348
1915.000000	98.075313
1914.000000	98.058393
1913.000000	98.052096
1912.000000	98.051678
1911.000000	98.054867
1910.000000	98.060097
1909.000000	98.063900
1908.000000	98.066061
1907.000000	98.069783
1906.000000	98.072998
1905.000000	98.069556
1904.000000	98.064658
1903.000000	98.070713
1902.000000	98.087388
1901.000000	98.102327
1900.000000	98.110405
1899.000000	98.117462
1898.000000	98.123569
1897.000000	98.118562
1896.000000	98.102828
1895.000000	98.093569
1894.000000	98.100945
1893.000000	98.114776
1892.000000	98.121196
1891.000000	98.118314
1890.000000	98.111535
1889.000000	98.103191
1888.000000	98.097100
1887.000000	98.098457
1886.000000	98.102765
1885.000000	98.100739
1884.000000	98.095044
1883.000000	98.098064
1882.000000	98.111396
1881.000000	98.123116
1880.000000	98.124914
1879.000000	98.119416
1878.000000	98.111021
1877.000000	98.101296
1876.000000	98.097500
1875.000000	98.111253
1874.000000	98.141402
1873.000000	98.170547
1872.000000	98.184453
1871.000000	98.184553
1870.000000	98.180637
1869.000000	98.178263
1868.000000	98.176426
1867.000000	98.175673
1866.000000	98.173209
1865.000000	98.163481
1864.000000	98.150264
1863.000000	98.143985
1862.000000	98.144792
1861.000000	98.141288
1860.000000	98.129863
1859.000000	98.121073
1858.000000	98.122687
1857.000000	98.130832
1856.000000	98.140137
1855.000000	98.149096
1854.000000	98.153434
1853.000000	98.149476
1852.000000	98.143089
1851.000000	98.142046
1850.000000	98.146712
1849.000000	98.153899
1848.000000	98.166543
1847.000000	98.186451
1846.000000	98.201731
1845.000000	98.199650
1844.000000	98.188285
1843.000000	98.185140
1842.000000	98.190319
1841.000000	98.190332
1840.000000	98.180296
1839.000000	98.171525
1838.000000	98.172785
1837.000000	98.175741
1836.000000	98.173532
1835.000000	98.174906
1834.000000	98.188095
1833.000000	98.204664
1832.000000	98.207788
1831.000000	98.195665
1830.000000	98.186125
1829.000000	98.185530
1828.000000	98.187134
1827.000000	98.188423
1826.000000	98.191248
1825.000000	98.195876
1824.000000	98.198345
1823.000000	98.198208
1822.000000	98.196799
1821.000000	98.193717
1820.000000	98.192212
1819.000000	98.200343
1818.000000	98.218098
1817.000000	98.231621
1816.000000	98.231389
1815.000000	98.221859
1814.000000	98.209518
1813.000000	98.194847
1812.000000	98.180085
1811.000000	98.176134
1810.000000	98.184478
1809.000000	98.190668
1808.000000	98.188469
1807.000000	98.186716
1806.000000	98.188824
1805.000000	98.184947
1804.000000	98.170577
1803.000000	98.155034
1802.000000	98.147332
1801.000000	98.142256
1800.000000	98.129926
1799.000000	98.114317
1798.000000	98.102680
1797.000000	98.098556
1796.000000	98.106395
1795.000000	98.124916
1794.000000	98.139850
1793.000000	98.139177
1792.000000	98.131881
1791.000000	98.138056
1790.000000	98.158843
1789.000000	98.176240
1788.000000	98.179727
1787.000000	98.178554
1786.000000	98.187301
1785.000000	98.206684
1784.000000	98.227591
1783.000000	98.242994
1782.000000	98.251730
1781.000000	98.258655
1780.000000	98.267961
1779.000000	98.281654
1778.000000	98.296829
1777.000000	98.313406
1776.000000	98.336031
1775.000000	98.362307
1774.000000	98.379949
1773.000000	98.386645
1772.000000	98.391913
1771.000000	98.396945
1770.000000	98.395074
1769.000000	98.379017
1768.000000	98.354949
1767.000000	98.342489
1766.000000	98.349873
1765.000000	98.362919
1764.000000	98.364059
1763.000000	98.353741
1762.000000	98.345925
1761.000000	98.342430
1760.000000	98.337506
1759.000000	98.333812
1758.000000	98.330767
1757.000000	98.328600
1756.000000	98.328330
1755.000000	98.331289
1754.000000	98.335235
1753.000000	98.332286
1752.000000	98.323012
1751.000000	98.317864
1750.000000	98.316477
1749.000000	98.306982
1748.000000	98.287744
1747.000000	98.265557
1746.000000	98.245887
1745.000000	98.231357
1744.000000	98.227992
1743.000000	98.243931
1742.000000	98.270190
1741.000000	98.282107
1740.000000	98.278225
1739.000000	98.292702
1738.000000	98.342992
1737.000000	98.402976
1736.000000	98.433348
1735.000000	98.435479
1734.000000	98.450886
1733.000000	98.468346
1732.000000	98.471368
1731.000000	98.475826
1730.000000	98.486536
1729.000000	98.497565
1728.000000	98.503525
1727.000000	98.504539
1726.000000	98.504170
1725.000000	98.502969
1724.000000	98.503562
1723.000000	98.518455
1722.000000	98.551415
1721.000000	98.581347
1720.000000	98.576648
1719.000000	98.533987
1718.000000	98.493173
1717.000000	98.458605
1716.000000	98.406356
1715.000000	98.351867
1714.000000	98.302002
1713.000000	98.242998
1712.000000	98.175062
1711.000000	98.111751
1710.000000	98.057330
1709.000000	97.998681
1708.000000	97.917455
1707.000000	97.808148
1706.000000	97.687277
1705.000000	97.580770
1704.000000	97.511367
1703.000000	97.475699
1702.000000	97.415213
1701.000000	97.255457
1700.000000	97.020439
1699.000000	96.828927
1698.000000	96.699660
1697.000000	96.544280
1696.000000	96.322585
1695.000000	96.103572
1694.000000	95.951754
1693.000000	95.837296
1692.000000	95.707222
1691.000000	95.553207
1690.000000	95.399682
1689.000000	95.268910
1688.000000	95.162042
1687.000000	95.062957
1686.000000	94.923732
1685.000000	94.691688
1684.000000	94.397529
1683.000000	94.131811
1682.000000	93.920943
1681.000000	93.720753
1680.000000	93.509106
1679.000000	93.309993
1678.000000	93.128567
1677.000000	92.916772
1676.000000	92.627346
1675.000000	92.291416
1674.000000	91.991098
1673.000000	91.745519
1672.000000	91.505813
1671.000000	91.228637
1670.000000	90.906191
1669.000000	90.560077
1668.000000	90.233566
1667.000000	89.964118
1666.000000	89.744763
1665.000000	89.526918
1664.000000	89.269832
1663.000000	88.987698
1662.000000	88.723368
1661.000000	88.489963
1660.000000	88.277139
1659.000000	88.087249
1658.000000	87.938720
1657.000000	87.834504
1656.000000	87.751990
1655.000000	87.645307
1654.000000	87.502203
1653.000000	87.348754
1652.000000	87.194553
1651.000000	87.098646
1650.000000	87.064351
1649.000000	87.027168
1648.000000	86.964110
1647.000000	86.905669
1646.000000	86.864327
1645.000000	86.813985
1644.000000	86.755988
1643.000000	86.707349
1642.000000	86.670698
1641.000000	86.639231
1640.000000	86.608990
1639.000000	86.584940
1638.000000	86.566094
1637.000000	86.538605
1636.000000	86.498425
1635.000000	86.445417
1634.000000	86.394888
1633.000000	86.362883
1632.000000	86.350801
1631.000000	86.359012
1630.000000	86.394085
1629.000000	86.462730
1628.000000	86.567849
1627.000000	86.700378
1626.000000	86.847755
1625.000000	87.012601
1624.000000	87.216746
1623.000000	87.471447
1622.000000	87.737260
1621.000000	87.976172
1620.000000	88.191628
1619.000000	88.403197
1618.000000	88.639543
1617.000000	88.932892
1616.000000	89.256886
1615.000000	89.541253
1614.000000	89.771236
1613.000000	89.976323
1612.000000	90.184946
1611.000000	90.405096
1610.000000	90.624037
1609.000000	90.834439
1608.000000	91.042820
1607.000000	91.248002
1606.000000	91.437844
1605.000000	91.613676
1604.000000	91.786791
1603.000000	91.955949
1602.000000	92.106794
1601.000000	92.234973
1600.000000	92.349606
1599.000000	92.453701
1598.000000	92.542573
1597.000000	92.618882
1596.000000	92.692911
1595.000000	92.765167
1594.000000	92.824734
1593.000000	92.869270
1592.000000	92.906842
1591.000000	92.936899
1590.000000	92.948922
1589.000000	92.942614
1588.000000	92.927844
1587.000000	92.904703
1586.000000	92.862899
1585.000000	92.804220
1584.000000	92.742447
1583.000000	92.676162
1582.000000	92.593579
1581.000000	92.501415
1580.000000	92.418948
1579.000000	92.341215
1578.000000	92.237526
1577.000000	92.093838
1576.000000	91.941740
1575.000000	91.813313
1574.000000	91.712049
1573.000000	91.626100
1572.000000	91.531801
1571.000000	91.405131
1570.000000	91.241136
1569.000000	91.064541
1568.000000	90.902492
1567.000000	90.749278
1566.000000	90.583551
1565.000000	90.407186
1564.000000	90.254201
1563.000000	90.146435
1562.000000	90.063229
1561.000000	89.950228
1560.000000	89.746071
1559.000000	89.501144
1558.000000	89.251679
1557.000000	89.035508
1556.000000	88.861931
1555.000000	88.697587
1554.000000	88.533309
1553.000000	88.379704
1552.000000	88.243517
1551.000000	88.128123
1550.000000	88.038796
1549.000000	87.971650
1548.000000	87.914637
1547.000000	87.859062
1546.000000	87.806737
1545.000000	87.771776
1544.000000	87.762042
1543.000000	87.766137
1542.000000	87.765122
1541.000000	87.758299
1540.000000	87.780751
1539.000000	87.825234
1538.000000	87.870843
1537.000000	87.924833
1536.000000	87.987512
1535.000000	88.067067
1534.000000	88.193200
1533.000000	88.356505
1532.000000	88.493914
1531.000000	88.594771
1530.000000	88.685386
1529.000000	88.777326
1528.000000	88.878621
1527.000000	89.004140
1526.000000	89.152925
1525.000000	89.293113
1524.000000	89.399358
1523.000000	89.485302
1522.000000	89.592906
1521.000000	89.717407
1520.000000	89.807495
1519.000000	89.867052
1518.000000	89.929865
1517.000000	90.015890
1516.000000	90.117281
1515.000000	90.214368
1514.000000	90.302606
1513.000000	90.380893
1512.000000	90.451341
1511.000000	90.527016
1510.000000	90.612900
1509.000000	90.702336
1508.000000	90.807272
1507.000000	90.976099
1506.000000	91.132584
1505.000000	91.194024
1504.000000	91.216290
1503.000000	91.250546
1502.000000	91.304007
1501.000000	91.365599
1500.000000	91.420262
1499.000000	91.464738
1498.000000	91.507833
1497.000000	91.545245
1496.000000	91.565753
1495.000000	91.585063
1494.000000	91.617820
1493.000000	91.648071
1492.000000	91.658349
1491.000000	91.664063
1490.000000	91.688638
1489.000000	91.702974
1488.000000	91.676570
1487.000000	91.632903
1486.000000	91.590128
1485.000000	91.539891
1484.000000	91.475073
1483.000000	91.397954
1482.000000	91.314892
1481.000000	91.223999
1480.000000	91.124620
1479.000000	91.021461
1478.000000	90.913435
1477.000000	90.794718
1476.000000	90.670636
1475.000000	90.553355
1474.000000	90.430306
1473.000000	90.271323
1472.000000	90.072675
1471.000000	89.880274
1470.000000	89.722028
1469.000000	89.582460
1468.000000	89.444228
1467.000000	89.304526
1466.000000	89.156755
1465.000000	88.992512
1464.000000	88.819312
1463.000000	88.661279
1462.000000	88.528083
1461.000000	88.404746
1460.000000	88.274205
1459.000000	88.124255
1458.000000	87.950184
1457.000000	87.749593
1456.000000	87.543614
1455.000000	87.383389
1454.000000	87.269606
1453.000000	87.169982
1452.000000	87.077031
1451.000000	87.000628
1450.000000	86.937705
1449.000000	86.874644
1448.000000	86.814751
1447.000000	86.772552
1446.000000	86.745701
1445.000000	86.724893
1444.000000	86.708412
1443.000000	86.700154
1442.000000	86.697927
1441.000000	86.697081
1440.000000	86.696781
1439.000000	86.696606
1438.000000	86.697565
1437.000000	86.710569
1436.000000	86.738027
1435.000000	86.763031
1434.000000	86.777973
1433.000000	86.784494
1432.000000	86.790616
1431.000000	86.805404
1430.000000	86.828198
1429.000000	86.848156
1428.000000	86.859487
1427.000000	86.864884
1426.000000	86.867782
1425.000000	86.881670
1424.000000	86.919313
1423.000000	86.968713
1422.000000	87.004691
1421.000000	87.017194
1420.000000	87.027070
1419.000000	87.073028
1418.000000	87.154073
1417.000000	87.239675
1416.000000	87.320821
1415.000000	87.400451
1414.000000	87.478752
1413.000000	87.558147
1412.000000	87.643908
1411.000000	87.736113
1410.000000	87.827778
1409.000000	87.910458
1408.000000	87.981151
1407.000000	88.043369
1406.000000	88.104049
1405.000000	88.171564
1404.000000	88.242398
1403.000000	88.302543
1402.000000	88.345280
1401.000000	88.377976
1400.000000	88.419976
1399.000000	88.483035
1398.000000	88.557329
1397.000000	88.634611
1396.000000	88.726463
1395.000000	88.842805
1394.000000	88.969741
1393.000000	89.088898
1392.000000	89.197306
1391.000000	89.299647
1390.000000	89.398639
1389.000000	89.500759
1388.000000	89.617239
1387.000000	89.745975
1386.000000	89.866293
1385.000000	89.968511
1384.000000	90.061074
1383.000000	90.153136
1382.000000	90.246352
1381.000000	90.339173
1380.000000	90.434766
1379.000000	90.534960
1378.000000	90.633598
1377.000000	90.725696
1376.000000	90.819233
1375.000000	90.929343
1374.000000	91.058382
1373.000000	91.190013
1372.000000	91.311206
1371.000000	91.423197
1370.000000	91.533376
1369.000000	91.653088
1368.000000	91.785384
1367.000000	91.918451
1366.000000	92.038494
1365.000000	92.144676
1364.000000	92.251188
1363.000000	92.371220
1362.000000	92.495885
1361.000000	92.605820
1360.000000	92.694329
1359.000000	92.763862
1358.000000	92.816942
1357.000000	92.857246
1356.000000	92.889184
1355.000000	92.914108
1354.000000	92.929440
1353.000000	92.930701
1352.000000	92.916109
1351.000000	92.887618
1350.000000	92.848441
1349.000000	92.805385
1348.000000	92.762790
1347.000000	92.719313
1346.000000	92.671830
1345.000000	92.620623
1344.000000	92.566304
1343.000000	92.506526
1342.000000	92.441008
1341.000000	92.379644
1340.000000	92.337843
1339.000000	92.320199
1338.000000	92.319270
1337.000000	92.329217
1336.000000	92.349864
1335.000000	92.382367
1334.000000	92.426941
1333.000000	92.483893
1332.000000	92.552605
1331.000000	92.629240
1330.000000	92.708906
1329.000000	92.789872
1328.000000	92.871439
1327.000000	92.948411
1326.000000	93.013518
1325.000000	93.065893
1324.000000	93.108511
1323.000000	93.141823
1322.000000	93.165263
1321.000000	93.182416
1320.000000	93.198911
1319.000000	93.216965
1318.000000	93.236010
1317.000000	93.257153
1316.000000	93.283480
1315.000000	93.317555
1314.000000	93.361161
1313.000000	93.414149
1312.000000	93.471756
1311.000000	93.526498
1310.000000	93.575058
1309.000000	93.620102
1308.000000	93.664840
1307.000000	93.709274
1306.000000	93.752196
1305.000000	93.793908
1304.000000	93.832772
1303.000000	93.865922
1302.000000	93.894763
1301.000000	93.924824
1300.000000	93.957150
1299.000000	93.985937
1298.000000	94.006872
1297.000000	94.021631
1296.000000	94.031478
1295.000000	94.031870
1294.000000	94.018736
1293.000000	93.993883
1292.000000	93.960521
1291.000000	93.919258
1290.000000	93.871832
1289.000000	93.823771
1288.000000	93.778449
1287.000000	93.732818
1286.000000	93.683894
1285.000000	93.635459
1284.000000	93.593978
1283.000000	93.562238
1282.000000	93.540730
1281.000000	93.531543
1280.000000	93.536007
1279.000000	93.549454
1278.000000	93.563847
1277.000000	93.575142
1276.000000	93.584655
1275.000000	93.594123
1274.000000	93.603341
1273.000000	93.611821
1272.000000	93.619137
1271.000000	93.623761
1270.000000	93.624084
1269.000000	93.620211
1268.000000	93.612615
1267.000000	93.599999
1266.000000	93.580884
1265.000000	93.555041
1264.000000	93.522517
1263.000000	93.483872
1262.000000	93.442030
1261.000000	93.401200
1260.000000	93.361655
1259.000000	93.318061
1258.000000	93.265841
1257.000000	93.205893
1256.000000	93.141837
1255.000000	93.075270
1254.000000	93.005735
1253.000000	92.932986
1252.000000	92.856597
1251.000000	92.774671
1250.000000	92.685308
1249.000000	92.589316
1248.000000	92.490313
1247.000000	92.392060
1246.000000	92.296654
1245.000000	92.204028
1244.000000	92.112670
1243.000000	92.021535
1242.000000	91.932288
1241.000000	91.849635
1240.000000	91.779451
1239.000000	91.726388
1238.000000	91.691729
1237.000000	91.673942
1236.000000	91.670870
1235.000000	91.682050
1234.000000	91.710128
1233.000000	91.758450
1232.000000	91.827816
1231.000000	91.915157
1230.000000	92.016411
1229.000000	92.130809
1228.000000	92.259389
1227.000000	92.401201
1226.000000	92.552756
1225.000000	92.710839
1224.000000	92.873090
1223.000000	93.034918
1222.000000	93.189546
1221.000000	93.332054
1220.000000	93.461418
1219.000000	93.577565
1218.000000	93.679057
1217.000000	93.763070
1216.000000	93.826174
1215.000000	93.866196
1214.000000	93.883608
1213.000000	93.882169
1212.000000	93.866579
1211.000000	93.840269
1210.000000	93.805524
1209.000000	93.762977
1208.000000	93.712248
1207.000000	93.654635
1206.000000	93.596180
1205.000000	93.546869
1204.000000	93.516238
1203.000000	93.509044
1202.000000	93.524080
1201.000000	93.557098
1200.000000	93.604798
1199.000000	93.667755
1198.000000	93.748233
1197.000000	93.844649
1196.000000	93.949437
1195.000000	94.053106
1194.000000	94.150844
1193.000000	94.243601
1192.000000	94.333821
1191.000000	94.422598
1190.000000	94.510224
1189.000000	94.595955
1188.000000	94.676781
1187.000000	94.749657
1186.000000	94.815053
1185.000000	94.875548
1184.000000	94.930824
1183.000000	94.978303
1182.000000	95.018933
1181.000000	95.056960
1180.000000	95.093031
1179.000000	95.121769
1178.000000	95.138775
1177.000000	95.146105
1176.000000	95.148717
1175.000000	95.150288
1174.000000	95.154080
1173.000000	95.163673
1172.000000	95.179408
1171.000000	95.196193
1170.000000	95.207648
1169.000000	95.210922
1168.000000	95.206619
1167.000000	95.197018
1166.000000	95.186154
1165.000000	95.179133
1164.000000	95.179129
1163.000000	95.186146
1162.000000	95.198910
1161.000000	95.216377
1160.000000	95.237463
1159.000000	95.262096
1158.000000	95.293362
1157.000000	95.334831
1156.000000	95.385077
1155.000000	95.437761
1154.000000	95.488801
1153.000000	95.540554
1152.000000	95.596755
1151.000000	95.656594
1150.000000	95.715967
1149.000000	95.772199
1148.000000	95.824963
1147.000000	95.874510
1146.000000	95.921069
1145.000000	95.964625
1144.000000	96.004168
1143.000000	96.038572
1142.000000	96.069206
1141.000000	96.099380
1140.000000	96.130576
1139.000000	96.161451
1138.000000	96.190455
1137.000000	96.217081
1136.000000	96.240112
1135.000000	96.257335
1134.000000	96.267695
1133.000000	96.271858
1132.000000	96.271738
1131.000000	96.271211
1130.000000	96.274529
1129.000000	96.280626
1128.000000	96.281520
1127.000000	96.271772
1126.000000	96.257365
1125.000000	96.249116
1124.000000	96.248856
1123.000000	96.248771
1122.000000	96.243894
1121.000000	96.238060
1120.000000	96.236591
1119.000000	96.239632
1118.000000	96.243969
1117.000000	96.245613
1116.000000	96.239572
1115.000000	96.223116
1114.000000	96.200775
1113.000000	96.180483
1112.000000	96.164034
1111.000000	96.147500
1110.000000	96.131604
1109.000000	96.123653
1108.000000	96.125681
1107.000000	96.128475
1106.000000	96.121254
1105.000000	96.102206
1104.000000	96.076274
1103.000000	96.048135
1102.000000	96.021281
1101.000000	95.999253
1100.000000	95.981399
1099.000000	95.963816
1098.000000	95.943397
1097.000000	95.920856
1096.000000	95.896246
1095.000000	95.865427
1094.000000	95.824313
1093.000000	95.773671
1092.000000	95.716759
1091.000000	95.655440
1090.000000	95.590313
1089.000000	95.521814
1088.000000	95.448477
1087.000000	95.367126
1086.000000	95.278003
1085.000000	95.188115
1084.000000	95.107696
1083.000000	95.044703
1082.000000	95.004368
1081.000000	94.990275
1080.000000	95.002996
1079.000000	95.037444
1078.000000	95.084848
1077.000000	95.139125
1076.000000	95.198502
1075.000000	95.261816
1074.000000	95.325373
1073.000000	95.385091
1072.000000	95.439912
1071.000000	95.490886
1070.000000	95.536563
1069.000000	95.570747
1068.000000	95.587039
1067.000000	95.585760
1066.000000	95.575528
1065.000000	95.566508
1064.000000	95.563529
1063.000000	95.566367
1062.000000	95.573181
1061.000000	95.581680
1060.000000	95.589448
1059.000000	95.596994
1058.000000	95.608797
1057.000000	95.628002
1056.000000	95.650814
1055.000000	95.669651
1054.000000	95.681500
1053.000000	95.690079
1052.000000	95.700448
1051.000000	95.714502
1050.000000	95.731264
1049.000000	95.748169
1048.000000	95.762544
1047.000000	95.774692
1046.000000	95.788213
1045.000000	95.803683
1044.000000	95.813531
1043.000000	95.808251
1042.000000	95.787471
1041.000000	95.760460
1040.000000	95.734953
1039.000000	95.709110
1038.000000	95.675149
1037.000000	95.626913
1036.000000	95.564260
1035.000000	95.494252
1034.000000	95.429693
1033.000000	95.383082
1032.000000	95.360226
1031.000000	95.360261
1030.000000	95.380108
1029.000000	95.417132
1028.000000	95.467796
1027.000000	95.527680
1026.000000	95.593556
1025.000000	95.662865
1024.000000	95.731619
1023.000000	95.795022
1022.000000	95.850902
1021.000000	95.899710
1020.000000	95.941477
1019.000000	95.975407
1018.000000	96.002310
1017.000000	96.024172
1016.000000	96.042040
1015.000000	96.058288
1014.000000	96.079661
1013.000000	96.112706
1012.000000	96.155556
1011.000000	96.199491
1010.000000	96.239547
1009.000000	96.279438
1008.000000	96.324462
1007.000000	96.374433
1006.000000	96.426355
1005.000000	96.479543
1004.000000	96.534732
1003.000000	96.590416
1002.000000	96.643440
1001.000000	96.692219
1000.000000	96.737548
999.000000	96.781004
998.000000	96.823323
997.000000	96.863559
996.000000	96.900200
995.000000	96.934576
994.000000	96.971502
993.000000	97.013220
992.000000	97.054295
991.000000	97.086767
990.000000	97.110210
989.000000	97.131805
988.000000	97.155786
987.000000	97.178401
986.000000	97.194411
985.000000	97.204185
984.000000	97.211519
983.000000	97.217690
982.000000	97.220477
981.000000	97.216612
980.000000	97.204021
979.000000	97.183311
978.000000	97.157866
977.000000	97.131366
976.000000	97.105776
975.000000	97.083557
974.000000	97.069667
973.000000	97.067935
972.000000	97.076886
971.000000	97.093242
970.000000	97.117937
969.000000	97.153457
968.000000	97.196293
967.000000	97.237625
966.000000	97.272999
965.000000	97.306339
964.000000	97.342480
963.000000	97.380465
962.000000	97.416141
961.000000	97.448054
960.000000	97.478837
959.000000	97.513197
958.000000	97.554779
957.000000	97.601710
956.000000	97.645271
955.000000	97.677276
954.000000	97.699047
953.000000	97.718858
952.000000	97.740826
951.000000	97.761245
950.000000	97.775961
949.000000	97.785150
948.000000	97.789456
947.000000	97.788054
946.000000	97.783425
945.000000	97.782460
944.000000	97.789183
943.000000	97.799494
942.000000	97.805828
941.000000	97.804718
940.000000	97.798717
939.000000	97.794282
938.000000	97.798800
937.000000	97.815496
936.000000	97.839777
935.000000	97.863675
934.000000	97.884255
933.000000	97.904490
932.000000	97.926195
931.000000	97.947679
930.000000	97.968885
929.000000	97.992410
928.000000	98.017158
927.000000	98.036607
926.000000	98.046757
925.000000	98.051327
924.000000	98.056719
923.000000	98.065715
922.000000	98.078372
921.000000	98.094381
920.000000	98.111626
919.000000	98.126832
918.000000	98.140990
917.000000	98.160226
916.000000	98.187761
915.000000	98.218185
914.000000	98.242824
913.000000	98.258574
912.000000	98.268597
911.000000	98.277346
910.000000	98.288324
909.000000	98.304574
908.000000	98.327886
907.000000	98.356966
906.000000	98.387084
905.000000	98.411183
904.000000	98.423281
903.000000	98.424131
902.000000	98.422892
901.000000	98.429267
900.000000	98.444032
899.000000	98.461148
898.000000	98.478064
897.000000	98.497749
896.000000	98.519951
895.000000	98.537383
894.000000	98.544464
893.000000	98.545336
892.000000	98.549359
891.000000	98.561176
890.000000	98.574668
889.000000	98.570759
888.000000	98.520177
887.000000	98.394751
886.000000	98.185334
885.000000	97.906598
884.000000	97.578461
883.000000	97.203583
882.000000	96.762832
881.000000	96.238064
880.000000	95.643743
879.000000	95.040964
878.000000	94.516300
877.000000	94.144904
876.000000	93.969143
875.000000	94.002919
874.000000	94.241336
873.000000	94.655785
872.000000	95.190060
871.000000	95.767935
870.000000	96.315614
869.000000	96.782468
868.000000	97.146328
867.000000	97.409879
866.000000	97.594387
865.000000	97.728681
864.000000	97.833664
863.000000	97.917782
862.000000	97.984101
861.000000	98.037108
860.000000	98.079884
859.000000	98.110773
858.000000	98.128879
857.000000	98.139836
856.000000	98.152578
855.000000	98.171690
854.000000	98.194397
853.000000	98.212903
852.000000	98.218522
851.000000	98.207589
850.000000	98.186626
849.000000	98.170681
848.000000	98.174006
847.000000	98.201297
846.000000	98.246231
845.000000	98.295808
844.000000	98.336997
843.000000	98.364025
842.000000	98.382307
841.000000	98.403292
840.000000	98.433605
839.000000	98.469638
838.000000	98.501988
837.000000	98.523543
836.000000	98.533781
835.000000	98.538059
834.000000	98.542595
833.000000	98.547853
832.000000	98.547702
831.000000	98.537538
830.000000	98.521704
829.000000	98.509515
828.000000	98.505551
827.000000	98.508057
826.000000	98.514845
825.000000	98.524776
824.000000	98.534113
823.000000	98.537736
822.000000	98.534417
821.000000	98.525472
820.000000	98.509338
819.000000	98.484259
818.000000	98.456309
817.000000	98.436861
816.000000	98.429738
815.000000	98.427009
814.000000	98.421170
813.000000	98.416714
812.000000	98.423961
811.000000	98.443957
810.000000	98.464843
809.000000	98.474099
808.000000	98.470923
807.000000	98.464517
806.000000	98.461836
805.000000	98.460419
804.000000	98.454727
803.000000	98.446076
802.000000	98.441378
801.000000	98.442393
800.000000	98.441566
799.000000	98.430231
798.000000	98.406643
797.000000	98.374191
796.000000	98.337388
795.000000	98.303286
794.000000	98.280775
793.000000	98.272542
792.000000	98.270881
791.000000	98.266153
790.000000	98.256942
789.000000	98.247967
788.000000	98.241959
787.000000	98.238760
786.000000	98.238569
785.000000	98.239992
784.000000	98.237708
783.000000	98.228153
782.000000	98.215679
781.000000	98.207194
780.000000	98.202437
779.000000	98.195273
778.000000	98.182933
777.000000	98.168345
776.000000	98.155025
775.000000	98.145754
774.000000	98.144573
773.000000	98.153122
772.000000	98.165206
771.000000	98.171171
770.000000	98.167613
769.000000	98.157335
768.000000	98.141445
767.000000	98.118777
766.000000	98.092421
765.000000	98.069087
764.000000	98.050978
763.000000	98.034696
762.000000	98.018407
761.000000	98.002836
760.000000	97.984810
759.000000	97.958376
758.000000	97.925545
757.000000	97.898472
756.000000	97.886166
755.000000	97.883491
754.000000	97.877565
753.000000	97.861961
752.000000	97.841254
751.000000	97.824165
750.000000	97.813948
749.000000	97.804158
748.000000	97.783884
747.000000	97.749281
746.000000	97.708676
745.000000	97.673136
744.000000	97.644771
743.000000	97.619904
742.000000	97.599836
741.000000	97.588729
740.000000	97.581333
739.000000	97.563808
738.000000	97.530166
737.000000	97.489695
736.000000	97.454536
735.000000	97.426834
734.000000	97.401502
733.000000	97.373972
732.000000	97.341167
731.000000	97.302230
730.000000	97.262512
729.000000	97.228859
728.000000	97.200453
727.000000	97.169977
726.000000	97.132811
725.000000	97.091005
724.000000	97.046286
723.000000	96.995446
722.000000	96.936127
721.000000	96.872985
720.000000	96.813592
719.000000	96.757591
718.000000	96.689450
717.000000	96.577773
716.000000	96.386771
715.000000	96.110280
714.000000	95.807952
713.000000	95.590917
712.000000	95.547256
711.000000	95.673329
710.000000	95.883601
709.000000	96.082073
708.000000	96.218187
707.000000	96.289355
706.000000	96.310346
705.000000	96.294993
704.000000	96.257816
703.000000	96.212253
702.000000	96.166779
701.000000	96.128092
700.000000	96.103304
699.000000	96.097999
698.000000	96.108208
697.000000	96.120526
696.000000	96.124620
695.000000	96.118515
694.000000	96.107499
693.000000	96.096907
692.000000	96.083735
691.000000	96.063448
690.000000	96.037665
689.000000	96.013835
688.000000	95.996102
687.000000	95.976862
686.000000	95.948440
685.000000	95.914832
684.000000	95.884530
683.000000	95.861829
682.000000	95.848861
681.000000	95.848392
680.000000	95.855542
679.000000	95.854224
678.000000	95.830125
677.000000	95.777506
676.000000	95.708628
675.000000	95.647872
674.000000	95.614945
673.000000	95.612132
672.000000	95.631148
671.000000	95.671334
670.000000	95.744218
669.000000	95.841458
668.000000	95.851123
667.000000	95.688729
666.000000	95.529644
665.000000	95.432763
664.000000	95.364013
663.000000	95.316851
662.000000	95.288821
661.000000	95.266944
660.000000	95.244763
659.000000	95.233612
658.000000	95.242214
657.000000	95.254397
656.000000	95.257738
655.000000	95.260502
654.000000	95.264838
653.000000	95.254387
652.000000	95.227289
651.000000	95.205711
650.000000	95.201342
649.000000	95.197494
648.000000	95.184667
647.000000	95.177881
646.000000	95.180687
645.000000	95.171262
644.000000	95.139062
643.000000	95.103785
642.000000	95.086390
641.000000	95.080961
640.000000	95.072829
639.000000	95.065984
638.000000	95.068623
637.000000	95.072614
636.000000	95.069345
635.000000	95.066513
634.000000	95.075073
633.000000	95.092531
632.000000	95.109512
631.000000	95.123028
630.000000	95.131268
629.000000	95.126779
628.000000	95.107990
627.000000	95.086176
626.000000	95.069259
625.000000	95.054132
624.000000	95.039728
623.000000	95.032977
622.000000	95.037830
621.000000	95.049208
620.000000	95.060938
619.000000	95.070190
618.000000	95.074308
617.000000	95.076150
616.000000	95.091134
615.000000	95.130986
614.000000	95.177597
613.000000	95.194477
612.000000	95.170154
611.000000	95.132475
610.000000	95.111099
609.000000	95.105797
608.000000	95.102329
607.000000	95.098398
606.000000	95.097316
605.000000	95.095867
604.000000	95.092354
603.000000	95.093131
602.000000	95.100506
601.000000	95.104962
600.000000	95.100921
599.000000	95.097261
598.000000	95.105536
597.000000	95.125725
596.000000	95.150324
595.000000	95.172406
594.000000	95.184807
593.000000	95.183855
592.000000	95.178575
591.000000	95.183900
590.000000	95.198461
589.000000	95.204240
588.000000	95.194241
587.000000	95.185787
586.000000	95.198276
585.000000	95.227036
584.000000	95.249939
583.000000	95.250557
582.000000	95.228461
581.000000	95.194762
580.000000	95.166041
579.000000	95.152907
578.000000	95.150142
577.000000	95.142676
576.000000	95.123712
575.000000	95.101324
574.000000	95.084792
573.000000	95.074164
572.000000	95.064969
571.000000	95.051534
570.000000	95.023623
569.000000	94.977765
568.000000	94.933982
567.000000	94.921691
566.000000	94.940622
565.000000	94.953909
564.000000	94.932626
563.000000	94.887844
562.000000	94.851473
561.000000	94.841685
560.000000	94.859716
559.000000	94.902881
558.000000	94.959259
557.000000	95.002580
556.000000	95.014589
555.000000	95.005953
554.000000	95.000428
553.000000	95.004523
552.000000	95.006008
551.000000	94.994402
550.000000	94.971856
549.000000	94.952688
548.000000	94.958875
547.000000	95.006307
546.000000	95.084872
545.000000	95.160984
544.000000	95.209186
543.000000	95.228483
542.000000	95.227980
541.000000	95.215751
540.000000	95.204058
539.000000	95.200209
538.000000	95.184226
537.000000	95.122438
536.000000	95.020232
535.000000	94.933614
534.000000	94.906678
533.000000	94.917257
532.000000	94.916189
531.000000	94.896097
530.000000	94.890369
529.000000	94.919957
528.000000	94.974700
527.000000	95.031927
526.000000	95.072587
525.000000	95.092613
524.000000	95.111327
523.000000	95.159319
522.000000	95.244251
521.000000	95.339102
520.000000	95.414815
519.000000	95.472838
518.000000	95.530962
517.000000	95.590749
516.000000	95.644519
515.000000	95.701716
514.000000	95.780090
513.000000	95.877842
512.000000	95.974315
511.000000	96.051417
510.000000	96.104566
509.000000	96.140025
508.000000	96.173636
507.000000	96.214436
506.000000	96.246793
505.000000	96.249310
504.000000	96.232408
503.000000	96.238747
502.000000	96.297729
501.000000	96.398658
500.000000	96.524822
499.000000	96.672860
498.000000	96.819207
497.000000	96.909130
496.000000	96.912087
495.000000	96.861184
494.000000	96.810916
493.000000	96.782764
492.000000	96.774678
491.000000	96.786075
490.000000	96.806418
489.000000	96.802897
488.000000	96.759453
487.000000	96.709004
486.000000	96.697534
485.000000	96.726536
484.000000	96.755670
483.000000	96.757141
482.000000	96.743263
481.000000	96.746115
480.000000	96.789555
479.000000	96.873918
478.000000	96.974997
477.000000	97.061297
476.000000	97.120911
475.000000	97.155864
474.000000	97.155006
473.000000	97.099366
472.000000	97.014743
471.000000	96.971687
470.000000	97.009979
469.000000	97.102457
468.000000	97.200574
467.000000	97.275224
466.000000	97.317872
465.000000	97.330972
464.000000	97.331495
463.000000	97.343214
462.000000	97.363017
461.000000	97.364933
460.000000	97.355219
459.000000	97.397119
458.000000	97.545087
457.000000	98.009484
456.000000	98.108150
455.000000	98.184976
454.000000	98.307233
453.000000	98.442270
452.000000	98.516736
451.000000	98.529814
450.000000	98.540374
