PE IR       SUBTECH     SPECTRUM    ASCII       PEDS        4.00        
   -1
POD9-1C-C002_1.ASC
23/09/08
14:37:31.00
23/09/08
14:52:56.00
uco
Sample 002 By uco Date Friday, September 08 2023
450.000000
#HDR
-1
-1
#GR
cm-1
%T
1.0
0.0
4000.000000
-1.000000
3551
8
98.789921
89.820220
#DATA
4000.000000	98.735950
3999.000000	98.726548
3998.000000	98.722806
3997.000000	98.723596
3996.000000	98.727536
3995.000000	98.731647
3994.000000	98.733067
3993.000000	98.730519
3992.000000	98.724953
3991.000000	98.718966
3990.000000	98.715460
3989.000000	98.716044
3988.000000	98.719981
3987.000000	98.724484
3986.000000	98.726384
3985.000000	98.724271
3984.000000	98.719323
3983.000000	98.714077
3982.000000	98.710193
3981.000000	98.707290
3980.000000	98.703841
3979.000000	98.699022
3978.000000	98.693629
3977.000000	98.689664
3976.000000	98.689373
3975.000000	98.694051
3974.000000	98.702966
3973.000000	98.712930
3972.000000	98.719655
3971.000000	98.720467
3970.000000	98.715909
3969.000000	98.708961
3968.000000	98.702483
3967.000000	98.697805
3966.000000	98.695166
3965.000000	98.694485
3964.000000	98.695210
3963.000000	98.695876
3962.000000	98.694816
3961.000000	98.691439
3960.000000	98.686966
3959.000000	98.683625
3958.000000	98.682748
3957.000000	98.683827
3956.000000	98.684798
3955.000000	98.683632
3954.000000	98.679940
3953.000000	98.675220
3952.000000	98.672011
3951.000000	98.672342
3950.000000	98.676552
3949.000000	98.683141
3948.000000	98.689829
3947.000000	98.694611
3946.000000	98.696008
3945.000000	98.693509
3944.000000	98.688420
3943.000000	98.683564
3942.000000	98.681566
3941.000000	98.682330
3940.000000	98.683395
3939.000000	98.683249
3938.000000	98.682519
3937.000000	98.682725
3936.000000	98.684051
3935.000000	98.685122
3934.000000	98.684594
3933.000000	98.681769
3932.000000	98.676923
3931.000000	98.670979
3930.000000	98.665597
3929.000000	98.662421
3928.000000	98.660868
3927.000000	98.658747
3926.000000	98.655048
3925.000000	98.651958
3924.000000	98.652398
3923.000000	98.655990
3922.000000	98.660030
3921.000000	98.664003
3920.000000	98.669854
3919.000000	98.678235
3918.000000	98.686156
3917.000000	98.689650
3916.000000	98.687631
3915.000000	98.681649
3914.000000	98.673464
3913.000000	98.664522
3912.000000	98.656441
3911.000000	98.651263
3910.000000	98.650280
3909.000000	98.653697
3908.000000	98.660176
3907.000000	98.668220
3906.000000	98.677858
3905.000000	98.690882
3904.000000	98.707351
3903.000000	98.721067
3902.000000	98.722553
3901.000000	98.709231
3900.000000	98.688946
3899.000000	98.672573
3898.000000	98.664140
3897.000000	98.660266
3896.000000	98.657873
3895.000000	98.657678
3894.000000	98.660041
3893.000000	98.663637
3892.000000	98.668455
3891.000000	98.678513
3890.000000	98.694307
3889.000000	98.708093
3888.000000	98.711324
3887.000000	98.702797
3886.000000	98.689967
3885.000000	98.682765
3884.000000	98.681195
3883.000000	98.676494
3882.000000	98.663901
3881.000000	98.649291
3880.000000	98.643848
3879.000000	98.650291
3878.000000	98.657982
3877.000000	98.656704
3876.000000	98.646904
3875.000000	98.638971
3874.000000	98.644690
3873.000000	98.663508
3872.000000	98.680740
3871.000000	98.683947
3870.000000	98.677878
3869.000000	98.676758
3868.000000	98.681389
3867.000000	98.680768
3866.000000	98.671018
3865.000000	98.658546
3864.000000	98.650442
3863.000000	98.648778
3862.000000	98.651342
3861.000000	98.655774
3860.000000	98.659442
3859.000000	98.661747
3858.000000	98.664230
3857.000000	98.669124
3856.000000	98.674978
3855.000000	98.676003
3854.000000	98.671016
3853.000000	98.669969
3852.000000	98.674081
3851.000000	98.672304
3850.000000	98.663238
3849.000000	98.654984
3848.000000	98.651872
3847.000000	98.651406
3846.000000	98.649116
3845.000000	98.643530
3844.000000	98.637226
3843.000000	98.635019
3842.000000	98.638471
3841.000000	98.644372
3840.000000	98.648782
3839.000000	98.651828
3838.000000	98.655549
3837.000000	98.660311
3836.000000	98.664145
3835.000000	98.664870
3834.000000	98.661782
3833.000000	98.655702
3832.000000	98.648422
3831.000000	98.641638
3830.000000	98.634477
3829.000000	98.624742
3828.000000	98.612878
3827.000000	98.605642
3826.000000	98.611342
3825.000000	98.629845
3824.000000	98.650450
3823.000000	98.660352
3822.000000	98.655319
3821.000000	98.646281
3820.000000	98.645799
3819.000000	98.647810
3818.000000	98.639116
3817.000000	98.620103
3816.000000	98.603742
3815.000000	98.600070
3814.000000	98.602926
3813.000000	98.602737
3812.000000	98.602173
3811.000000	98.609098
3810.000000	98.624411
3809.000000	98.640366
3808.000000	98.649749
3807.000000	98.654648
3806.000000	98.661559
3805.000000	98.668894
3804.000000	98.669058
3803.000000	98.659176
3802.000000	98.645142
3801.000000	98.637940
3800.000000	98.638759
3799.000000	98.634866
3798.000000	98.620049
3797.000000	98.601619
3796.000000	98.590182
3795.000000	98.587465
3794.000000	98.586789
3793.000000	98.583774
3792.000000	98.581184
3791.000000	98.582845
3790.000000	98.588704
3789.000000	98.595520
3788.000000	98.599432
3787.000000	98.598003
3786.000000	98.591938
3785.000000	98.585871
3784.000000	98.584958
3783.000000	98.589181
3782.000000	98.592735
3781.000000	98.590732
3780.000000	98.584560
3779.000000	98.580869
3778.000000	98.583399
3777.000000	98.588705
3776.000000	98.592627
3775.000000	98.596391
3774.000000	98.603271
3773.000000	98.612560
3772.000000	98.620077
3771.000000	98.624312
3770.000000	98.628532
3769.000000	98.635524
3768.000000	98.641454
3767.000000	98.640323
3766.000000	98.631778
3765.000000	98.621316
3764.000000	98.613362
3763.000000	98.606968
3762.000000	98.599544
3761.000000	98.592442
3760.000000	98.588558
3759.000000	98.588647
3758.000000	98.591989
3757.000000	98.598931
3756.000000	98.609712
3755.000000	98.623715
3754.000000	98.642610
3753.000000	98.671652
3752.000000	98.711910
3751.000000	98.750865
3750.000000	98.772041
3749.000000	98.774054
3748.000000	98.764828
3747.000000	98.747179
3746.000000	98.720660
3745.000000	98.692131
3744.000000	98.678160
3743.000000	98.677641
3742.000000	98.672292
3741.000000	98.660557
3740.000000	98.654840
3739.000000	98.661164
3738.000000	98.672112
3737.000000	98.676066
3736.000000	98.670016
3735.000000	98.661634
3734.000000	98.659708
3733.000000	98.663376
3732.000000	98.667023
3731.000000	98.667979
3730.000000	98.666041
3729.000000	98.662148
3728.000000	98.658109
3727.000000	98.655015
3726.000000	98.651207
3725.000000	98.643043
3724.000000	98.630604
3723.000000	98.619558
3722.000000	98.615591
3721.000000	98.617824
3720.000000	98.619925
3719.000000	98.618459
3718.000000	98.617165
3717.000000	98.622735
3716.000000	98.636910
3715.000000	98.654774
3714.000000	98.669276
3713.000000	98.674338
3712.000000	98.666977
3711.000000	98.652295
3710.000000	98.640964
3709.000000	98.638292
3708.000000	98.640686
3707.000000	98.643045
3706.000000	98.643608
3705.000000	98.641889
3704.000000	98.636970
3703.000000	98.628700
3702.000000	98.619558
3701.000000	98.614481
3700.000000	98.615256
3699.000000	98.618438
3698.000000	98.620831
3697.000000	98.622993
3696.000000	98.626399
3695.000000	98.630114
3694.000000	98.632585
3693.000000	98.634548
3692.000000	98.637908
3691.000000	98.642989
3690.000000	98.648356
3689.000000	98.653744
3688.000000	98.659694
3687.000000	98.662190
3686.000000	98.655452
3685.000000	98.640930
3684.000000	98.627107
3683.000000	98.621673
3682.000000	98.625301
3681.000000	98.634476
3680.000000	98.647683
3679.000000	98.663311
3678.000000	98.674386
3677.000000	98.671649
3676.000000	98.657328
3675.000000	98.650942
3674.000000	98.660941
3673.000000	98.669548
3672.000000	98.664390
3671.000000	98.651299
3670.000000	98.642884
3669.000000	98.645410
3668.000000	98.650423
3667.000000	98.646579
3666.000000	98.634047
3665.000000	98.619901
3664.000000	98.609179
3663.000000	98.601976
3662.000000	98.596376
3661.000000	98.592160
3660.000000	98.590875
3659.000000	98.592599
3658.000000	98.595044
3657.000000	98.596144
3656.000000	98.597962
3655.000000	98.602600
3654.000000	98.607912
3653.000000	98.611056
3652.000000	98.613449
3651.000000	98.619884
3650.000000	98.631133
3649.000000	98.636518
3648.000000	98.626006
3647.000000	98.606687
3646.000000	98.589733
3645.000000	98.577796
3644.000000	98.568000
3643.000000	98.558077
3642.000000	98.548067
3641.000000	98.539653
3640.000000	98.533979
3639.000000	98.531072
3638.000000	98.531340
3637.000000	98.534668
3636.000000	98.539991
3635.000000	98.547407
3634.000000	98.559666
3633.000000	98.578639
3632.000000	98.600905
3631.000000	98.617730
3630.000000	98.619565
3629.000000	98.605248
3628.000000	98.586134
3627.000000	98.569128
3626.000000	98.551118
3625.000000	98.534129
3624.000000	98.523238
3623.000000	98.518916
3622.000000	98.517040
3621.000000	98.513673
3620.000000	98.508575
3619.000000	98.505004
3618.000000	98.505371
3617.000000	98.507462
3616.000000	98.507632
3615.000000	98.504866
3614.000000	98.500667
3613.000000	98.497757
3612.000000	98.498314
3611.000000	98.500700
3610.000000	98.500166
3609.000000	98.491861
3608.000000	98.474709
3607.000000	98.453325
3606.000000	98.433150
3605.000000	98.416075
3604.000000	98.401470
3603.000000	98.389182
3602.000000	98.380622
3601.000000	98.377184
3600.000000	98.377747
3599.000000	98.378285
3598.000000	98.375628
3597.000000	98.369580
3596.000000	98.362293
3595.000000	98.356072
3594.000000	98.353522
3593.000000	98.356128
3592.000000	98.363266
3591.000000	98.371355
3590.000000	98.374857
3589.000000	98.369114
3588.000000	98.355528
3587.000000	98.342119
3586.000000	98.334797
3585.000000	98.330064
3584.000000	98.321901
3583.000000	98.309260
3582.000000	98.294993
3581.000000	98.282056
3580.000000	98.272217
3579.000000	98.265007
3578.000000	98.257600
3577.000000	98.246370
3576.000000	98.230238
3575.000000	98.212542
3574.000000	98.198720
3573.000000	98.192243
3572.000000	98.192456
3571.000000	98.195815
3570.000000	98.197401
3569.000000	98.192821
3568.000000	98.180073
3567.000000	98.161246
3566.000000	98.141810
3565.000000	98.126082
3564.000000	98.114112
3563.000000	98.104993
3562.000000	98.098446
3561.000000	98.093465
3560.000000	98.088299
3559.000000	98.082727
3558.000000	98.078147
3557.000000	98.075333
3556.000000	98.072476
3555.000000	98.066456
3554.000000	98.055975
3553.000000	98.043763
3552.000000	98.034578
3551.000000	98.030583
3550.000000	98.029414
3549.000000	98.027238
3548.000000	98.022460
3547.000000	98.015954
3546.000000	98.008989
3545.000000	98.001672
3544.000000	97.993271
3543.000000	97.983115
3542.000000	97.971146
3541.000000	97.957906
3540.000000	97.944113
3539.000000	97.930743
3538.000000	97.919124
3537.000000	97.910378
3536.000000	97.904615
3535.000000	97.900661
3534.000000	97.897344
3533.000000	97.894165
3532.000000	97.891101
3531.000000	97.887723
3530.000000	97.883282
3529.000000	97.877441
3528.000000	97.870444
3527.000000	97.862485
3526.000000	97.853689
3525.000000	97.844559
3524.000000	97.835588
3523.000000	97.826228
3522.000000	97.815118
3521.000000	97.802045
3520.000000	97.789370
3519.000000	97.780679
3518.000000	97.777451
3517.000000	97.776777
3516.000000	97.774020
3515.000000	97.767487
3514.000000	97.759962
3513.000000	97.754681
3512.000000	97.751263
3511.000000	97.746596
3510.000000	97.739580
3509.000000	97.732925
3508.000000	97.729245
3507.000000	97.727289
3506.000000	97.724002
3505.000000	97.719014
3504.000000	97.714697
3503.000000	97.711842
3502.000000	97.707367
3501.000000	97.697396
3500.000000	97.681539
3499.000000	97.663479
3498.000000	97.648532
3497.000000	97.640428
3496.000000	97.639077
3495.000000	97.640582
3494.000000	97.639863
3493.000000	97.634104
3492.000000	97.624173
3491.000000	97.613264
3490.000000	97.604563
3489.000000	97.599571
3488.000000	97.597719
3487.000000	97.596806
3486.000000	97.594241
3485.000000	97.588630
3484.000000	97.580909
3483.000000	97.573900
3482.000000	97.570363
3481.000000	97.570691
3480.000000	97.572390
3479.000000	97.572169
3478.000000	97.568507
3477.000000	97.562016
3476.000000	97.553486
3475.000000	97.542643
3474.000000	97.529551
3473.000000	97.516393
3472.000000	97.506278
3471.000000	97.500024
3470.000000	97.495225
3469.000000	97.489218
3468.000000	97.482229
3467.000000	97.476841
3466.000000	97.474492
3465.000000	97.473650
3464.000000	97.471727
3463.000000	97.467957
3462.000000	97.463832
3461.000000	97.460708
3460.000000	97.457692
3459.000000	97.452494
3458.000000	97.444493
3457.000000	97.436367
3456.000000	97.432000
3455.000000	97.432327
3454.000000	97.434326
3453.000000	97.434212
3452.000000	97.430856
3451.000000	97.424979
3450.000000	97.416330
3449.000000	97.403709
3448.000000	97.387905
3447.000000	97.373104
3446.000000	97.364132
3445.000000	97.362502
3444.000000	97.365712
3443.000000	97.369431
3442.000000	97.369851
3441.000000	97.365337
3440.000000	97.356621
3439.000000	97.345450
3438.000000	97.333372
3437.000000	97.321860
3436.000000	97.312581
3435.000000	97.305941
3434.000000	97.300170
3433.000000	97.293233
3432.000000	97.285981
3431.000000	97.281541
3430.000000	97.281391
3429.000000	97.283321
3428.000000	97.283641
3427.000000	97.280308
3426.000000	97.273293
3425.000000	97.263464
3424.000000	97.252229
3423.000000	97.241666
3422.000000	97.233695
3421.000000	97.228699
3420.000000	97.225386
3419.000000	97.222007
3418.000000	97.217515
3417.000000	97.211681
3416.000000	97.204957
3415.000000	97.198583
3414.000000	97.194481
3413.000000	97.194079
3412.000000	97.196569
3411.000000	97.198597
3410.000000	97.196514
3409.000000	97.189333
3408.000000	97.179169
3407.000000	97.168969
3406.000000	97.160421
3405.000000	97.153817
3404.000000	97.148537
3403.000000	97.142786
3402.000000	97.134000
3401.000000	97.120847
3400.000000	97.105130
3399.000000	97.090972
3398.000000	97.081878
3397.000000	97.078576
3396.000000	97.079310
3395.000000	97.081449
3394.000000	97.082668
3393.000000	97.081454
3392.000000	97.077317
3391.000000	97.070559
3390.000000	97.061517
3389.000000	97.050309
3388.000000	97.037743
3387.000000	97.025973
3386.000000	97.017321
3385.000000	97.011876
3384.000000	97.006916
3383.000000	96.999445
3382.000000	96.989204
3381.000000	96.978453
3380.000000	96.969201
3379.000000	96.961540
3378.000000	96.954660
3377.000000	96.947899
3376.000000	96.939849
3375.000000	96.927695
3374.000000	96.909471
3373.000000	96.887406
3372.000000	96.867674
3371.000000	96.855711
3370.000000	96.851521
3369.000000	96.849504
3368.000000	96.842356
3367.000000	96.825560
3366.000000	96.799653
3365.000000	96.769706
3364.000000	96.742308
3363.000000	96.721624
3362.000000	96.707135
3361.000000	96.694763
3360.000000	96.680196
3359.000000	96.661408
3358.000000	96.638849
3357.000000	96.614202
3356.000000	96.589155
3355.000000	96.564825
3354.000000	96.541815
3353.000000	96.520662
3352.000000	96.501904
3351.000000	96.485380
3350.000000	96.469486
3349.000000	96.451632
3348.000000	96.429776
3347.000000	96.403798
3346.000000	96.375664
3345.000000	96.348253
3344.000000	96.323666
3343.000000	96.302043
3342.000000	96.282005
3341.000000	96.262328
3340.000000	96.242850
3339.000000	96.223391
3338.000000	96.202277
3337.000000	96.177070
3336.000000	96.147374
3335.000000	96.116369
3334.000000	96.088728
3333.000000	96.066739
3332.000000	96.048663
3331.000000	96.030837
3330.000000	96.011226
3329.000000	95.991075
3328.000000	95.973332
3327.000000	95.959495
3326.000000	95.947955
3325.000000	95.935130
3324.000000	95.918235
3323.000000	95.897210
3322.000000	95.874456
3321.000000	95.852811
3320.000000	95.833523
3319.000000	95.815958
3318.000000	95.799314
3317.000000	95.784368
3316.000000	95.773098
3315.000000	95.766292
3314.000000	95.761930
3313.000000	95.756649
3312.000000	95.748830
3311.000000	95.740080
3310.000000	95.733476
3309.000000	95.730304
3308.000000	95.728535
3307.000000	95.724512
3306.000000	95.716093
3305.000000	95.704176
3304.000000	95.691246
3303.000000	95.678723
3302.000000	95.666169
3301.000000	95.653194
3300.000000	95.641600
3299.000000	95.634520
3298.000000	95.633154
3297.000000	95.634822
3296.000000	95.635187
3295.000000	95.632576
3294.000000	95.629285
3293.000000	95.628208
3292.000000	95.628943
3291.000000	95.628157
3290.000000	95.623524
3289.000000	95.616155
3288.000000	95.608990
3287.000000	95.604036
3286.000000	95.601755
3285.000000	95.601939
3284.000000	95.604027
3283.000000	95.607256
3282.000000	95.611509
3281.000000	95.617658
3280.000000	95.626099
3279.000000	95.635338
3278.000000	95.642931
3277.000000	95.647448
3276.000000	95.648919
3275.000000	95.648086
3274.000000	95.646667
3273.000000	95.647549
3272.000000	95.652692
3271.000000	95.660415
3270.000000	95.666420
3269.000000	95.668301
3268.000000	95.667900
3267.000000	95.668907
3266.000000	95.673327
3265.000000	95.680702
3264.000000	95.689336
3263.000000	95.697180
3262.000000	95.702533
3261.000000	95.705401
3260.000000	95.707970
3259.000000	95.712857
3258.000000	95.720953
3257.000000	95.731299
3256.000000	95.742298
3255.000000	95.752236
3254.000000	95.759480
3253.000000	95.763653
3252.000000	95.766696
3251.000000	95.771503
3250.000000	95.779064
3249.000000	95.787481
3248.000000	95.794151
3247.000000	95.798479
3246.000000	95.802296
3245.000000	95.807888
3244.000000	95.815895
3243.000000	95.824939
3242.000000	95.832839
3241.000000	95.838062
3240.000000	95.840366
3239.000000	95.840834
3238.000000	95.841572
3237.000000	95.844918
3236.000000	95.851984
3235.000000	95.861574
3234.000000	95.870938
3233.000000	95.877778
3232.000000	95.881573
3231.000000	95.883130
3230.000000	95.883516
3229.000000	95.883538
3228.000000	95.883521
3227.000000	95.883215
3226.000000	95.882409
3225.000000	95.881887
3224.000000	95.883287
3223.000000	95.887612
3222.000000	95.894301
3221.000000	95.901933
3220.000000	95.908932
3219.000000	95.913307
3218.000000	95.912967
3217.000000	95.908029
3216.000000	95.902558
3215.000000	95.902260
3214.000000	95.909333
3213.000000	95.920422
3212.000000	95.930248
3211.000000	95.936756
3210.000000	95.942074
3209.000000	95.949195
3208.000000	95.958649
3207.000000	95.968373
3206.000000	95.976082
3205.000000	95.981347
3204.000000	95.985469
3203.000000	95.989754
3202.000000	95.994179
3201.000000	95.997969
3200.000000	96.001085
3199.000000	96.004705
3198.000000	96.010098
3197.000000	96.017390
3196.000000	96.025415
3195.000000	96.032408
3194.000000	96.036761
3193.000000	96.037758
3192.000000	96.036144
3191.000000	96.033972
3190.000000	96.033711
3189.000000	96.037320
3188.000000	96.045559
3187.000000	96.057427
3186.000000	96.070072
3185.000000	96.080416
3184.000000	96.087895
3183.000000	96.095223
3182.000000	96.105715
3181.000000	96.119839
3180.000000	96.135067
3179.000000	96.148661
3178.000000	96.159752
3177.000000	96.168642
3176.000000	96.175373
3175.000000	96.180272
3174.000000	96.185294
3173.000000	96.193195
3172.000000	96.204499
3171.000000	96.216017
3170.000000	96.223739
3169.000000	96.227348
3168.000000	96.231275
3167.000000	96.240577
3166.000000	96.255989
3165.000000	96.273218
3164.000000	96.286984
3163.000000	96.295325
3162.000000	96.300389
3161.000000	96.305807
3160.000000	96.313725
3159.000000	96.323737
3158.000000	96.333947
3157.000000	96.342871
3156.000000	96.350606
3155.000000	96.358583
3154.000000	96.368407
3153.000000	96.380711
3152.000000	96.394510
3151.000000	96.407367
3150.000000	96.416667
3149.000000	96.421580
3148.000000	96.423938
3147.000000	96.426833
3146.000000	96.431977
3145.000000	96.438599
3144.000000	96.444876
3143.000000	96.450288
3142.000000	96.456394
3141.000000	96.465174
3140.000000	96.476617
3139.000000	96.488064
3138.000000	96.496149
3137.000000	96.499587
3136.000000	96.500098
3135.000000	96.500840
3134.000000	96.504025
3133.000000	96.509765
3132.000000	96.516594
3131.000000	96.522734
3130.000000	96.527293
3129.000000	96.530883
3128.000000	96.535164
3127.000000	96.541255
3126.000000	96.548483
3125.000000	96.555018
3124.000000	96.559449
3123.000000	96.561351
3122.000000	96.560808
3121.000000	96.558522
3120.000000	96.556494
3119.000000	96.557554
3118.000000	96.563062
3117.000000	96.570982
3116.000000	96.576606
3115.000000	96.576037
3114.000000	96.569402
3113.000000	96.560702
3112.000000	96.554076
3111.000000	96.550011
3110.000000	96.545665
3109.000000	96.539143
3108.000000	96.532243
3107.000000	96.527823
3106.000000	96.525459
3105.000000	96.521783
3104.000000	96.514972
3103.000000	96.506997
3102.000000	96.500683
3101.000000	96.496066
3100.000000	96.490648
3099.000000	96.482551
3098.000000	96.472334
3097.000000	96.462042
3096.000000	96.453353
3095.000000	96.446717
3094.000000	96.441873
3093.000000	96.438696
3092.000000	96.437050
3091.000000	96.435640
3090.000000	96.431899
3089.000000	96.424070
3088.000000	96.413366
3087.000000	96.402872
3086.000000	96.394135
3085.000000	96.386076
3084.000000	96.377845
3083.000000	96.371679
3082.000000	96.371359
3081.000000	96.377715
3080.000000	96.386475
3079.000000	96.391055
3078.000000	96.387567
3077.000000	96.377277
3076.000000	96.364998
3075.000000	96.355508
3074.000000	96.351144
3073.000000	96.351647
3072.000000	96.355084
3071.000000	96.358632
3070.000000	96.359601
3069.000000	96.357245
3068.000000	96.353656
3067.000000	96.352047
3066.000000	96.353680
3065.000000	96.357184
3064.000000	96.361103
3063.000000	96.366279
3062.000000	96.375058
3061.000000	96.388471
3060.000000	96.404734
3059.000000	96.420316
3058.000000	96.432279
3057.000000	96.440016
3056.000000	96.445467
3055.000000	96.451587
3054.000000	96.460157
3053.000000	96.470591
3052.000000	96.480676
3051.000000	96.488399
3050.000000	96.493288
3049.000000	96.496771
3048.000000	96.501457
3047.000000	96.509550
3046.000000	96.521073
3045.000000	96.533647
3044.000000	96.544828
3043.000000	96.554920
3042.000000	96.566605
3041.000000	96.581205
3040.000000	96.596226
3039.000000	96.607856
3038.000000	96.615339
3037.000000	96.621328
3036.000000	96.627935
3035.000000	96.634312
3034.000000	96.639058
3033.000000	96.643523
3032.000000	96.650836
3031.000000	96.661857
3030.000000	96.673708
3029.000000	96.682803
3028.000000	96.688398
3027.000000	96.692788
3026.000000	96.698861
3025.000000	96.708007
3024.000000	96.719660
3023.000000	96.732167
3022.000000	96.744048
3021.000000	96.754815
3020.000000	96.764468
3019.000000	96.772464
3018.000000	96.777842
3017.000000	96.780577
3016.000000	96.781791
3015.000000	96.782012
3014.000000	96.779884
3013.000000	96.773746
3012.000000	96.764266
3011.000000	96.754642
3010.000000	96.748006
3009.000000	96.745154
3008.000000	96.744952
3007.000000	96.746109
3006.000000	96.747987
3005.000000	96.749915
3004.000000	96.750395
3003.000000	96.747682
3002.000000	96.741430
3001.000000	96.733740
3000.000000	96.728079
2999.000000	96.727058
2998.000000	96.730947
2997.000000	96.737845
2996.000000	96.744364
2995.000000	96.746379
2994.000000	96.740616
2993.000000	96.726937
2992.000000	96.709103
2991.000000	96.692107
2990.000000	96.678201
2989.000000	96.665460
2988.000000	96.650546
2987.000000	96.632757
2986.000000	96.615137
2985.000000	96.601329
2984.000000	96.591545
2983.000000	96.582131
2982.000000	96.569432
2981.000000	96.553668
2980.000000	96.538511
2979.000000	96.527042
2978.000000	96.518754
2977.000000	96.510420
2976.000000	96.498703
2975.000000	96.481690
2974.000000	96.458935
2973.000000	96.431174
2972.000000	96.399880
2971.000000	96.366308
2970.000000	96.331024
2969.000000	96.294446
2968.000000	96.257463
2967.000000	96.221058
2966.000000	96.185555
2965.000000	96.150808
2964.000000	96.116858
2963.000000	96.084063
2962.000000	96.052726
2961.000000	96.023026
2960.000000	95.995117
2959.000000	95.968928
2958.000000	95.944306
2957.000000	95.921849
2956.000000	95.903445
2955.000000	95.891281
2954.000000	95.886217
2953.000000	95.887434
2952.000000	95.893144
2951.000000	95.901049
2950.000000	95.908073
2949.000000	95.910799
2948.000000	95.906695
2947.000000	95.894832
2946.000000	95.875185
2945.000000	95.847403
2944.000000	95.810691
2943.000000	95.764682
2942.000000	95.710418
2941.000000	95.650362
2940.000000	95.587383
2939.000000	95.523233
2938.000000	95.457296
2937.000000	95.386791
2936.000000	95.308570
2935.000000	95.221901
2934.000000	95.130056
2933.000000	95.038682
2932.000000	94.951422
2931.000000	94.866728
2930.000000	94.779520
2929.000000	94.686476
2928.000000	94.589777
2927.000000	94.496033
2926.000000	94.411955
2925.000000	94.341087
2924.000000	94.283523
2923.000000	94.238273
2922.000000	94.206032
2921.000000	94.189882
2920.000000	94.193555
2919.000000	94.218948
2918.000000	94.266082
2917.000000	94.334958
2916.000000	94.426257
2915.000000	94.539381
2914.000000	94.669812
2913.000000	94.809097
2912.000000	94.947379
2911.000000	95.076709
2910.000000	95.192704
2909.000000	95.294224
2908.000000	95.382271
2907.000000	95.458991
2906.000000	95.527142
2905.000000	95.588890
2904.000000	95.644578
2903.000000	95.693063
2902.000000	95.734371
2901.000000	95.771288
2900.000000	95.808279
2899.000000	95.847394
2898.000000	95.886943
2897.000000	95.923975
2896.000000	95.957102
2895.000000	95.986669
2894.000000	96.013675
2893.000000	96.039687
2892.000000	96.066955
2891.000000	96.096961
2890.000000	96.128581
2889.000000	96.158550
2888.000000	96.183939
2887.000000	96.204063
2886.000000	96.220458
2885.000000	96.235833
2884.000000	96.252525
2883.000000	96.270658
2882.000000	96.287143
2881.000000	96.297310
2880.000000	96.298623
2879.000000	96.293141
2878.000000	96.286076
2877.000000	96.281518
2876.000000	96.279036
2875.000000	96.274619
2874.000000	96.265376
2873.000000	96.253236
2872.000000	96.243464
2871.000000	96.239528
2870.000000	96.240320
2869.000000	96.242488
2868.000000	96.243880
2867.000000	96.243195
2866.000000	96.237247
2865.000000	96.221012
2864.000000	96.191214
2863.000000	96.148807
2862.000000	96.097140
2861.000000	96.038469
2860.000000	95.973161
2859.000000	95.901584
2858.000000	95.825482
2857.000000	95.747269
2856.000000	95.668863
2855.000000	95.591920
2854.000000	95.519755
2853.000000	95.458592
2852.000000	95.416791
2851.000000	95.403093
2850.000000	95.424801
2849.000000	95.486247
2848.000000	95.586353
2847.000000	95.716596
2846.000000	95.861988
2845.000000	96.006167
2844.000000	96.137062
2843.000000	96.249789
2842.000000	96.345440
2841.000000	96.427461
2840.000000	96.498634
2839.000000	96.559793
2838.000000	96.610772
2837.000000	96.652314
2836.000000	96.687011
2835.000000	96.718255
2834.000000	96.748519
2833.000000	96.778461
2832.000000	96.807115
2831.000000	96.832607
2830.000000	96.853221
2829.000000	96.868783
2828.000000	96.881207
2827.000000	96.893448
2826.000000	96.907663
2825.000000	96.924098
2824.000000	96.941322
2823.000000	96.957363
2822.000000	96.971075
2821.000000	96.982836
2820.000000	96.993847
2819.000000	97.004812
2818.000000	97.015570
2817.000000	97.025851
2816.000000	97.035646
2815.000000	97.044760
2814.000000	97.052794
2813.000000	97.059924
2812.000000	97.066934
2811.000000	97.074082
2810.000000	97.080682
2809.000000	97.086370
2808.000000	97.091980
2807.000000	97.098359
2806.000000	97.104931
2805.000000	97.110301
2804.000000	97.113916
2803.000000	97.116379
2802.000000	97.118502
2801.000000	97.120940
2800.000000	97.124402
2799.000000	97.129310
2798.000000	97.135256
2797.000000	97.141506
2796.000000	97.148022
2795.000000	97.155347
2794.000000	97.163438
2793.000000	97.171103
2792.000000	97.176768
2791.000000	97.179753
2790.000000	97.181147
2789.000000	97.183470
2788.000000	97.188751
2787.000000	97.196442
2786.000000	97.203844
2785.000000	97.209064
2784.000000	97.212843
2783.000000	97.216911
2782.000000	97.221575
2781.000000	97.226060
2780.000000	97.230510
2779.000000	97.236067
2778.000000	97.243037
2777.000000	97.250210
2776.000000	97.256207
2775.000000	97.260756
2774.000000	97.264559
2773.000000	97.268609
2772.000000	97.273601
2771.000000	97.279413
2770.000000	97.285183
2769.000000	97.290261
2768.000000	97.294644
2767.000000	97.298073
2766.000000	97.299721
2765.000000	97.299874
2764.000000	97.301097
2763.000000	97.306057
2762.000000	97.314240
2761.000000	97.322296
2760.000000	97.327798
2759.000000	97.331469
2758.000000	97.335568
2757.000000	97.341232
2756.000000	97.347703
2755.000000	97.353170
2754.000000	97.356049
2753.000000	97.356276
2752.000000	97.355722
2751.000000	97.356674
2750.000000	97.359733
2749.000000	97.363652
2748.000000	97.367069
2747.000000	97.369706
2746.000000	97.372189
2745.000000	97.375785
2744.000000	97.382133
2743.000000	97.391871
2742.000000	97.403238
2741.000000	97.413018
2740.000000	97.419151
2739.000000	97.421626
2738.000000	97.421044
2737.000000	97.417849
2736.000000	97.413526
2735.000000	97.411150
2734.000000	97.413474
2733.000000	97.420688
2732.000000	97.430417
2731.000000	97.439373
2730.000000	97.444772
2729.000000	97.445279
2728.000000	97.441779
2727.000000	97.437184
2726.000000	97.434772
2725.000000	97.436201
2724.000000	97.440706
2723.000000	97.445862
2722.000000	97.449421
2721.000000	97.451195
2720.000000	97.453311
2719.000000	97.457928
2718.000000	97.464550
2717.000000	97.470177
2716.000000	97.472325
2715.000000	97.471456
2714.000000	97.470424
2713.000000	97.472079
2712.000000	97.477288
2711.000000	97.484415
2710.000000	97.490373
2709.000000	97.492849
2708.000000	97.492119
2707.000000	97.490798
2706.000000	97.491790
2705.000000	97.496323
2704.000000	97.503171
2703.000000	97.509185
2702.000000	97.511301
2701.000000	97.509238
2700.000000	97.506179
2699.000000	97.505800
2698.000000	97.508645
2697.000000	97.512194
2696.000000	97.514237
2695.000000	97.515088
2694.000000	97.516347
2693.000000	97.518650
2692.000000	97.521039
2691.000000	97.521893
2690.000000	97.520384
2689.000000	97.517710
2688.000000	97.516811
2687.000000	97.519853
2686.000000	97.525679
2685.000000	97.530480
2684.000000	97.531244
2683.000000	97.528193
2682.000000	97.524224
2681.000000	97.522809
2680.000000	97.525876
2679.000000	97.532173
2678.000000	97.537572
2677.000000	97.538428
2676.000000	97.535280
2675.000000	97.532356
2674.000000	97.533269
2673.000000	97.538119
2672.000000	97.544707
2671.000000	97.550978
2670.000000	97.555629
2669.000000	97.557807
2668.000000	97.557407
2667.000000	97.555135
2666.000000	97.551670
2665.000000	97.547478
2664.000000	97.543762
2663.000000	97.542348
2662.000000	97.543774
2661.000000	97.546396
2660.000000	97.548286
2659.000000	97.549325
2658.000000	97.550648
2657.000000	97.552779
2656.000000	97.555370
2655.000000	97.558215
2654.000000	97.561286
2653.000000	97.563941
2652.000000	97.565188
2651.000000	97.565006
2650.000000	97.564902
2649.000000	97.566972
2648.000000	97.572422
2647.000000	97.580608
2646.000000	97.589232
2645.000000	97.595973
2644.000000	97.600494
2643.000000	97.604689
2642.000000	97.610657
2641.000000	97.618596
2640.000000	97.626721
2639.000000	97.632823
2638.000000	97.635919
2637.000000	97.637111
2636.000000	97.638966
2635.000000	97.643282
2634.000000	97.649185
2633.000000	97.654106
2632.000000	97.656826
2631.000000	97.658721
2630.000000	97.661758
2629.000000	97.666402
2628.000000	97.671871
2627.000000	97.677251
2626.000000	97.681601
2625.000000	97.684070
2624.000000	97.684989
2623.000000	97.686254
2622.000000	97.689753
2621.000000	97.695818
2620.000000	97.703561
2619.000000	97.711761
2618.000000	97.718713
2617.000000	97.722334
2616.000000	97.721802
2615.000000	97.718649
2614.000000	97.715304
2613.000000	97.712873
2612.000000	97.711050
2611.000000	97.709681
2610.000000	97.709444
2609.000000	97.711377
2608.000000	97.716572
2607.000000	97.725801
2606.000000	97.738185
2605.000000	97.750304
2604.000000	97.757843
2603.000000	97.758881
2602.000000	97.755360
2601.000000	97.751180
2600.000000	97.749238
2599.000000	97.750369
2598.000000	97.754311
2597.000000	97.760476
2596.000000	97.767220
2595.000000	97.771446
2594.000000	97.770737
2593.000000	97.766354
2592.000000	97.762689
2591.000000	97.762773
2590.000000	97.765646
2589.000000	97.769128
2588.000000	97.773478
2587.000000	97.779922
2586.000000	97.786661
2585.000000	97.789605
2584.000000	97.787651
2583.000000	97.784832
2582.000000	97.786017
2581.000000	97.792234
2580.000000	97.800991
2579.000000	97.809373
2578.000000	97.815381
2577.000000	97.817580
2576.000000	97.815375
2575.000000	97.809585
2574.000000	97.802194
2573.000000	97.795914
2572.000000	97.794033
2571.000000	97.799147
2570.000000	97.810680
2569.000000	97.824001
2568.000000	97.833145
2567.000000	97.835138
2566.000000	97.832125
2565.000000	97.829662
2564.000000	97.832288
2563.000000	97.839617
2562.000000	97.846708
2561.000000	97.848892
2560.000000	97.846200
2559.000000	97.842518
2558.000000	97.841369
2557.000000	97.843707
2556.000000	97.848739
2555.000000	97.854614
2554.000000	97.858446
2553.000000	97.858231
2552.000000	97.855759
2551.000000	97.855978
2550.000000	97.862261
2549.000000	97.872966
2548.000000	97.883070
2547.000000	97.888140
2546.000000	97.886660
2545.000000	97.879857
2544.000000	97.870381
2543.000000	97.860790
2542.000000	97.852833
2541.000000	97.847846
2540.000000	97.846741
2539.000000	97.848755
2538.000000	97.851390
2537.000000	97.853201
2536.000000	97.855874
2535.000000	97.861611
2534.000000	97.868938
2533.000000	97.873306
2532.000000	97.871984
2531.000000	97.866728
2530.000000	97.861401
2529.000000	97.858712
2528.000000	97.859179
2527.000000	97.861339
2526.000000	97.862447
2525.000000	97.860597
2524.000000	97.856709
2523.000000	97.853567
2522.000000	97.852995
2521.000000	97.855121
2520.000000	97.859642
2519.000000	97.865900
2518.000000	97.872005
2517.000000	97.876075
2516.000000	97.878639
2515.000000	97.881936
2514.000000	97.886568
2513.000000	97.890447
2512.000000	97.891127
2511.000000	97.887720
2510.000000	97.880955
2509.000000	97.873411
2508.000000	97.869400
2507.000000	97.871964
2506.000000	97.879311
2505.000000	97.886122
2504.000000	97.888705
2503.000000	97.887427
2502.000000	97.884447
2501.000000	97.881776
2500.000000	97.881726
2499.000000	97.886161
2498.000000	97.893819
2497.000000	97.900471
2496.000000	97.903349
2495.000000	97.904151
2494.000000	97.906734
2493.000000	97.912725
2492.000000	97.920021
2491.000000	97.924899
2490.000000	97.925640
2489.000000	97.925198
2488.000000	97.929429
2487.000000	97.940758
2486.000000	97.954372
2485.000000	97.963026
2484.000000	97.965315
2483.000000	97.966137
2482.000000	97.969106
2481.000000	97.972440
2480.000000	97.973353
2479.000000	97.972968
2478.000000	97.974251
2477.000000	97.977286
2476.000000	97.979049
2475.000000	97.977155
2474.000000	97.972600
2473.000000	97.969657
2472.000000	97.973270
2471.000000	97.984515
2470.000000	97.997697
2469.000000	98.004041
2468.000000	97.999957
2467.000000	97.990441
2466.000000	97.983187
2465.000000	97.980809
2464.000000	97.980113
2463.000000	97.977553
2462.000000	97.973519
2461.000000	97.971553
2460.000000	97.974485
2459.000000	97.981397
2458.000000	97.988039
2457.000000	97.990297
2456.000000	97.987399
2455.000000	97.981632
2454.000000	97.975640
2453.000000	97.970890
2452.000000	97.967883
2451.000000	97.966365
2450.000000	97.965684
2449.000000	97.966058
2448.000000	97.968690
2447.000000	97.973360
2446.000000	97.977091
2445.000000	97.977195
2444.000000	97.974557
2443.000000	97.971826
2442.000000	97.969677
2441.000000	97.967641
2440.000000	97.967261
2439.000000	97.970517
2438.000000	97.975621
2437.000000	97.978367
2436.000000	97.978121
2435.000000	97.978727
2434.000000	97.982674
2433.000000	97.987860
2432.000000	97.991064
2431.000000	97.991488
2430.000000	97.989877
2429.000000	97.987525
2428.000000	97.987462
2427.000000	97.993026
2426.000000	98.003117
2425.000000	98.011414
2424.000000	98.012444
2423.000000	98.006720
2422.000000	97.999153
2421.000000	97.994741
2420.000000	97.996435
2419.000000	98.003730
2418.000000	98.011741
2417.000000	98.014815
2416.000000	98.012933
2415.000000	98.011573
2414.000000	98.013585
2413.000000	98.014764
2412.000000	98.010314
2411.000000	98.002288
2410.000000	97.996798
2409.000000	97.996523
2408.000000	98.000133
2407.000000	98.007188
2406.000000	98.018294
2405.000000	98.030500
2404.000000	98.037581
2403.000000	98.036831
2402.000000	98.032587
2401.000000	98.031211
2400.000000	98.034680
2399.000000	98.040316
2398.000000	98.044792
2397.000000	98.046181
2396.000000	98.043404
2395.000000	98.036275
2394.000000	98.026700
2393.000000	98.018318
2392.000000	98.014058
2391.000000	98.014538
2390.000000	98.018923
2389.000000	98.026139
2388.000000	98.034457
2387.000000	98.041266
2386.000000	98.045225
2385.000000	98.048306
2384.000000	98.053694
2383.000000	98.061482
2382.000000	98.068677
2381.000000	98.074094
2380.000000	98.080571
2379.000000	98.090244
2378.000000	98.099717
2377.000000	98.102959
2376.000000	98.097946
2375.000000	98.087569
2374.000000	98.075375
2373.000000	98.064645
2372.000000	98.060840
2371.000000	98.068459
2370.000000	98.083522
2369.000000	98.094740
2368.000000	98.095218
2367.000000	98.088614
2366.000000	98.081786
2365.000000	98.077051
2364.000000	98.073783
2363.000000	98.070870
2362.000000	98.066069
2361.000000	98.057618
2360.000000	98.047972
2359.000000	98.046135
2358.000000	98.056810
2357.000000	98.072654
2356.000000	98.083610
2355.000000	98.083404
2354.000000	98.073944
2353.000000	98.061914
2352.000000	98.056042
2351.000000	98.058495
2350.000000	98.062290
2349.000000	98.060447
2348.000000	98.051492
2347.000000	98.042665
2346.000000	98.043719
2345.000000	98.056084
2344.000000	98.069306
2343.000000	98.070110
2342.000000	98.059785
2341.000000	98.048398
2340.000000	98.044302
2339.000000	98.047546
2338.000000	98.051610
2337.000000	98.050563
2336.000000	98.044166
2335.000000	98.037053
2334.000000	98.032630
2333.000000	98.032908
2332.000000	98.038412
2331.000000	98.048789
2330.000000	98.057119
2329.000000	98.058332
2328.000000	98.048128
2327.000000	98.028775
2326.000000	98.003225
2325.000000	97.978582
2324.000000	97.964461
2323.000000	97.966573
2322.000000	97.980480
2321.000000	97.994219
2320.000000	98.000376
2319.000000	98.002940
2318.000000	98.008915
2317.000000	98.021416
2316.000000	98.035411
2315.000000	98.045296
2314.000000	98.045734
2313.000000	98.037475
2312.000000	98.025293
2311.000000	98.018096
2310.000000	98.020425
2309.000000	98.031634
2308.000000	98.044974
2307.000000	98.053811
2306.000000	98.054601
2305.000000	98.050648
2304.000000	98.048996
2303.000000	98.054386
2302.000000	98.064088
2301.000000	98.072430
2300.000000	98.075555
2299.000000	98.072720
2298.000000	98.061282
2297.000000	98.040311
2296.000000	98.014947
2295.000000	97.996560
2294.000000	97.991628
2293.000000	97.997048
2292.000000	98.004568
2291.000000	98.009521
2290.000000	98.012127
2289.000000	98.014553
2288.000000	98.018761
2287.000000	98.025241
2286.000000	98.032129
2285.000000	98.035766
2284.000000	98.034026
2283.000000	98.027670
2282.000000	98.020121
2281.000000	98.016802
2280.000000	98.023729
2279.000000	98.041918
2278.000000	98.063962
2277.000000	98.079732
2276.000000	98.086030
2275.000000	98.087133
2274.000000	98.086283
2273.000000	98.082482
2272.000000	98.075348
2271.000000	98.067898
2270.000000	98.063094
2269.000000	98.062797
2268.000000	98.070012
2267.000000	98.086179
2266.000000	98.105328
2265.000000	98.117558
2264.000000	98.119376
2263.000000	98.114815
2262.000000	98.105885
2261.000000	98.090789
2260.000000	98.073443
2259.000000	98.064682
2258.000000	98.069409
2257.000000	98.079600
2256.000000	98.085609
2255.000000	98.087510
2254.000000	98.089917
2253.000000	98.092712
2252.000000	98.094471
2251.000000	98.100115
2250.000000	98.116040
2249.000000	98.139545
2248.000000	98.158837
2247.000000	98.163195
2246.000000	98.150015
2245.000000	98.124636
2244.000000	98.097239
2243.000000	98.078176
2242.000000	98.072872
2241.000000	98.081013
2240.000000	98.099351
2239.000000	98.121801
2238.000000	98.137999
2237.000000	98.139397
2236.000000	98.129510
2235.000000	98.121700
2234.000000	98.123462
2233.000000	98.129385
2232.000000	98.133042
2231.000000	98.138368
2230.000000	98.152522
2229.000000	98.172547
2228.000000	98.186836
2227.000000	98.188012
2226.000000	98.179062
2225.000000	98.167974
2224.000000	98.160084
2223.000000	98.154811
2222.000000	98.147902
2221.000000	98.138238
2220.000000	98.132534
2219.000000	98.139399
2218.000000	98.158124
2217.000000	98.178834
2216.000000	98.195816
2215.000000	98.215053
2214.000000	98.243372
2213.000000	98.273800
2212.000000	98.287208
2211.000000	98.269790
2210.000000	98.227449
2209.000000	98.183045
2208.000000	98.158448
2207.000000	98.157461
2206.000000	98.167190
2205.000000	98.174616
2204.000000	98.176081
2203.000000	98.170209
2202.000000	98.153327
2201.000000	98.130937
2200.000000	98.124249
2199.000000	98.149985
2198.000000	98.197432
2197.000000	98.237891
2196.000000	98.255400
2195.000000	98.254425
2194.000000	98.240122
2193.000000	98.210664
2192.000000	98.174001
2191.000000	98.153495
2190.000000	98.164957
2189.000000	98.197854
2188.000000	98.227963
2187.000000	98.242782
2186.000000	98.247276
2185.000000	98.251440
2184.000000	98.261048
2183.000000	98.277040
2182.000000	98.296419
2181.000000	98.312136
2180.000000	98.314400
2179.000000	98.295259
2178.000000	98.257712
2177.000000	98.223040
2176.000000	98.218801
2175.000000	98.250070
2174.000000	98.290547
2173.000000	98.312517
2172.000000	98.316255
2171.000000	98.316620
2170.000000	98.313604
2169.000000	98.295371
2168.000000	98.264032
2167.000000	98.236944
2166.000000	98.223598
2165.000000	98.221041
2164.000000	98.229923
2163.000000	98.252674
2162.000000	98.275443
2161.000000	98.281453
2160.000000	98.289763
2159.000000	98.348532
2158.000000	98.465792
2157.000000	98.582515
2156.000000	98.640406
2155.000000	98.636714
2154.000000	98.598391
2153.000000	98.543306
2152.000000	98.479225
2151.000000	98.415361
2150.000000	98.361766
2149.000000	98.324837
2148.000000	98.307379
2147.000000	98.305456
2146.000000	98.304742
2145.000000	98.289973
2144.000000	98.261628
2143.000000	98.236192
2142.000000	98.229491
2141.000000	98.245440
2140.000000	98.277542
2139.000000	98.312761
2138.000000	98.335559
2137.000000	98.337703
2136.000000	98.325500
2135.000000	98.311519
2134.000000	98.301845
2133.000000	98.297498
2132.000000	98.300817
2131.000000	98.309945
2130.000000	98.312547
2129.000000	98.297132
2128.000000	98.269045
2127.000000	98.244910
2126.000000	98.232312
2125.000000	98.223879
2124.000000	98.210679
2123.000000	98.192154
2122.000000	98.173596
2121.000000	98.162473
2120.000000	98.166475
2119.000000	98.185662
2118.000000	98.206089
2117.000000	98.210179
2116.000000	98.195675
2115.000000	98.176903
2114.000000	98.167000
2113.000000	98.167784
2112.000000	98.177024
2111.000000	98.193945
2110.000000	98.212596
2109.000000	98.219821
2108.000000	98.207970
2107.000000	98.185352
2106.000000	98.168940
2105.000000	98.169592
2104.000000	98.185459
2103.000000	98.204857
2102.000000	98.214888
2101.000000	98.212556
2100.000000	98.208385
2099.000000	98.214295
2098.000000	98.229318
2097.000000	98.242929
2096.000000	98.250256
2095.000000	98.254108
2094.000000	98.253829
2093.000000	98.244705
2092.000000	98.229642
2091.000000	98.219110
2090.000000	98.215595
2089.000000	98.207746
2088.000000	98.185362
2087.000000	98.154014
2086.000000	98.129757
2085.000000	98.124061
2084.000000	98.135758
2083.000000	98.153613
2082.000000	98.166112
2081.000000	98.172259
2080.000000	98.182285
2079.000000	98.203110
2078.000000	98.225695
2077.000000	98.234647
2076.000000	98.228408
2075.000000	98.219656
2074.000000	98.217473
2073.000000	98.220566
2072.000000	98.227762
2071.000000	98.243054
2070.000000	98.267724
2069.000000	98.297645
2068.000000	98.330235
2067.000000	98.363827
2066.000000	98.388668
2065.000000	98.390209
2064.000000	98.365915
2063.000000	98.329549
2062.000000	98.297812
2061.000000	98.282624
2060.000000	98.290705
2059.000000	98.315907
2058.000000	98.335670
2057.000000	98.331651
2056.000000	98.313018
2055.000000	98.302446
2054.000000	98.300259
2053.000000	98.284752
2052.000000	98.251497
2051.000000	98.229702
2050.000000	98.250205
2049.000000	98.310094
2048.000000	98.377815
2047.000000	98.425256
2046.000000	98.443889
2045.000000	98.441889
2044.000000	98.440298
2043.000000	98.459021
2042.000000	98.494276
2041.000000	98.520196
2040.000000	98.520799
2039.000000	98.506273
2038.000000	98.492451
2037.000000	98.485524
2036.000000	98.491802
2035.000000	98.520128
2034.000000	98.563208
2033.000000	98.594758
2032.000000	98.597162
2031.000000	98.576887
2030.000000	98.547821
2029.000000	98.519774
2028.000000	98.503438
2027.000000	98.503454
2026.000000	98.505494
2025.000000	98.492814
2024.000000	98.475695
2023.000000	98.480911
2022.000000	98.511464
2021.000000	98.541283
2020.000000	98.549422
2019.000000	98.535620
2018.000000	98.504240
2017.000000	98.461193
2016.000000	98.425932
2015.000000	98.415207
2014.000000	98.417599
2013.000000	98.412326
2012.000000	98.407705
2011.000000	98.432369
2010.000000	98.490112
2009.000000	98.552642
2008.000000	98.596941
2007.000000	98.619938
2006.000000	98.616294
2005.000000	98.581312
2004.000000	98.537605
2003.000000	98.520426
2002.000000	98.533430
2001.000000	98.548923
2000.000000	98.550941
1999.000000	98.546108
1998.000000	98.533452
1997.000000	98.500697
1996.000000	98.457295
1995.000000	98.433916
1994.000000	98.438354
1993.000000	98.441182
1992.000000	98.421044
1991.000000	98.399446
1990.000000	98.405071
1989.000000	98.432926
1988.000000	98.461435
1987.000000	98.482341
1986.000000	98.493929
1985.000000	98.487190
1984.000000	98.460313
1983.000000	98.431978
1982.000000	98.422735
1981.000000	98.435503
1980.000000	98.464327
1979.000000	98.503213
1978.000000	98.535784
1977.000000	98.538474
1976.000000	98.515239
1975.000000	98.503505
1974.000000	98.526829
1973.000000	98.567560
1972.000000	98.598644
1971.000000	98.618763
1970.000000	98.640890
1969.000000	98.665904
1968.000000	98.682275
1967.000000	98.680120
1966.000000	98.656036
1965.000000	98.615925
1964.000000	98.578531
1963.000000	98.563124
1962.000000	98.570263
1961.000000	98.584017
1960.000000	98.593024
1959.000000	98.596498
1958.000000	98.591250
1957.000000	98.572765
1956.000000	98.550055
1955.000000	98.540001
1954.000000	98.545007
1953.000000	98.551601
1952.000000	98.550953
1951.000000	98.545754
1950.000000	98.535329
1949.000000	98.514701
1948.000000	98.490613
1947.000000	98.478473
1946.000000	98.479676
1945.000000	98.479422
1944.000000	98.471055
1943.000000	98.466320
1942.000000	98.475024
1941.000000	98.491710
1940.000000	98.508289
1939.000000	98.520843
1938.000000	98.522978
1937.000000	98.510068
1936.000000	98.492126
1935.000000	98.486159
1934.000000	98.492729
1933.000000	98.494715
1932.000000	98.483913
1931.000000	98.473728
1930.000000	98.476172
1929.000000	98.486075
1928.000000	98.494005
1927.000000	98.499597
1926.000000	98.506747
1925.000000	98.514481
1924.000000	98.523540
1923.000000	98.536365
1922.000000	98.546039
1921.000000	98.539933
1920.000000	98.516204
1919.000000	98.486350
1918.000000	98.461371
1917.000000	98.442611
1916.000000	98.433913
1915.000000	98.442768
1914.000000	98.465248
1913.000000	98.483681
1912.000000	98.485548
1911.000000	98.477686
1910.000000	98.472496
1909.000000	98.470936
1908.000000	98.467384
1907.000000	98.461759
1906.000000	98.458023
1905.000000	98.455229
1904.000000	98.452882
1903.000000	98.454565
1902.000000	98.460705
1901.000000	98.466170
1900.000000	98.467745
1899.000000	98.467938
1898.000000	98.470103
1897.000000	98.472806
1896.000000	98.474755
1895.000000	98.478508
1894.000000	98.486721
1893.000000	98.500387
1892.000000	98.520173
1891.000000	98.543119
1890.000000	98.558428
1889.000000	98.556144
1888.000000	98.544497
1887.000000	98.539155
1886.000000	98.539677
1885.000000	98.533684
1884.000000	98.517158
1883.000000	98.499581
1882.000000	98.489291
1881.000000	98.487293
1880.000000	98.493054
1879.000000	98.504660
1878.000000	98.515593
1877.000000	98.518797
1876.000000	98.516473
1875.000000	98.519181
1874.000000	98.533146
1873.000000	98.555653
1872.000000	98.582075
1871.000000	98.607540
1870.000000	98.622035
1869.000000	98.613625
1868.000000	98.587092
1867.000000	98.564375
1866.000000	98.551708
1865.000000	98.538431
1864.000000	98.521886
1863.000000	98.510290
1862.000000	98.506457
1861.000000	98.504812
1860.000000	98.505351
1859.000000	98.515019
1858.000000	98.532216
1857.000000	98.544517
1856.000000	98.545768
1855.000000	98.541934
1854.000000	98.537973
1853.000000	98.533351
1852.000000	98.531068
1851.000000	98.534255
1850.000000	98.541987
1849.000000	98.552819
1848.000000	98.570675
1847.000000	98.595546
1846.000000	98.611722
1845.000000	98.600816
1844.000000	98.569516
1843.000000	98.546711
1842.000000	98.542146
1841.000000	98.541171
1840.000000	98.534839
1839.000000	98.528750
1838.000000	98.527575
1837.000000	98.525337
1836.000000	98.522344
1835.000000	98.530471
1834.000000	98.552926
1833.000000	98.576363
1832.000000	98.588592
1831.000000	98.594317
1830.000000	98.605529
1829.000000	98.616221
1828.000000	98.617170
1827.000000	98.611952
1826.000000	98.607409
1825.000000	98.604202
1824.000000	98.597371
1823.000000	98.587509
1822.000000	98.578579
1821.000000	98.572371
1820.000000	98.570866
1819.000000	98.577660
1818.000000	98.591294
1817.000000	98.601403
1816.000000	98.603170
1815.000000	98.603449
1814.000000	98.606809
1813.000000	98.608342
1812.000000	98.602819
1811.000000	98.597679
1810.000000	98.600576
1809.000000	98.604337
1808.000000	98.600844
1807.000000	98.593611
1806.000000	98.588374
1805.000000	98.583725
1804.000000	98.577822
1803.000000	98.573335
1802.000000	98.570780
1801.000000	98.565884
1800.000000	98.556303
1799.000000	98.550892
1798.000000	98.553869
1797.000000	98.558343
1796.000000	98.560086
1795.000000	98.562476
1794.000000	98.567449
1793.000000	98.572614
1792.000000	98.573738
1791.000000	98.574764
1790.000000	98.581192
1789.000000	98.588636
1788.000000	98.592701
1787.000000	98.596304
1786.000000	98.602927
1785.000000	98.610415
1784.000000	98.617301
1783.000000	98.625040
1782.000000	98.632167
1781.000000	98.638285
1780.000000	98.642916
1779.000000	98.649569
1778.000000	98.660766
1777.000000	98.678999
1776.000000	98.707460
1775.000000	98.739887
1774.000000	98.760848
1773.000000	98.762915
1772.000000	98.751473
1771.000000	98.739056
1770.000000	98.733152
1769.000000	98.723865
1768.000000	98.708143
1767.000000	98.700118
1766.000000	98.706728
1765.000000	98.715529
1764.000000	98.710826
1763.000000	98.692242
1762.000000	98.672394
1761.000000	98.659802
1760.000000	98.651954
1759.000000	98.644661
1758.000000	98.629310
1757.000000	98.603592
1756.000000	98.577755
1755.000000	98.563887
1754.000000	98.559020
1753.000000	98.546092
1752.000000	98.514414
1751.000000	98.471977
1750.000000	98.432725
1749.000000	98.396201
1748.000000	98.360236
1747.000000	98.328909
1746.000000	98.304080
1745.000000	98.282426
1744.000000	98.262978
1743.000000	98.252990
1742.000000	98.253614
1741.000000	98.254946
1740.000000	98.257321
1739.000000	98.280075
1738.000000	98.329324
1737.000000	98.384956
1736.000000	98.425338
1735.000000	98.463410
1734.000000	98.526192
1733.000000	98.583080
1732.000000	98.610452
1731.000000	98.624027
1730.000000	98.635866
1729.000000	98.647626
1728.000000	98.659962
1727.000000	98.673757
1726.000000	98.688506
1725.000000	98.701028
1724.000000	98.709014
1723.000000	98.720589
1722.000000	98.740506
1721.000000	98.757692
1720.000000	98.757556
1719.000000	98.748744
1718.000000	98.759776
1717.000000	98.767136
1716.000000	98.728636
1715.000000	98.666251
1714.000000	98.609959
1713.000000	98.562927
1712.000000	98.520537
1711.000000	98.483196
1710.000000	98.451813
1709.000000	98.421096
1708.000000	98.380756
1707.000000	98.325776
1706.000000	98.265089
1705.000000	98.211864
1704.000000	98.176831
1703.000000	98.148785
1702.000000	98.082724
1701.000000	97.947713
1700.000000	97.800684
1699.000000	97.726646
1698.000000	97.695447
1697.000000	97.614886
1696.000000	97.456387
1695.000000	97.299401
1694.000000	97.204987
1693.000000	97.139391
1692.000000	97.062781
1691.000000	96.973510
1690.000000	96.888360
1689.000000	96.819040
1688.000000	96.765214
1687.000000	96.712583
1686.000000	96.626026
1685.000000	96.463926
1684.000000	96.239660
1683.000000	96.049053
1682.000000	95.924852
1681.000000	95.804764
1680.000000	95.661552
1679.000000	95.516726
1678.000000	95.378781
1677.000000	95.213537
1676.000000	94.989534
1675.000000	94.741605
1674.000000	94.537681
1673.000000	94.379445
1672.000000	94.215169
1671.000000	94.010259
1670.000000	93.757842
1669.000000	93.478358
1668.000000	93.221072
1667.000000	93.019020
1666.000000	92.857038
1665.000000	92.689459
1664.000000	92.478442
1663.000000	92.232810
1662.000000	91.997902
1661.000000	91.802806
1660.000000	91.640508
1659.000000	91.503861
1658.000000	91.400618
1657.000000	91.331358
1656.000000	91.273623
1655.000000	91.184743
1654.000000	91.039831
1653.000000	90.858921
1652.000000	90.728838
1651.000000	90.691972
1650.000000	90.691449
1649.000000	90.677108
1648.000000	90.630344
1647.000000	90.560520
1646.000000	90.490599
1645.000000	90.434863
1644.000000	90.389708
1643.000000	90.353021
1642.000000	90.323225
1641.000000	90.296605
1640.000000	90.271666
1639.000000	90.249878
1638.000000	90.221507
1637.000000	90.159216
1636.000000	90.050668
1635.000000	89.937665
1634.000000	89.878732
1633.000000	89.857437
1632.000000	89.840749
1631.000000	89.824308
1630.000000	89.820220
1629.000000	89.840104
1628.000000	89.889563
1627.000000	89.965980
1626.000000	90.061758
1625.000000	90.176139
1624.000000	90.322852
1623.000000	90.513468
1622.000000	90.723597
1621.000000	90.922697
1620.000000	91.104707
1619.000000	91.280604
1618.000000	91.476718
1617.000000	91.720182
1616.000000	91.985640
1615.000000	92.217174
1614.000000	92.406796
1613.000000	92.580111
1612.000000	92.761062
1611.000000	92.956464
1610.000000	93.155365
1609.000000	93.349717
1608.000000	93.540519
1607.000000	93.722340
1606.000000	93.883679
1605.000000	94.029056
1604.000000	94.171888
1603.000000	94.313177
1602.000000	94.442607
1601.000000	94.557078
1600.000000	94.661299
1599.000000	94.753504
1598.000000	94.830026
1597.000000	94.898059
1596.000000	94.967900
1595.000000	95.035078
1594.000000	95.085830
1593.000000	95.120046
1592.000000	95.147862
1591.000000	95.168113
1590.000000	95.170544
1589.000000	95.157474
1588.000000	95.140622
1587.000000	95.119262
1586.000000	95.081745
1585.000000	95.027700
1584.000000	94.968137
1583.000000	94.899985
1582.000000	94.815028
1581.000000	94.726056
1580.000000	94.654957
1579.000000	94.594227
1578.000000	94.508969
1577.000000	94.376398
1576.000000	94.221423
1575.000000	94.090734
1574.000000	93.996905
1573.000000	93.921468
1572.000000	93.838467
1571.000000	93.722666
1570.000000	93.560605
1569.000000	93.378934
1568.000000	93.225835
1567.000000	93.095679
1566.000000	92.951811
1565.000000	92.788516
1564.000000	92.642969
1563.000000	92.542154
1562.000000	92.466118
1561.000000	92.360250
1560.000000	92.179465
1559.000000	91.929369
1558.000000	91.674654
1557.000000	91.529070
1556.000000	91.434468
1555.000000	91.325016
1554.000000	91.198716
1553.000000	91.084554
1552.000000	90.991138
1551.000000	90.905673
1550.000000	90.823030
1549.000000	90.753143
1548.000000	90.706252
1547.000000	90.675204
1546.000000	90.647471
1545.000000	90.620418
1544.000000	90.599571
1543.000000	90.589160
1542.000000	90.588934
1541.000000	90.584800
1540.000000	90.557534
1539.000000	90.532956
1538.000000	90.562544
1537.000000	90.630102
1536.000000	90.707850
1535.000000	90.794522
1534.000000	90.907794
1533.000000	91.038211
1532.000000	91.148730
1531.000000	91.241967
1530.000000	91.337205
1529.000000	91.441701
1528.000000	91.555783
1527.000000	91.678387
1526.000000	91.802332
1525.000000	91.912796
1524.000000	92.003471
1523.000000	92.088516
1522.000000	92.187316
1521.000000	92.281466
1520.000000	92.344339
1519.000000	92.392408
1518.000000	92.447873
1517.000000	92.518196
1516.000000	92.596597
1515.000000	92.678048
1514.000000	92.761057
1513.000000	92.843756
1512.000000	92.930718
1511.000000	93.034165
1510.000000	93.152678
1509.000000	93.267344
1508.000000	93.365026
1507.000000	93.452023
1506.000000	93.512067
1505.000000	93.558494
1504.000000	93.604528
1503.000000	93.655749
1502.000000	93.715014
1501.000000	93.776408
1500.000000	93.832416
1499.000000	93.886532
1498.000000	93.948693
1497.000000	94.007499
1496.000000	94.042007
1495.000000	94.065062
1494.000000	94.095365
1493.000000	94.126836
1492.000000	94.149615
1491.000000	94.172896
1490.000000	94.203290
1489.000000	94.209928
1488.000000	94.176417
1487.000000	94.134759
1486.000000	94.104362
1485.000000	94.075125
1484.000000	94.038229
1483.000000	93.993392
1482.000000	93.943752
1481.000000	93.885965
1480.000000	93.821319
1479.000000	93.757914
1478.000000	93.696475
1477.000000	93.628056
1476.000000	93.549834
1475.000000	93.469299
1474.000000	93.374738
1473.000000	93.231661
1472.000000	93.035999
1471.000000	92.850358
1470.000000	92.708711
1469.000000	92.591110
1468.000000	92.477808
1467.000000	92.364825
1466.000000	92.247011
1465.000000	92.119045
1464.000000	91.994032
1463.000000	91.896575
1462.000000	91.829199
1461.000000	91.774532
1460.000000	91.719723
1459.000000	91.652884
1458.000000	91.549406
1457.000000	91.382736
1456.000000	91.202963
1455.000000	91.080243
1454.000000	90.999074
1453.000000	90.927561
1452.000000	90.860575
1451.000000	90.808258
1450.000000	90.771169
1449.000000	90.739192
1448.000000	90.710623
1447.000000	90.694176
1446.000000	90.688585
1445.000000	90.687053
1444.000000	90.686250
1443.000000	90.689113
1442.000000	90.699109
1441.000000	90.718994
1440.000000	90.750463
1439.000000	90.789702
1438.000000	90.830707
1437.000000	90.870434
1436.000000	90.906335
1435.000000	90.935341
1434.000000	90.960850
1433.000000	90.983675
1432.000000	91.003428
1431.000000	91.018838
1430.000000	91.026895
1429.000000	91.025724
1428.000000	91.020413
1427.000000	91.016186
1426.000000	91.007912
1425.000000	90.994168
1424.000000	90.982447
1423.000000	90.979613
1422.000000	90.981870
1421.000000	90.976606
1420.000000	90.959117
1419.000000	90.938867
1418.000000	90.921482
1417.000000	90.904028
1416.000000	90.887502
1415.000000	90.877503
1414.000000	90.876653
1413.000000	90.881581
1412.000000	90.886146
1411.000000	90.885764
1410.000000	90.879261
1409.000000	90.866434
1408.000000	90.848970
1407.000000	90.831777
1406.000000	90.816796
1405.000000	90.805097
1404.000000	90.799224
1403.000000	90.802025
1402.000000	90.811921
1401.000000	90.825204
1400.000000	90.844969
1399.000000	90.874139
1398.000000	90.904646
1397.000000	90.926789
1396.000000	90.942493
1395.000000	90.959864
1394.000000	90.982022
1393.000000	91.010697
1392.000000	91.048955
1391.000000	91.099279
1390.000000	91.158607
1389.000000	91.219968
1388.000000	91.278277
1387.000000	91.329794
1386.000000	91.370266
1385.000000	91.403058
1384.000000	91.437304
1383.000000	91.478147
1382.000000	91.522402
1381.000000	91.563605
1380.000000	91.603839
1379.000000	91.651578
1378.000000	91.710065
1377.000000	91.776550
1376.000000	91.852047
1375.000000	91.940378
1374.000000	92.035817
1373.000000	92.126327
1372.000000	92.210423
1371.000000	92.296245
1370.000000	92.389375
1369.000000	92.492960
1368.000000	92.605875
1367.000000	92.721285
1366.000000	92.832387
1365.000000	92.940036
1364.000000	93.052762
1363.000000	93.173694
1362.000000	93.288425
1361.000000	93.382350
1360.000000	93.458274
1359.000000	93.524383
1358.000000	93.582387
1357.000000	93.631328
1356.000000	93.671604
1355.000000	93.701863
1354.000000	93.717704
1353.000000	93.717170
1352.000000	93.704733
1351.000000	93.686231
1350.000000	93.661201
1349.000000	93.628979
1348.000000	93.592013
1347.000000	93.551868
1346.000000	93.505936
1345.000000	93.454153
1344.000000	93.403718
1343.000000	93.362412
1342.000000	93.329769
1341.000000	93.299398
1340.000000	93.266882
1339.000000	93.232895
1338.000000	93.203001
1337.000000	93.185680
1336.000000	93.188808
1335.000000	93.215536
1334.000000	93.261733
1333.000000	93.320557
1332.000000	93.388841
1331.000000	93.466374
1330.000000	93.550521
1329.000000	93.635309
1328.000000	93.714404
1327.000000	93.782461
1326.000000	93.835878
1325.000000	93.876543
1324.000000	93.910405
1323.000000	93.941246
1322.000000	93.967974
1321.000000	93.988202
1320.000000	94.001272
1319.000000	94.007928
1318.000000	94.010951
1317.000000	94.017207
1316.000000	94.035009
1315.000000	94.067356
1314.000000	94.109565
1313.000000	94.154585
1312.000000	94.199193
1311.000000	94.244020
1310.000000	94.290551
1309.000000	94.340342
1308.000000	94.394573
1307.000000	94.451154
1306.000000	94.503282
1305.000000	94.545256
1304.000000	94.577353
1303.000000	94.604253
1302.000000	94.630176
1301.000000	94.657156
1300.000000	94.685580
1299.000000	94.713714
1298.000000	94.736695
1297.000000	94.748681
1296.000000	94.747557
1295.000000	94.736176
1294.000000	94.719073
1293.000000	94.698048
1292.000000	94.671316
1291.000000	94.636536
1290.000000	94.593463
1289.000000	94.544040
1288.000000	94.490611
1287.000000	94.434936
1286.000000	94.379235
1285.000000	94.327318
1284.000000	94.283501
1283.000000	94.249991
1282.000000	94.226026
1281.000000	94.210276
1280.000000	94.203625
1279.000000	94.206964
1278.000000	94.217879
1277.000000	94.232131
1276.000000	94.247935
1275.000000	94.266366
1274.000000	94.287364
1273.000000	94.307884
1272.000000	94.324578
1271.000000	94.336444
1270.000000	94.343974
1269.000000	94.347140
1268.000000	94.345236
1267.000000	94.337569
1266.000000	94.324085
1265.000000	94.305258
1264.000000	94.281987
1263.000000	94.255054
1262.000000	94.223844
1261.000000	94.186980
1260.000000	94.144833
1259.000000	94.099766
1258.000000	94.053197
1257.000000	94.003221
1256.000000	93.947358
1255.000000	93.885888
1254.000000	93.820428
1253.000000	93.750254
1252.000000	93.672629
1251.000000	93.587236
1250.000000	93.497565
1249.000000	93.407040
1248.000000	93.315587
1247.000000	93.220278
1246.000000	93.118833
1245.000000	93.011896
1244.000000	92.903413
1243.000000	92.799081
1242.000000	92.703182
1241.000000	92.616534
1240.000000	92.537892
1239.000000	92.466734
1238.000000	92.403945
1237.000000	92.352046
1236.000000	92.315045
1235.000000	92.296435
1234.000000	92.296813
1233.000000	92.313877
1232.000000	92.346725
1231.000000	92.397935
1230.000000	92.471047
1229.000000	92.567839
1228.000000	92.686356
1227.000000	92.821653
1226.000000	92.968251
1225.000000	93.122893
1224.000000	93.284365
1223.000000	93.449274
1222.000000	93.611198
1221.000000	93.764651
1220.000000	93.907343
1219.000000	94.037040
1218.000000	94.149847
1217.000000	94.242870
1216.000000	94.316157
1215.000000	94.371010
1214.000000	94.406677
1213.000000	94.421488
1212.000000	94.415278
1211.000000	94.390312
1210.000000	94.351360
1209.000000	94.303844
1208.000000	94.252025
1207.000000	94.197683
1206.000000	94.141423
1205.000000	94.086454
1204.000000	94.040673
1203.000000	94.013622
1202.000000	94.011044
1201.000000	94.033338
1200.000000	94.077484
1199.000000	94.139776
1198.000000	94.216565
1197.000000	94.304442
1196.000000	94.400136
1195.000000	94.498969
1194.000000	94.596033
1193.000000	94.689624
1192.000000	94.782126
1191.000000	94.876294
1190.000000	94.971673
1189.000000	95.065230
1188.000000	95.153542
1187.000000	95.233605
1186.000000	95.303322
1185.000000	95.363059
1184.000000	95.414979
1183.000000	95.460192
1182.000000	95.498040
1181.000000	95.528569
1180.000000	95.554801
1179.000000	95.580493
1178.000000	95.606481
1177.000000	95.630684
1176.000000	95.650892
1175.000000	95.666879
1174.000000	95.680163
1173.000000	95.692961
1172.000000	95.707107
1171.000000	95.722432
1170.000000	95.735799
1169.000000	95.742509
1168.000000	95.739966
1167.000000	95.730545
1166.000000	95.720381
1165.000000	95.715026
1164.000000	95.716310
1163.000000	95.723284
1162.000000	95.735035
1161.000000	95.752081
1160.000000	95.775526
1159.000000	95.805948
1158.000000	95.843709
1157.000000	95.889112
1156.000000	95.942104
1155.000000	96.001575
1154.000000	96.065167
1153.000000	96.129485
1152.000000	96.190480
1151.000000	96.245374
1150.000000	96.295212
1149.000000	96.344438
1148.000000	96.396453
1147.000000	96.450140
1146.000000	96.501283
1145.000000	96.546830
1144.000000	96.587313
1143.000000	96.626009
1142.000000	96.666601
1141.000000	96.710734
1140.000000	96.757235
1139.000000	96.804187
1138.000000	96.851163
1137.000000	96.898101
1136.000000	96.942576
1135.000000	96.980897
1134.000000	97.012390
1133.000000	97.039522
1132.000000	97.063308
1131.000000	97.081587
1130.000000	97.093003
1129.000000	97.100024
1128.000000	97.106046
1127.000000	97.112300
1126.000000	97.119046
1125.000000	97.127142
1124.000000	97.136570
1123.000000	97.145340
1122.000000	97.151740
1121.000000	97.155882
1120.000000	97.157749
1119.000000	97.156346
1118.000000	97.152584
1117.000000	97.150400
1116.000000	97.152316
1115.000000	97.155362
1114.000000	97.153903
1113.000000	97.145666
1112.000000	97.133477
1111.000000	97.122015
1110.000000	97.113856
1109.000000	97.107638
1108.000000	97.098651
1107.000000	97.083271
1106.000000	97.063429
1105.000000	97.045100
1104.000000	97.031812
1103.000000	97.021812
1102.000000	97.012062
1101.000000	97.001821
1100.000000	96.989792
1099.000000	96.972651
1098.000000	96.947920
1097.000000	96.917739
1096.000000	96.886239
1095.000000	96.854133
1094.000000	96.818391
1093.000000	96.775888
1092.000000	96.724389
1091.000000	96.661264
1090.000000	96.583970
1089.000000	96.493215
1088.000000	96.394127
1087.000000	96.293582
1086.000000	96.196697
1085.000000	96.105639
1084.000000	96.021994
1083.000000	95.950107
1082.000000	95.898272
1081.000000	95.874375
1080.000000	95.879978
1079.000000	95.908446
1078.000000	95.950448
1077.000000	96.002068
1076.000000	96.064614
1075.000000	96.137958
1074.000000	96.216247
1073.000000	96.291059
1072.000000	96.355917
1071.000000	96.406942
1070.000000	96.441814
1069.000000	96.459713
1068.000000	96.461732
1067.000000	96.451205
1066.000000	96.435243
1065.000000	96.423702
1064.000000	96.422999
1063.000000	96.430612
1062.000000	96.438380
1061.000000	96.442638
1060.000000	96.448249
1059.000000	96.461356
1058.000000	96.481414
1057.000000	96.503435
1056.000000	96.525647
1055.000000	96.551240
1054.000000	96.582600
1053.000000	96.616619
1052.000000	96.646716
1051.000000	96.668824
1050.000000	96.685457
1049.000000	96.703991
1048.000000	96.730072
1047.000000	96.761495
1046.000000	96.788929
1045.000000	96.803614
1044.000000	96.804220
1043.000000	96.796839
1042.000000	96.788600
1041.000000	96.780908
1040.000000	96.767912
1039.000000	96.740174
1038.000000	96.691457
1037.000000	96.623088
1036.000000	96.543280
1035.000000	96.462695
1034.000000	96.390639
1033.000000	96.334250
1032.000000	96.299350
1031.000000	96.289937
1030.000000	96.305894
1029.000000	96.343272
1028.000000	96.396212
1027.000000	96.458480
1026.000000	96.524112
1025.000000	96.588487
1024.000000	96.649931
1023.000000	96.708731
1022.000000	96.764540
1021.000000	96.814971
1020.000000	96.857091
1019.000000	96.889698
1018.000000	96.914255
1017.000000	96.933627
1016.000000	96.950698
1015.000000	96.968852
1014.000000	96.992697
1013.000000	97.026200
1012.000000	97.069111
1011.000000	97.116626
1010.000000	97.163524
1009.000000	97.208013
1008.000000	97.250721
1007.000000	97.291978
1006.000000	97.332688
1005.000000	97.376190
1004.000000	97.425962
1003.000000	97.481080
1002.000000	97.536708
1001.000000	97.589593
1000.000000	97.640591
999.000000	97.691141
998.000000	97.739922
997.000000	97.784759
996.000000	97.825973
995.000000	97.866132
994.000000	97.907170
993.000000	97.948803
992.000000	97.989207
991.000000	98.025962
990.000000	98.056911
989.000000	98.080881
988.000000	98.097840
987.000000	98.108751
986.000000	98.115317
985.000000	98.119314
984.000000	98.120986
983.000000	98.118031
982.000000	98.107269
981.000000	98.087172
980.000000	98.058861
979.000000	98.024945
978.000000	97.988428
977.000000	97.952753
976.000000	97.921655
975.000000	97.897958
974.000000	97.882432
973.000000	97.874658
972.000000	97.874615
971.000000	97.882847
970.000000	97.898779
969.000000	97.920031
968.000000	97.944488
967.000000	97.972143
966.000000	98.003936
965.000000	98.038154
964.000000	98.069422
963.000000	98.092717
962.000000	98.108293
961.000000	98.121312
960.000000	98.136315
959.000000	98.153805
958.000000	98.172386
957.000000	98.191859
956.000000	98.212355
955.000000	98.231901
954.000000	98.247386
953.000000	98.257396
952.000000	98.262450
951.000000	98.262833
950.000000	98.258279
949.000000	98.249739
948.000000	98.239413
947.000000	98.228937
946.000000	98.218858
945.000000	98.209812
944.000000	98.202331
943.000000	98.195168
942.000000	98.186002
941.000000	98.174940
940.000000	98.165599
939.000000	98.161457
938.000000	98.162702
937.000000	98.167877
936.000000	98.177072
935.000000	98.191404
934.000000	98.210332
933.000000	98.232214
932.000000	98.257159
931.000000	98.286608
930.000000	98.319110
929.000000	98.348258
928.000000	98.366682
927.000000	98.372662
926.000000	98.372415
925.000000	98.375340
924.000000	98.386177
923.000000	98.401145
922.000000	98.412334
921.000000	98.416161
920.000000	98.416638
919.000000	98.420345
918.000000	98.429817
917.000000	98.443357
916.000000	98.459624
915.000000	98.479545
914.000000	98.503675
913.000000	98.530149
912.000000	98.556088
911.000000	98.579239
910.000000	98.597909
909.000000	98.611426
908.000000	98.621728
907.000000	98.632339
906.000000	98.644156
905.000000	98.653365
904.000000	98.655551
903.000000	98.651192
902.000000	98.645215
901.000000	98.642019
900.000000	98.643133
899.000000	98.649373
898.000000	98.661950
897.000000	98.680508
896.000000	98.701708
895.000000	98.721359
894.000000	98.737242
893.000000	98.749283
892.000000	98.758459
891.000000	98.766674
890.000000	98.776034
889.000000	98.785712
888.000000	98.789921
887.000000	98.779816
886.000000	98.747415
885.000000	98.686019
884.000000	98.587097
883.000000	98.439740
882.000000	98.231196
881.000000	97.948030
880.000000	97.579056
879.000000	97.125795
878.000000	96.615259
877.000000	96.100400
876.000000	95.645061
875.000000	95.303904
874.000000	95.114064
873.000000	95.097133
872.000000	95.261324
871.000000	95.588418
870.000000	96.020964
869.000000	96.476739
868.000000	96.883404
867.000000	97.206330
866.000000	97.449757
865.000000	97.638103
864.000000	97.792950
863.000000	97.920608
862.000000	98.015098
861.000000	98.073531
860.000000	98.107764
859.000000	98.138006
858.000000	98.176015
857.000000	98.216412
856.000000	98.246604
855.000000	98.262428
854.000000	98.270991
853.000000	98.280174
852.000000	98.288955
851.000000	98.290363
850.000000	98.282787
849.000000	98.276116
848.000000	98.285386
847.000000	98.318151
846.000000	98.368590
845.000000	98.423129
844.000000	98.469594
843.000000	98.501867
842.000000	98.521035
841.000000	98.535396
840.000000	98.556123
839.000000	98.588306
838.000000	98.626438
837.000000	98.661123
836.000000	98.688044
835.000000	98.707405
834.000000	98.718518
833.000000	98.721404
832.000000	98.722198
831.000000	98.729275
830.000000	98.742596
829.000000	98.752948
828.000000	98.754481
827.000000	98.752045
826.000000	98.752180
825.000000	98.752488
824.000000	98.745559
823.000000	98.730782
822.000000	98.716552
821.000000	98.710931
820.000000	98.713262
819.000000	98.714609
818.000000	98.706126
817.000000	98.688636
816.000000	98.673446
815.000000	98.670905
814.000000	98.679178
813.000000	98.688472
812.000000	98.694690
811.000000	98.702005
810.000000	98.712210
809.000000	98.720097
808.000000	98.722808
807.000000	98.726010
806.000000	98.735491
805.000000	98.748240
804.000000	98.757022
803.000000	98.759020
802.000000	98.755170
801.000000	98.745752
800.000000	98.732600
799.000000	98.722096
798.000000	98.719155
797.000000	98.719667
796.000000	98.713747
795.000000	98.696050
794.000000	98.670203
793.000000	98.644797
792.000000	98.627952
791.000000	98.623894
790.000000	98.631212
789.000000	98.644650
788.000000	98.658791
787.000000	98.668468
786.000000	98.667732
785.000000	98.654500
784.000000	98.636554
783.000000	98.626224
782.000000	98.627101
781.000000	98.631632
780.000000	98.633194
779.000000	98.633479
778.000000	98.635602
777.000000	98.638010
776.000000	98.639923
775.000000	98.644903
774.000000	98.652696
773.000000	98.654601
772.000000	98.644890
771.000000	98.631647
770.000000	98.627739
769.000000	98.634300
768.000000	98.641401
767.000000	98.643136
766.000000	98.643515
765.000000	98.647029
764.000000	98.650470
763.000000	98.646901
762.000000	98.633928
761.000000	98.615968
760.000000	98.599900
759.000000	98.588904
758.000000	98.580186
757.000000	98.569191
756.000000	98.555361
755.000000	98.541736
754.000000	98.529873
753.000000	98.519095
752.000000	98.509704
751.000000	98.501818
750.000000	98.491680
749.000000	98.475557
748.000000	98.457660
747.000000	98.446166
746.000000	98.439743
745.000000	98.426752
744.000000	98.402023
743.000000	98.376368
742.000000	98.363985
741.000000	98.366835
740.000000	98.376045
739.000000	98.382143
738.000000	98.378458
737.000000	98.361099
736.000000	98.332429
735.000000	98.300958
734.000000	98.272564
733.000000	98.245066
732.000000	98.213908
731.000000	98.177917
730.000000	98.136791
729.000000	98.090064
728.000000	98.042400
727.000000	98.002034
726.000000	97.968805
725.000000	97.931107
724.000000	97.880909
723.000000	97.824700
722.000000	97.773502
721.000000	97.728291
720.000000	97.681535
719.000000	97.626816
718.000000	97.559359
717.000000	97.472665
716.000000	97.363580
715.000000	97.239968
714.000000	97.119821
713.000000	97.025197
712.000000	96.975947
711.000000	96.978987
710.000000	97.017935
709.000000	97.061028
708.000000	97.085854
707.000000	97.093198
706.000000	97.095030
705.000000	97.097984
704.000000	97.102660
703.000000	97.108048
702.000000	97.109251
701.000000	97.099392
700.000000	97.080975
699.000000	97.066754
698.000000	97.063059
697.000000	97.060375
696.000000	97.047638
695.000000	97.026694
694.000000	97.005848
693.000000	96.989387
692.000000	96.980458
691.000000	96.982455
690.000000	96.987694
689.000000	96.975234
688.000000	96.933140
687.000000	96.876070
686.000000	96.827167
685.000000	96.792456
684.000000	96.764554
683.000000	96.741118
682.000000	96.726196
681.000000	96.718741
680.000000	96.711407
679.000000	96.697822
678.000000	96.674146
677.000000	96.638812
676.000000	96.596984
675.000000	96.557012
674.000000	96.522348
673.000000	96.494221
672.000000	96.479762
671.000000	96.484389
670.000000	96.494872
669.000000	96.471592
668.000000	96.385394
667.000000	96.293088
666.000000	96.258718
665.000000	96.264136
664.000000	96.277067
663.000000	96.286415
662.000000	96.287056
661.000000	96.269114
660.000000	96.230871
659.000000	96.189360
658.000000	96.164609
657.000000	96.160345
656.000000	96.168395
655.000000	96.177188
654.000000	96.170107
653.000000	96.133154
652.000000	96.075000
651.000000	96.026740
650.000000	96.010139
649.000000	96.015497
648.000000	96.021916
647.000000	96.022955
646.000000	96.021615
645.000000	96.016920
644.000000	96.010119
643.000000	96.010265
642.000000	96.019761
641.000000	96.027131
640.000000	96.026108
639.000000	96.027879
638.000000	96.039913
637.000000	96.047294
636.000000	96.031228
635.000000	95.995782
634.000000	95.960569
633.000000	95.935761
632.000000	95.919622
631.000000	95.911256
630.000000	95.909330
629.000000	95.906581
628.000000	95.899665
627.000000	95.896878
626.000000	95.904984
625.000000	95.917165
624.000000	95.925548
623.000000	95.932399
622.000000	95.938757
621.000000	95.935101
620.000000	95.914938
619.000000	95.885688
618.000000	95.854864
617.000000	95.818521
616.000000	95.776858
615.000000	95.746485
614.000000	95.740353
613.000000	95.749260
612.000000	95.757172
611.000000	95.761611
610.000000	95.765435
609.000000	95.765295
608.000000	95.763705
607.000000	95.776100
606.000000	95.807232
605.000000	95.835226
604.000000	95.838503
603.000000	95.825508
602.000000	95.820735
601.000000	95.834380
600.000000	95.862560
599.000000	95.899262
598.000000	95.932576
597.000000	95.944430
596.000000	95.932265
595.000000	95.917634
594.000000	95.917130
593.000000	95.919561
592.000000	95.910678
591.000000	95.902754
590.000000	95.913477
589.000000	95.933597
588.000000	95.943090
587.000000	95.943774
586.000000	95.950450
585.000000	95.960576
584.000000	95.958013
583.000000	95.940417
582.000000	95.920012
581.000000	95.904147
580.000000	95.895700
579.000000	95.901601
578.000000	95.920546
577.000000	95.930562
576.000000	95.909770
575.000000	95.864039
574.000000	95.812076
573.000000	95.753009
572.000000	95.676901
571.000000	95.595981
570.000000	95.536925
569.000000	95.505622
568.000000	95.484640
567.000000	95.460797
566.000000	95.432156
565.000000	95.395848
564.000000	95.353515
563.000000	95.320076
562.000000	95.305162
561.000000	95.294940
560.000000	95.273367
559.000000	95.248852
558.000000	95.236492
557.000000	95.228989
556.000000	95.212411
555.000000	95.198266
554.000000	95.210708
553.000000	95.252213
552.000000	95.310126
551.000000	95.383111
550.000000	95.469800
549.000000	95.544632
548.000000	95.579494
547.000000	95.582762
546.000000	95.591586
545.000000	95.626007
544.000000	95.671919
543.000000	95.704032
542.000000	95.704010
541.000000	95.665297
540.000000	95.600861
539.000000	95.537967
538.000000	95.487079
537.000000	95.424616
536.000000	95.325891
535.000000	95.203651
534.000000	95.092574
533.000000	95.007971
532.000000	94.947476
531.000000	94.917611
530.000000	94.925108
529.000000	94.955185
528.000000	94.988986
527.000000	95.027473
526.000000	95.076266
525.000000	95.123486
524.000000	95.161286
523.000000	95.208123
522.000000	95.281979
521.000000	95.371378
520.000000	95.453589
519.000000	95.526933
518.000000	95.603274
517.000000	95.678068
516.000000	95.736986
515.000000	95.780684
514.000000	95.816228
513.000000	95.844782
512.000000	95.874313
511.000000	95.921068
510.000000	95.982480
509.000000	96.032727
508.000000	96.064752
507.000000	96.106747
506.000000	96.174136
505.000000	96.239106
504.000000	96.273613
503.000000	96.288045
502.000000	96.307555
501.000000	96.338071
500.000000	96.380140
499.000000	96.443082
498.000000	96.516163
497.000000	96.562106
496.000000	96.569326
495.000000	96.577269
494.000000	96.616299
493.000000	96.657553
492.000000	96.659171
491.000000	96.630123
490.000000	96.609943
489.000000	96.614295
488.000000	96.643343
487.000000	96.707646
486.000000	96.803775
485.000000	96.894864
484.000000	96.954405
483.000000	96.996365
482.000000	97.022344
481.000000	96.993401
480.000000	96.902642
479.000000	96.829283
478.000000	96.865052
477.000000	96.999729
476.000000	97.138043
475.000000	97.219778
474.000000	97.264221
473.000000	97.310718
472.000000	97.371689
471.000000	97.440592
470.000000	97.507671
469.000000	97.558494
468.000000	97.585520
467.000000	97.599129
466.000000	97.609201
465.000000	97.610741
464.000000	97.611522
463.000000	97.647054
462.000000	97.733920
461.000000	97.836338
460.000000	97.913089
459.000000	97.966029
458.000000	98.012106
457.000000	98.166397
456.000000	98.182466
455.000000	98.262863
454.000000	98.429001
453.000000	98.601796
452.000000	98.691423
451.000000	98.717263
450.000000	98.762887
