PE IR       SUBTECH     SPECTRUM    ASCII       PEDS        4.00        
   -1
Agneau_UK-1-F001_1.ASC
23/09/13
10:18:19.00
23/09/13
11:33:37.00
uco
Sample 001 By uco Date Wednesday, September 13 2023
450.000000
#HDR
-1
-1
#GR
cm-1
%T
1.0
0.0
4000.000000
-1.000000
3551
8
99.216291
87.736384
#DATA
4000.000000	99.017614
3999.000000	99.016561
3998.000000	99.017575
3997.000000	99.012211
3996.000000	99.010098
3995.000000	99.008703
3994.000000	99.009393
3993.000000	99.012392
3992.000000	99.017363
3991.000000	99.023943
3990.000000	99.031059
3989.000000	99.036147
3988.000000	99.035986
3987.000000	99.028992
3986.000000	99.016755
3985.000000	99.003202
3984.000000	98.992304
3983.000000	98.986022
3982.000000	98.983884
3981.000000	98.983988
3980.000000	98.984461
3979.000000	98.984594
3978.000000	98.984855
3977.000000	98.985913
3976.000000	98.987645
3975.000000	98.989106
3974.000000	98.989465
3973.000000	98.988717
3972.000000	98.987619
3971.000000	98.987203
3970.000000	98.988226
3969.000000	98.990442
3968.000000	98.992191
3967.000000	98.991500
3966.000000	98.988095
3965.000000	98.984176
3964.000000	98.982678
3963.000000	98.984691
3962.000000	98.988632
3961.000000	98.991712
3960.000000	98.992210
3959.000000	98.990207
3958.000000	98.986972
3957.000000	98.984065
3956.000000	98.982316
3955.000000	98.981396
3954.000000	98.980234
3953.000000	98.978424
3952.000000	98.977255
3951.000000	98.978780
3950.000000	98.983423
3949.000000	98.988294
3948.000000	98.989017
3947.000000	98.983569
3946.000000	98.973851
3945.000000	98.964131
3944.000000	98.958252
3943.000000	98.957048
3942.000000	98.958049
3941.000000	98.957751
3940.000000	98.954624
3939.000000	98.950162
3938.000000	98.947654
3937.000000	98.949624
3936.000000	98.955536
3935.000000	98.962440
3934.000000	98.967395
3933.000000	98.969096
3932.000000	98.968175
3931.000000	98.966375
3930.000000	98.965369
3929.000000	98.965361
3928.000000	98.964920
3927.000000	98.962910
3926.000000	98.960021
3925.000000	98.957933
3924.000000	98.957186
3923.000000	98.957151
3922.000000	98.957733
3921.000000	98.959863
3920.000000	98.964025
3919.000000	98.969166
3918.000000	98.973225
3917.000000	98.974337
3916.000000	98.971613
3915.000000	98.965679
3914.000000	98.959404
3913.000000	98.956496
3912.000000	98.958594
3911.000000	98.963333
3910.000000	98.966349
3909.000000	98.965216
3908.000000	98.960674
3907.000000	98.955929
3906.000000	98.955219
3905.000000	98.961839
3904.000000	98.974354
3903.000000	98.985717
3902.000000	98.989406
3901.000000	98.985489
3900.000000	98.979008
3899.000000	98.974203
3898.000000	98.971078
3897.000000	98.967302
3896.000000	98.962099
3895.000000	98.957011
3894.000000	98.954880
3893.000000	98.957901
3892.000000	98.965022
3891.000000	98.971314
3890.000000	98.972264
3889.000000	98.967440
3888.000000	98.959517
3887.000000	98.952795
3886.000000	98.950271
3885.000000	98.950106
3884.000000	98.947876
3883.000000	98.942301
3882.000000	98.936596
3881.000000	98.934857
3880.000000	98.937330
3879.000000	98.940756
3878.000000	98.942312
3877.000000	98.941663
3876.000000	98.940659
3875.000000	98.941990
3874.000000	98.946268
3873.000000	98.950588
3872.000000	98.951779
3871.000000	98.950453
3870.000000	98.950327
3869.000000	98.952894
3868.000000	98.955668
3867.000000	98.956340
3866.000000	98.956046
3865.000000	98.956869
3864.000000	98.957979
3863.000000	98.957451
3862.000000	98.956293
3861.000000	98.956821
3860.000000	98.959340
3859.000000	98.963205
3858.000000	98.968070
3857.000000	98.973511
3856.000000	98.978058
3855.000000	98.981927
3854.000000	98.990204
3853.000000	98.999337
3852.000000	98.997478
3851.000000	98.983795
3850.000000	98.966842
3849.000000	98.953340
3848.000000	98.945275
3847.000000	98.941473
3846.000000	98.941226
3845.000000	98.945214
3844.000000	98.954258
3843.000000	98.967800
3842.000000	98.983460
3841.000000	98.997770
3840.000000	99.007594
3839.000000	99.010777
3838.000000	99.006778
3837.000000	98.997601
3836.000000	98.985890
3835.000000	98.973763
3834.000000	98.963318
3833.000000	98.956359
3832.000000	98.952689
3831.000000	98.949855
3830.000000	98.945639
3829.000000	98.940407
3828.000000	98.936535
3827.000000	98.936537
3826.000000	98.941059
3825.000000	98.947869
3824.000000	98.953529
3823.000000	98.956092
3822.000000	98.957611
3821.000000	98.960472
3820.000000	98.962517
3819.000000	98.961512
3818.000000	98.958509
3817.000000	98.956854
3816.000000	98.957619
3815.000000	98.957322
3814.000000	98.953598
3813.000000	98.949527
3812.000000	98.949383
3811.000000	98.952864
3810.000000	98.955733
3809.000000	98.954558
3808.000000	98.951092
3807.000000	98.950203
3806.000000	98.953735
3805.000000	98.959248
3804.000000	98.963745
3803.000000	98.965286
3802.000000	98.963742
3801.000000	98.959927
3800.000000	98.955651
3799.000000	98.952906
3798.000000	98.953346
3797.000000	98.956623
3796.000000	98.959180
3795.000000	98.957164
3794.000000	98.950843
3793.000000	98.944199
3792.000000	98.940298
3791.000000	98.938586
3790.000000	98.936900
3789.000000	98.934371
3788.000000	98.931210
3787.000000	98.927268
3786.000000	98.922242
3785.000000	98.916911
3784.000000	98.912909
3783.000000	98.911216
3782.000000	98.912079
3781.000000	98.915905
3780.000000	98.922710
3779.000000	98.930493
3778.000000	98.936346
3777.000000	98.938478
3776.000000	98.936435
3775.000000	98.930878
3774.000000	98.924057
3773.000000	98.919451
3772.000000	98.920373
3771.000000	98.927883
3770.000000	98.938810
3769.000000	98.947593
3768.000000	98.950910
3767.000000	98.949613
3766.000000	98.946688
3765.000000	98.944487
3764.000000	98.942918
3763.000000	98.940283
3762.000000	98.936557
3761.000000	98.934582
3760.000000	98.936849
3759.000000	98.942274
3758.000000	98.948933
3757.000000	98.957393
3756.000000	98.968329
3755.000000	98.980432
3754.000000	98.992346
3753.000000	99.004513
3752.000000	99.017071
3751.000000	99.027099
3750.000000	99.032091
3749.000000	99.034452
3748.000000	99.035589
3747.000000	99.031967
3746.000000	99.019800
3745.000000	99.001973
3744.000000	98.985624
3743.000000	98.973782
3742.000000	98.966236
3741.000000	98.964885
3740.000000	98.969795
3739.000000	98.975019
3738.000000	98.972327
3737.000000	98.961440
3736.000000	98.952387
3735.000000	98.955852
3734.000000	98.972285
3733.000000	98.991697
3732.000000	99.002938
3731.000000	99.002078
3730.000000	98.993125
3729.000000	98.982970
3728.000000	98.976311
3727.000000	98.973399
3726.000000	98.970347
3725.000000	98.963651
3724.000000	98.954640
3723.000000	98.947962
3722.000000	98.947544
3721.000000	98.953564
3720.000000	98.962880
3719.000000	98.970871
3718.000000	98.974814
3717.000000	98.975530
3716.000000	98.975534
3715.000000	98.976693
3714.000000	98.977940
3713.000000	98.975645
3712.000000	98.966768
3711.000000	98.953642
3710.000000	98.943833
3709.000000	98.943483
3708.000000	98.952392
3707.000000	98.965818
3706.000000	98.978888
3705.000000	98.988258
3704.000000	98.993243
3703.000000	98.995094
3702.000000	98.995424
3701.000000	98.994117
3700.000000	98.989736
3699.000000	98.981987
3698.000000	98.973718
3697.000000	98.969238
3696.000000	98.969753
3695.000000	98.972522
3694.000000	98.975322
3693.000000	98.980381
3692.000000	98.991876
3691.000000	99.010884
3690.000000	99.030997
3689.000000	99.040010
3688.000000	99.030637
3687.000000	99.007602
3686.000000	98.981563
3685.000000	98.961794
3684.000000	98.953392
3683.000000	98.955262
3682.000000	98.961706
3681.000000	98.966522
3680.000000	98.966031
3679.000000	98.959383
3678.000000	98.949836
3677.000000	98.946578
3676.000000	98.958796
3675.000000	98.979129
3674.000000	98.991762
3673.000000	98.992552
3672.000000	98.985406
3671.000000	98.973318
3670.000000	98.957832
3669.000000	98.941956
3668.000000	98.930198
3667.000000	98.923870
3666.000000	98.921291
3665.000000	98.920297
3664.000000	98.918274
3663.000000	98.912188
3662.000000	98.900996
3661.000000	98.887388
3660.000000	98.875178
3659.000000	98.866167
3658.000000	98.860412
3657.000000	98.858169
3656.000000	98.858733
3655.000000	98.859243
3654.000000	98.858244
3653.000000	98.857971
3652.000000	98.863069
3651.000000	98.876237
3650.000000	98.891125
3649.000000	98.892547
3648.000000	98.875599
3647.000000	98.852192
3646.000000	98.833370
3645.000000	98.821034
3644.000000	98.812903
3643.000000	98.806921
3642.000000	98.802089
3641.000000	98.797288
3640.000000	98.790194
3639.000000	98.778839
3638.000000	98.764068
3637.000000	98.749343
3636.000000	98.738581
3635.000000	98.734591
3634.000000	98.738076
3633.000000	98.745724
3632.000000	98.750487
3631.000000	98.745740
3630.000000	98.732268
3629.000000	98.719347
3628.000000	98.713585
3627.000000	98.712197
3626.000000	98.709771
3625.000000	98.705557
3624.000000	98.701388
3623.000000	98.698448
3622.000000	98.696953
3621.000000	98.696802
3620.000000	98.695621
3619.000000	98.688438
3618.000000	98.673840
3617.000000	98.656763
3616.000000	98.641276
3615.000000	98.626465
3614.000000	98.609494
3613.000000	98.589988
3612.000000	98.571414
3611.000000	98.557313
3610.000000	98.547865
3609.000000	98.540854
3608.000000	98.534286
3607.000000	98.528224
3606.000000	98.524811
3605.000000	98.525042
3604.000000	98.526344
3603.000000	98.523956
3602.000000	98.514867
3601.000000	98.500768
3600.000000	98.486379
3599.000000	98.475459
3598.000000	98.468615
3597.000000	98.463944
3596.000000	98.457618
3595.000000	98.445934
3594.000000	98.428787
3593.000000	98.410229
3592.000000	98.393986
3591.000000	98.380263
3590.000000	98.367776
3589.000000	98.356811
3588.000000	98.347590
3587.000000	98.337755
3586.000000	98.327023
3585.000000	98.317781
3584.000000	98.310264
3583.000000	98.301760
3582.000000	98.289685
3581.000000	98.273775
3580.000000	98.255798
3579.000000	98.237887
3578.000000	98.221688
3577.000000	98.208485
3576.000000	98.198237
3575.000000	98.189304
3574.000000	98.179885
3573.000000	98.170148
3572.000000	98.161179
3571.000000	98.152957
3570.000000	98.143993
3569.000000	98.133284
3568.000000	98.120240
3567.000000	98.104247
3566.000000	98.087639
3565.000000	98.075481
3564.000000	98.068339
3563.000000	98.062317
3562.000000	98.054577
3561.000000	98.045540
3560.000000	98.036540
3559.000000	98.027292
3558.000000	98.016491
3557.000000	98.004234
3556.000000	97.992114
3555.000000	97.981230
3554.000000	97.970840
3553.000000	97.959156
3552.000000	97.944971
3551.000000	97.928651
3550.000000	97.911513
3549.000000	97.894592
3548.000000	97.878115
3547.000000	97.861595
3546.000000	97.844673
3545.000000	97.828207
3544.000000	97.813806
3543.000000	97.802196
3542.000000	97.792740
3541.000000	97.783610
3540.000000	97.772216
3539.000000	97.756973
3538.000000	97.739040
3537.000000	97.721450
3536.000000	97.705712
3535.000000	97.690819
3534.000000	97.675792
3533.000000	97.661452
3532.000000	97.649046
3531.000000	97.638419
3530.000000	97.628414
3529.000000	97.618157
3528.000000	97.607234
3527.000000	97.595589
3526.000000	97.584112
3525.000000	97.574019
3524.000000	97.564952
3523.000000	97.554970
3522.000000	97.543008
3521.000000	97.529824
3520.000000	97.516137
3519.000000	97.501859
3518.000000	97.487708
3517.000000	97.475813
3516.000000	97.467253
3515.000000	97.459928
3514.000000	97.450169
3513.000000	97.436080
3512.000000	97.419139
3511.000000	97.403391
3510.000000	97.392951
3509.000000	97.388660
3508.000000	97.386604
3507.000000	97.381257
3506.000000	97.370646
3505.000000	97.357611
3504.000000	97.345878
3503.000000	97.336205
3502.000000	97.327396
3501.000000	97.318934
3500.000000	97.310516
3499.000000	97.300710
3498.000000	97.288246
3497.000000	97.273929
3496.000000	97.260348
3495.000000	97.249885
3494.000000	97.243302
3493.000000	97.239267
3492.000000	97.234669
3491.000000	97.226591
3490.000000	97.214850
3489.000000	97.201783
3488.000000	97.189234
3487.000000	97.177256
3486.000000	97.166166
3485.000000	97.157514
3484.000000	97.151487
3483.000000	97.145111
3482.000000	97.135131
3481.000000	97.122135
3480.000000	97.109815
3479.000000	97.100741
3478.000000	97.094605
3477.000000	97.089856
3476.000000	97.085230
3475.000000	97.080146
3474.000000	97.074965
3473.000000	97.070383
3472.000000	97.065677
3471.000000	97.058457
3470.000000	97.047424
3469.000000	97.034519
3468.000000	97.023116
3467.000000	97.014457
3466.000000	97.006648
3465.000000	96.996721
3464.000000	96.982835
3463.000000	96.965478
3462.000000	96.947832
3461.000000	96.934045
3460.000000	96.925458
3459.000000	96.918902
3458.000000	96.910092
3457.000000	96.898560
3456.000000	96.888159
3455.000000	96.882760
3454.000000	96.882181
3453.000000	96.882353
3452.000000	96.878852
3451.000000	96.870411
3450.000000	96.859786
3449.000000	96.851085
3448.000000	96.845827
3447.000000	96.841786
3446.000000	96.836040
3445.000000	96.827706
3444.000000	96.816866
3443.000000	96.803076
3442.000000	96.786789
3441.000000	96.770950
3440.000000	96.758881
3439.000000	96.751041
3438.000000	96.745437
3437.000000	96.740862
3436.000000	96.737790
3435.000000	96.735978
3434.000000	96.732902
3433.000000	96.725715
3432.000000	96.714417
3431.000000	96.702240
3430.000000	96.692915
3429.000000	96.687290
3428.000000	96.682608
3427.000000	96.675398
3426.000000	96.664918
3425.000000	96.653285
3424.000000	96.642527
3423.000000	96.632835
3422.000000	96.623747
3421.000000	96.615204
3420.000000	96.606574
3419.000000	96.596336
3418.000000	96.584207
3417.000000	96.572359
3416.000000	96.563213
3415.000000	96.556758
3414.000000	96.551077
3413.000000	96.544665
3412.000000	96.537010
3411.000000	96.527834
3410.000000	96.517375
3409.000000	96.507034
3408.000000	96.498367
3407.000000	96.491687
3406.000000	96.486397
3405.000000	96.482042
3404.000000	96.477914
3403.000000	96.472387
3402.000000	96.464143
3401.000000	96.453774
3400.000000	96.443185
3399.000000	96.433729
3398.000000	96.425714
3397.000000	96.419036
3396.000000	96.412989
3395.000000	96.405781
3394.000000	96.395782
3393.000000	96.383653
3392.000000	96.372230
3391.000000	96.363673
3390.000000	96.357193
3389.000000	96.350195
3388.000000	96.341396
3387.000000	96.332247
3386.000000	96.325029
3385.000000	96.319735
3384.000000	96.313767
3383.000000	96.305242
3382.000000	96.295577
3381.000000	96.287504
3380.000000	96.280991
3379.000000	96.272570
3378.000000	96.259035
3377.000000	96.240873
3376.000000	96.222062
3375.000000	96.207325
3374.000000	96.199085
3373.000000	96.195417
3372.000000	96.190462
3371.000000	96.178195
3370.000000	96.156839
3369.000000	96.129518
3368.000000	96.101149
3367.000000	96.075646
3366.000000	96.055359
3365.000000	96.040815
3364.000000	96.030001
3363.000000	96.019304
3362.000000	96.005939
3361.000000	95.988687
3360.000000	95.966456
3359.000000	95.938249
3358.000000	95.905527
3357.000000	95.873195
3356.000000	95.846616
3355.000000	95.827587
3354.000000	95.813358
3353.000000	95.798705
3352.000000	95.778782
3351.000000	95.751538
3350.000000	95.718717
3349.000000	95.684323
3348.000000	95.651840
3347.000000	95.622990
3346.000000	95.598177
3345.000000	95.576521
3344.000000	95.555666
3343.000000	95.533485
3342.000000	95.510404
3341.000000	95.488336
3340.000000	95.467113
3339.000000	95.443979
3338.000000	95.417227
3337.000000	95.388601
3336.000000	95.361328
3335.000000	95.337130
3334.000000	95.315655
3333.000000	95.295180
3332.000000	95.273083
3331.000000	95.247636
3330.000000	95.220382
3329.000000	95.195164
3328.000000	95.173929
3327.000000	95.155149
3326.000000	95.137066
3325.000000	95.120209
3324.000000	95.105236
3323.000000	95.090456
3322.000000	95.073774
3321.000000	95.055651
3320.000000	95.038163
3319.000000	95.022316
3318.000000	95.007924
3317.000000	94.994921
3316.000000	94.982909
3315.000000	94.970351
3314.000000	94.956491
3313.000000	94.943666
3312.000000	94.935475
3311.000000	94.932473
3310.000000	94.931071
3309.000000	94.927046
3308.000000	94.919380
3307.000000	94.910480
3306.000000	94.903281
3305.000000	94.898191
3304.000000	94.892564
3303.000000	94.883504
3302.000000	94.871439
3301.000000	94.860361
3300.000000	94.854104
3299.000000	94.852915
3298.000000	94.853689
3297.000000	94.852451
3296.000000	94.846642
3295.000000	94.836530
3294.000000	94.825198
3293.000000	94.816287
3292.000000	94.811059
3291.000000	94.808246
3290.000000	94.806560
3289.000000	94.805879
3288.000000	94.805962
3287.000000	94.806009
3286.000000	94.806276
3285.000000	94.808239
3284.000000	94.812189
3283.000000	94.816135
3282.000000	94.817913
3281.000000	94.817113
3280.000000	94.814416
3279.000000	94.811068
3278.000000	94.809712
3277.000000	94.813505
3276.000000	94.822748
3275.000000	94.833869
3274.000000	94.843089
3273.000000	94.849520
3272.000000	94.853917
3271.000000	94.856637
3270.000000	94.858496
3269.000000	94.861447
3268.000000	94.866200
3267.000000	94.870693
3266.000000	94.873016
3265.000000	94.874773
3264.000000	94.879468
3263.000000	94.888622
3262.000000	94.901235
3261.000000	94.915860
3260.000000	94.931122
3259.000000	94.944816
3258.000000	94.954787
3257.000000	94.960928
3256.000000	94.965165
3255.000000	94.969723
3254.000000	94.976098
3253.000000	94.984881
3252.000000	94.995504
3251.000000	95.006863
3250.000000	95.019011
3249.000000	95.033004
3248.000000	95.047951
3247.000000	95.059741
3246.000000	95.064532
3245.000000	95.063058
3244.000000	95.060098
3243.000000	95.060154
3242.000000	95.064792
3241.000000	95.073038
3240.000000	95.082699
3239.000000	95.091846
3238.000000	95.100239
3237.000000	95.108876
3236.000000	95.117516
3235.000000	95.124016
3234.000000	95.127194
3233.000000	95.128680
3232.000000	95.130563
3231.000000	95.132785
3230.000000	95.134963
3229.000000	95.139399
3228.000000	95.149465
3227.000000	95.165103
3226.000000	95.182025
3225.000000	95.195602
3224.000000	95.204320
3223.000000	95.209791
3222.000000	95.214767
3221.000000	95.221061
3220.000000	95.228113
3219.000000	95.233576
3218.000000	95.236151
3217.000000	95.237457
3216.000000	95.240588
3215.000000	95.247501
3214.000000	95.258283
3213.000000	95.271638
3212.000000	95.284781
3211.000000	95.294115
3210.000000	95.298148
3209.000000	95.299458
3208.000000	95.302220
3207.000000	95.307905
3206.000000	95.314746
3205.000000	95.321080
3204.000000	95.327669
3203.000000	95.336793
3202.000000	95.350129
3201.000000	95.367324
3200.000000	95.385326
3199.000000	95.399331
3198.000000	95.406022
3197.000000	95.406702
3196.000000	95.406839
3195.000000	95.411922
3194.000000	95.423570
3193.000000	95.438813
3192.000000	95.452614
3191.000000	95.462030
3190.000000	95.468699
3189.000000	95.477018
3188.000000	95.489555
3187.000000	95.505131
3186.000000	95.521592
3185.000000	95.538911
3184.000000	95.558405
3183.000000	95.580012
3182.000000	95.601859
3181.000000	95.621938
3180.000000	95.638987
3179.000000	95.652244
3178.000000	95.661723
3177.000000	95.668624
3176.000000	95.674717
3175.000000	95.681653
3174.000000	95.691063
3173.000000	95.704098
3172.000000	95.719825
3171.000000	95.735251
3170.000000	95.748290
3169.000000	95.759782
3168.000000	95.771389
3167.000000	95.782607
3166.000000	95.791929
3165.000000	95.800352
3164.000000	95.811457
3163.000000	95.827545
3162.000000	95.847119
3161.000000	95.866740
3160.000000	95.884204
3159.000000	95.899531
3158.000000	95.913821
3157.000000	95.927833
3156.000000	95.941425
3155.000000	95.954086
3154.000000	95.965973
3153.000000	95.978029
3152.000000	95.990880
3151.000000	96.004249
3150.000000	96.017806
3149.000000	96.031817
3148.000000	96.046260
3147.000000	96.060122
3146.000000	96.072471
3145.000000	96.083683
3144.000000	96.094861
3143.000000	96.106557
3142.000000	96.118639
3141.000000	96.130614
3140.000000	96.141349
3139.000000	96.149522
3138.000000	96.155571
3137.000000	96.162491
3136.000000	96.173386
3135.000000	96.188234
3134.000000	96.203865
3133.000000	96.216870
3132.000000	96.225974
3131.000000	96.232158
3130.000000	96.237535
3129.000000	96.243843
3128.000000	96.251143
3127.000000	96.257992
3126.000000	96.263474
3125.000000	96.268608
3124.000000	96.274977
3123.000000	96.282490
3122.000000	96.289447
3121.000000	96.294321
3120.000000	96.296517
3119.000000	96.295904
3118.000000	96.292633
3117.000000	96.287274
3116.000000	96.280402
3115.000000	96.272612
3114.000000	96.265595
3113.000000	96.262095
3112.000000	96.263375
3111.000000	96.267066
3110.000000	96.268803
3109.000000	96.265790
3108.000000	96.258074
3107.000000	96.247356
3106.000000	96.236216
3105.000000	96.227803
3104.000000	96.223996
3103.000000	96.223212
3102.000000	96.221585
3101.000000	96.216857
3100.000000	96.210232
3099.000000	96.204220
3098.000000	96.199754
3097.000000	96.195552
3096.000000	96.189163
3095.000000	96.178476
3094.000000	96.163518
3093.000000	96.147351
3092.000000	96.134323
3091.000000	96.126779
3090.000000	96.123541
3089.000000	96.121463
3088.000000	96.118022
3087.000000	96.112735
3086.000000	96.107052
3085.000000	96.103037
3084.000000	96.101317
3083.000000	96.100045
3082.000000	96.096386
3081.000000	96.089227
3080.000000	96.079971
3079.000000	96.070728
3078.000000	96.062351
3077.000000	96.054520
3076.000000	96.047256
3075.000000	96.041974
3074.000000	96.040890
3073.000000	96.045171
3072.000000	96.053564
3071.000000	96.063066
3070.000000	96.071055
3069.000000	96.076328
3068.000000	96.078324
3067.000000	96.076813
3066.000000	96.073221
3065.000000	96.071290
3064.000000	96.074806
3063.000000	96.084654
3062.000000	96.098787
3061.000000	96.114592
3060.000000	96.130418
3059.000000	96.145347
3058.000000	96.158923
3057.000000	96.171555
3056.000000	96.184535
3055.000000	96.199286
3054.000000	96.216422
3053.000000	96.235082
3052.000000	96.252924
3051.000000	96.267542
3050.000000	96.278715
3049.000000	96.288978
3048.000000	96.301369
3047.000000	96.316889
3046.000000	96.334448
3045.000000	96.352433
3044.000000	96.369743
3043.000000	96.386200
3042.000000	96.402800
3041.000000	96.420867
3040.000000	96.440076
3039.000000	96.458094
3038.000000	96.473050
3037.000000	96.485644
3036.000000	96.497776
3035.000000	96.509918
3034.000000	96.521063
3033.000000	96.530647
3032.000000	96.539113
3031.000000	96.547025
3030.000000	96.555179
3029.000000	96.565539
3028.000000	96.580398
3027.000000	96.599821
3026.000000	96.620665
3025.000000	96.638619
3024.000000	96.651248
3023.000000	96.659546
3022.000000	96.667385
3021.000000	96.679049
3020.000000	96.695814
3019.000000	96.714443
3018.000000	96.729799
3017.000000	96.739248
3016.000000	96.744132
3015.000000	96.747321
3014.000000	96.750437
3013.000000	96.753523
3012.000000	96.756210
3011.000000	96.758426
3010.000000	96.760282
3009.000000	96.761631
3008.000000	96.761956
3007.000000	96.761073
3006.000000	96.760133
3005.000000	96.761095
3004.000000	96.764385
3003.000000	96.767663
3002.000000	96.768032
3001.000000	96.765314
3000.000000	96.762268
2999.000000	96.761781
2998.000000	96.764452
2997.000000	96.768365
2996.000000	96.769959
2995.000000	96.765661
2994.000000	96.754377
2993.000000	96.738825
2992.000000	96.723237
2991.000000	96.709262
2990.000000	96.694894
2989.000000	96.677340
2988.000000	96.655986
2987.000000	96.632553
2986.000000	96.609669
2985.000000	96.589705
2984.000000	96.573813
2983.000000	96.561073
2982.000000	96.548983
2981.000000	96.535268
2980.000000	96.519122
2979.000000	96.500961
2978.000000	96.482013
2977.000000	96.464231
2976.000000	96.449193
2975.000000	96.436080
2974.000000	96.421294
2973.000000	96.401032
2972.000000	96.374273
2971.000000	96.343042
2970.000000	96.310123
2969.000000	96.276869
2968.000000	96.242967
2967.000000	96.207913
2966.000000	96.172597
2965.000000	96.139195
2964.000000	96.109030
2963.000000	96.080881
2962.000000	96.052191
2961.000000	96.022148
2960.000000	95.992817
2959.000000	95.966984
2958.000000	95.945803
2957.000000	95.929032
2956.000000	95.916939
2955.000000	95.910855
2954.000000	95.911588
2953.000000	95.917500
2952.000000	95.924292
2951.000000	95.927175
2950.000000	95.923715
2949.000000	95.914872
2948.000000	95.902995
2947.000000	95.889013
2946.000000	95.871715
2945.000000	95.849134
2944.000000	95.819780
2943.000000	95.782611
2942.000000	95.737200
2941.000000	95.684564
2940.000000	95.627238
2939.000000	95.567719
2938.000000	95.506597
2937.000000	95.442379
2936.000000	95.372903
2935.000000	95.297243
2934.000000	95.216878
2933.000000	95.135167
2932.000000	95.055098
2931.000000	94.977092
2930.000000	94.899231
2929.000000	94.819612
2928.000000	94.738264
2927.000000	94.657250
2926.000000	94.579797
2925.000000	94.509526
2924.000000	94.449207
2923.000000	94.399551
2922.000000	94.359558
2921.000000	94.328884
2920.000000	94.310539
2919.000000	94.311379
2918.000000	94.340471
2917.000000	94.406035
2916.000000	94.511459
2915.000000	94.651996
2914.000000	94.814353
2913.000000	94.980916
2912.000000	95.136531
2911.000000	95.273977
2910.000000	95.394149
2909.000000	95.501112
2908.000000	95.596829
2907.000000	95.680000
2906.000000	95.749313
2905.000000	95.806326
2904.000000	95.854852
2903.000000	95.898430
2902.000000	95.938684
2901.000000	95.975902
2900.000000	96.009562
2899.000000	96.039144
2898.000000	96.065921
2897.000000	96.093895
2896.000000	96.127556
2895.000000	96.167923
2894.000000	96.211370
2893.000000	96.252608
2892.000000	96.288076
2891.000000	96.316589
2890.000000	96.338606
2889.000000	96.356217
2888.000000	96.372890
2887.000000	96.391215
2886.000000	96.410498
2885.000000	96.427382
2884.000000	96.439215
2883.000000	96.446282
2882.000000	96.450791
2881.000000	96.454480
2880.000000	96.457543
2879.000000	96.459315
2878.000000	96.459174
2877.000000	96.456823
2876.000000	96.452452
2875.000000	96.447157
2874.000000	96.442911
2873.000000	96.441144
2872.000000	96.441089
2871.000000	96.440358
2870.000000	96.437897
2869.000000	96.435879
2868.000000	96.437594
2867.000000	96.443359
2866.000000	96.449118
2865.000000	96.449018
2864.000000	96.438461
2863.000000	96.415087
2862.000000	96.378662
2861.000000	96.331248
2860.000000	96.276389
2859.000000	96.216352
2858.000000	96.150104
2857.000000	96.075071
2856.000000	95.991238
2855.000000	95.902819
2854.000000	95.816352
2853.000000	95.738106
2852.000000	95.674615
2851.000000	95.635729
2850.000000	95.635210
2849.000000	95.685866
2848.000000	95.791075
2847.000000	95.939669
2846.000000	96.109231
2845.000000	96.276025
2844.000000	96.423893
2843.000000	96.547201
2842.000000	96.648068
2841.000000	96.731538
2840.000000	96.802394
2839.000000	96.863916
2838.000000	96.917915
2837.000000	96.964901
2836.000000	97.004052
2835.000000	97.034035
2834.000000	97.055144
2833.000000	97.070628
2832.000000	97.085039
2831.000000	97.100947
2830.000000	97.117832
2829.000000	97.134241
2828.000000	97.149769
2827.000000	97.164555
2826.000000	97.178336
2825.000000	97.191198
2824.000000	97.204302
2823.000000	97.218312
2822.000000	97.231621
2821.000000	97.241809
2820.000000	97.248939
2819.000000	97.255934
2818.000000	97.265164
2817.000000	97.275816
2816.000000	97.285280
2815.000000	97.292249
2814.000000	97.297627
2813.000000	97.302863
2812.000000	97.308354
2811.000000	97.313568
2810.000000	97.318160
2809.000000	97.322568
2808.000000	97.327456
2807.000000	97.332711
2806.000000	97.337307
2805.000000	97.340400
2804.000000	97.342431
2803.000000	97.344794
2802.000000	97.348464
2801.000000	97.353332
2800.000000	97.358845
2799.000000	97.364737
2798.000000	97.370858
2797.000000	97.376616
2796.000000	97.381097
2795.000000	97.383905
2794.000000	97.385917
2793.000000	97.389238
2792.000000	97.396140
2791.000000	97.407408
2790.000000	97.421194
2789.000000	97.433580
2788.000000	97.440952
2787.000000	97.442677
2786.000000	97.441902
2785.000000	97.443462
2784.000000	97.450270
2783.000000	97.461196
2782.000000	97.472345
2781.000000	97.480411
2780.000000	97.484824
2779.000000	97.487030
2778.000000	97.488557
2777.000000	97.490247
2776.000000	97.492858
2775.000000	97.497530
2774.000000	97.505186
2773.000000	97.515378
2772.000000	97.525775
2771.000000	97.533257
2770.000000	97.536411
2769.000000	97.537304
2768.000000	97.540105
2767.000000	97.547152
2766.000000	97.556504
2765.000000	97.563977
2764.000000	97.567496
2763.000000	97.568969
2762.000000	97.572101
2761.000000	97.579001
2760.000000	97.588898
2759.000000	97.599278
2758.000000	97.607751
2757.000000	97.613192
2756.000000	97.615797
2755.000000	97.616549
2754.000000	97.616854
2753.000000	97.618406
2752.000000	97.622489
2751.000000	97.628769
2750.000000	97.635199
2749.000000	97.639937
2748.000000	97.643437
2747.000000	97.647924
2746.000000	97.654596
2745.000000	97.661922
2744.000000	97.667243
2743.000000	97.669853
2742.000000	97.671990
2741.000000	97.676548
2740.000000	97.683858
2739.000000	97.691003
2738.000000	97.694538
2737.000000	97.693885
2736.000000	97.691829
2735.000000	97.691736
2734.000000	97.694729
2733.000000	97.699625
2732.000000	97.704886
2731.000000	97.709948
2730.000000	97.715061
2729.000000	97.720676
2728.000000	97.726949
2727.000000	97.733181
2726.000000	97.737735
2725.000000	97.739350
2724.000000	97.738950
2723.000000	97.739529
2722.000000	97.743477
2721.000000	97.750097
2720.000000	97.756155
2719.000000	97.758915
2718.000000	97.758354
2717.000000	97.756605
2716.000000	97.755841
2715.000000	97.756951
2714.000000	97.759692
2713.000000	97.763358
2712.000000	97.767275
2711.000000	97.771239
2710.000000	97.775730
2709.000000	97.781298
2708.000000	97.787524
2707.000000	97.793059
2706.000000	97.796979
2705.000000	97.799624
2704.000000	97.801769
2703.000000	97.803649
2702.000000	97.805397
2701.000000	97.807749
2700.000000	97.811258
2699.000000	97.815153
2698.000000	97.818021
2697.000000	97.819532
2696.000000	97.820603
2695.000000	97.822148
2694.000000	97.824654
2693.000000	97.828574
2692.000000	97.833638
2691.000000	97.837855
2690.000000	97.838978
2689.000000	97.837365
2688.000000	97.835796
2687.000000	97.835977
2686.000000	97.836897
2685.000000	97.837343
2684.000000	97.837997
2683.000000	97.839565
2682.000000	97.840640
2681.000000	97.839668
2680.000000	97.838113
2679.000000	97.839309
2678.000000	97.844179
2677.000000	97.849927
2676.000000	97.853336
2675.000000	97.854049
2674.000000	97.854299
2673.000000	97.856408
2672.000000	97.860781
2671.000000	97.865441
2670.000000	97.867363
2669.000000	97.865112
2668.000000	97.860481
2667.000000	97.856969
2666.000000	97.856474
2665.000000	97.857937
2664.000000	97.859065
2663.000000	97.858612
2662.000000	97.856983
2661.000000	97.855428
2660.000000	97.854891
2659.000000	97.855130
2658.000000	97.854860
2657.000000	97.853248
2656.000000	97.851398
2655.000000	97.851785
2654.000000	97.855968
2653.000000	97.863144
2652.000000	97.870985
2651.000000	97.877701
2650.000000	97.883323
2649.000000	97.889251
2648.000000	97.896544
2647.000000	97.904505
2646.000000	97.911049
2645.000000	97.914581
2644.000000	97.915340
2643.000000	97.915032
2642.000000	97.915787
2641.000000	97.919343
2640.000000	97.926084
2639.000000	97.934289
2638.000000	97.941285
2637.000000	97.946133
2636.000000	97.950388
2635.000000	97.955499
2634.000000	97.960479
2633.000000	97.963273
2632.000000	97.963675
2631.000000	97.963650
2630.000000	97.965215
2629.000000	97.969161
2628.000000	97.975306
2627.000000	97.982692
2626.000000	97.989727
2625.000000	97.995289
2624.000000	97.999734
2623.000000	98.004241
2622.000000	98.009514
2621.000000	98.015614
2620.000000	98.022201
2619.000000	98.028106
2618.000000	98.031629
2617.000000	98.032584
2616.000000	98.033425
2615.000000	98.037104
2614.000000	98.044270
2613.000000	98.053484
2612.000000	98.063380
2611.000000	98.073448
2610.000000	98.083378
2609.000000	98.092752
2608.000000	98.100748
2607.000000	98.105626
2606.000000	98.105945
2605.000000	98.103165
2604.000000	98.101213
2603.000000	98.102061
2602.000000	98.103655
2601.000000	98.103989
2600.000000	98.104587
2599.000000	98.107309
2598.000000	98.110035
2597.000000	98.109293
2596.000000	98.106022
2595.000000	98.104817
2594.000000	98.108031
2593.000000	98.114003
2592.000000	98.120596
2591.000000	98.126741
2590.000000	98.130643
2589.000000	98.130537
2588.000000	98.128231
2587.000000	98.128616
2586.000000	98.134365
2585.000000	98.143527
2584.000000	98.152876
2583.000000	98.160985
2582.000000	98.167231
2581.000000	98.170683
2580.000000	98.171587
2579.000000	98.172155
2578.000000	98.174567
2577.000000	98.179052
2576.000000	98.184097
2575.000000	98.187270
2574.000000	98.186423
2573.000000	98.182142
2572.000000	98.178741
2571.000000	98.180557
2570.000000	98.187293
2569.000000	98.194993
2568.000000	98.201198
2567.000000	98.206762
2566.000000	98.212956
2565.000000	98.219663
2564.000000	98.226496
2563.000000	98.232908
2562.000000	98.236743
2561.000000	98.235307
2560.000000	98.228474
2559.000000	98.218787
2558.000000	98.208666
2557.000000	98.199989
2556.000000	98.196006
2555.000000	98.200136
2554.000000	98.211657
2553.000000	98.224945
2552.000000	98.234116
2551.000000	98.237150
2550.000000	98.235787
2549.000000	98.233531
2548.000000	98.233552
2547.000000	98.235944
2546.000000	98.236855
2545.000000	98.232687
2544.000000	98.225012
2543.000000	98.218949
2542.000000	98.217203
2541.000000	98.218710
2540.000000	98.222724
2539.000000	98.230122
2538.000000	98.239835
2537.000000	98.247816
2536.000000	98.251552
2535.000000	98.252971
2534.000000	98.255143
2533.000000	98.258253
2532.000000	98.260280
2531.000000	98.259861
2530.000000	98.257306
2529.000000	98.254426
2528.000000	98.254200
2527.000000	98.258466
2526.000000	98.264692
2525.000000	98.266877
2524.000000	98.261286
2523.000000	98.250532
2522.000000	98.241243
2521.000000	98.238509
2520.000000	98.242907
2519.000000	98.251594
2518.000000	98.261253
2517.000000	98.270311
2516.000000	98.278549
2515.000000	98.284845
2514.000000	98.286723
2513.000000	98.283264
2512.000000	98.277163
2511.000000	98.272094
2510.000000	98.269171
2509.000000	98.267687
2508.000000	98.267773
2507.000000	98.269637
2506.000000	98.271433
2505.000000	98.271524
2504.000000	98.272729
2503.000000	98.280569
2502.000000	98.295909
2501.000000	98.311827
2500.000000	98.319422
2499.000000	98.315751
2498.000000	98.305693
2497.000000	98.297179
2496.000000	98.294815
2495.000000	98.297119
2494.000000	98.299322
2493.000000	98.298997
2492.000000	98.298141
2491.000000	98.299820
2490.000000	98.304884
2489.000000	98.312752
2488.000000	98.322665
2487.000000	98.332158
2486.000000	98.337303
2485.000000	98.337669
2484.000000	98.338803
2483.000000	98.345709
2482.000000	98.355230
2481.000000	98.359123
2480.000000	98.354337
2479.000000	98.346535
2478.000000	98.343243
2477.000000	98.346767
2476.000000	98.354107
2475.000000	98.360896
2474.000000	98.364575
2473.000000	98.365401
2472.000000	98.364807
2471.000000	98.362363
2470.000000	98.356145
2469.000000	98.347508
2468.000000	98.342435
2467.000000	98.344903
2466.000000	98.351005
2465.000000	98.353309
2464.000000	98.349540
2463.000000	98.343065
2462.000000	98.336577
2461.000000	98.330207
2460.000000	98.325100
2459.000000	98.323847
2458.000000	98.326664
2457.000000	98.330851
2456.000000	98.334485
2455.000000	98.337430
2454.000000	98.338737
2453.000000	98.336892
2452.000000	98.333285
2451.000000	98.332231
2450.000000	98.336439
2449.000000	98.344467
2448.000000	98.352624
2447.000000	98.357366
2446.000000	98.356743
2445.000000	98.352147
2444.000000	98.348047
2443.000000	98.347561
2442.000000	98.349171
2441.000000	98.350035
2440.000000	98.350627
2439.000000	98.352907
2438.000000	98.356054
2437.000000	98.358149
2436.000000	98.360673
2435.000000	98.366870
2434.000000	98.376350
2433.000000	98.385350
2432.000000	98.391676
2431.000000	98.395614
2430.000000	98.396698
2429.000000	98.393671
2428.000000	98.387413
2427.000000	98.380555
2426.000000	98.374739
2425.000000	98.370984
2424.000000	98.371097
2423.000000	98.375346
2422.000000	98.380665
2421.000000	98.384763
2420.000000	98.389549
2419.000000	98.396221
2418.000000	98.399911
2417.000000	98.395233
2416.000000	98.385444
2415.000000	98.379818
2414.000000	98.382452
2413.000000	98.389231
2412.000000	98.395256
2411.000000	98.399472
2410.000000	98.401912
2409.000000	98.402289
2408.000000	98.402296
2407.000000	98.404587
2406.000000	98.408698
2405.000000	98.411816
2404.000000	98.413265
2403.000000	98.414133
2402.000000	98.413486
2401.000000	98.410077
2400.000000	98.407119
2399.000000	98.409707
2398.000000	98.417333
2397.000000	98.424127
2396.000000	98.426594
2395.000000	98.425872
2394.000000	98.422245
2393.000000	98.413681
2392.000000	98.401327
2391.000000	98.391153
2390.000000	98.387637
2389.000000	98.389415
2388.000000	98.392739
2387.000000	98.395138
2386.000000	98.395408
2385.000000	98.393654
2384.000000	98.393079
2383.000000	98.398891
2382.000000	98.412920
2381.000000	98.432446
2380.000000	98.453217
2379.000000	98.470325
2378.000000	98.477152
2377.000000	98.468287
2376.000000	98.445979
2375.000000	98.420326
2374.000000	98.402756
2373.000000	98.400638
2372.000000	98.415650
2371.000000	98.441029
2370.000000	98.462679
2369.000000	98.469937
2368.000000	98.463541
2367.000000	98.451760
2366.000000	98.440930
2365.000000	98.432204
2364.000000	98.423489
2363.000000	98.410806
2362.000000	98.392310
2361.000000	98.371719
2360.000000	98.357543
2359.000000	98.352519
2358.000000	98.353074
2357.000000	98.359136
2356.000000	98.367076
2355.000000	98.372344
2354.000000	98.381456
2353.000000	98.403065
2352.000000	98.419872
2351.000000	98.401672
2350.000000	98.351559
2349.000000	98.302458
2348.000000	98.287275
2347.000000	98.313635
2346.000000	98.351844
2345.000000	98.356815
2344.000000	98.319325
2343.000000	98.277926
2342.000000	98.265715
2341.000000	98.282859
2340.000000	98.307466
2339.000000	98.320112
2338.000000	98.319852
2337.000000	98.316829
2336.000000	98.318616
2335.000000	98.327848
2334.000000	98.347559
2333.000000	98.378665
2332.000000	98.410473
2331.000000	98.423892
2330.000000	98.409382
2329.000000	98.369380
2328.000000	98.316670
2327.000000	98.265189
2326.000000	98.226989
2325.000000	98.209845
2324.000000	98.212997
2323.000000	98.231354
2322.000000	98.253045
2321.000000	98.265355
2320.000000	98.262506
2319.000000	98.249072
2318.000000	98.234298
2317.000000	98.223819
2316.000000	98.222382
2315.000000	98.233582
2314.000000	98.255301
2313.000000	98.276697
2312.000000	98.287797
2311.000000	98.289282
2310.000000	98.289826
2309.000000	98.294690
2308.000000	98.302185
2307.000000	98.308751
2306.000000	98.312495
2305.000000	98.314383
2304.000000	98.316858
2303.000000	98.322073
2302.000000	98.328366
2301.000000	98.331674
2300.000000	98.331942
2299.000000	98.333072
2298.000000	98.336276
2297.000000	98.337364
2296.000000	98.334328
2295.000000	98.331224
2294.000000	98.331619
2293.000000	98.331798
2292.000000	98.325357
2291.000000	98.312118
2290.000000	98.298135
2289.000000	98.289820
2288.000000	98.290334
2287.000000	98.299996
2286.000000	98.316101
2285.000000	98.334589
2284.000000	98.353019
2283.000000	98.369656
2282.000000	98.379454
2281.000000	98.377747
2280.000000	98.369797
2279.000000	98.369293
2278.000000	98.382648
2277.000000	98.400800
2276.000000	98.410987
2275.000000	98.410644
2274.000000	98.406119
2273.000000	98.403175
2272.000000	98.404505
2271.000000	98.411325
2270.000000	98.422061
2269.000000	98.432876
2268.000000	98.442472
2267.000000	98.452487
2266.000000	98.461150
2265.000000	98.462556
2264.000000	98.455751
2263.000000	98.448205
2262.000000	98.447316
2261.000000	98.454087
2260.000000	98.466168
2259.000000	98.480739
2258.000000	98.492189
2257.000000	98.495828
2256.000000	98.495668
2255.000000	98.499076
2254.000000	98.501852
2253.000000	98.490790
2252.000000	98.466497
2251.000000	98.450468
2250.000000	98.461631
2249.000000	98.494537
2248.000000	98.527525
2247.000000	98.544562
2246.000000	98.542652
2245.000000	98.526868
2244.000000	98.507246
2243.000000	98.494852
2242.000000	98.493109
2241.000000	98.495887
2240.000000	98.496890
2239.000000	98.496151
2238.000000	98.496097
2237.000000	98.498926
2236.000000	98.508660
2235.000000	98.526409
2234.000000	98.542750
2233.000000	98.545689
2232.000000	98.537030
2231.000000	98.528186
2230.000000	98.519201
2229.000000	98.499132
2228.000000	98.471484
2227.000000	98.460467
2226.000000	98.482056
2225.000000	98.522438
2224.000000	98.554475
2223.000000	98.563334
2222.000000	98.548413
2221.000000	98.515443
2220.000000	98.478453
2219.000000	98.457019
2218.000000	98.459120
2217.000000	98.473348
2216.000000	98.484119
2215.000000	98.485582
2214.000000	98.476529
2213.000000	98.456138
2212.000000	98.433020
2211.000000	98.424789
2210.000000	98.439168
2209.000000	98.465603
2208.000000	98.491109
2207.000000	98.512489
2206.000000	98.528379
2205.000000	98.535282
2204.000000	98.538214
2203.000000	98.547540
2202.000000	98.556233
2201.000000	98.539622
2200.000000	98.491912
2199.000000	98.445764
2198.000000	98.438861
2197.000000	98.471969
2196.000000	98.512814
2195.000000	98.530983
2194.000000	98.516288
2193.000000	98.475251
2192.000000	98.427190
2191.000000	98.397542
2190.000000	98.401143
2189.000000	98.432183
2188.000000	98.474224
2187.000000	98.514875
2186.000000	98.548337
2185.000000	98.574258
2184.000000	98.599801
2183.000000	98.632910
2182.000000	98.669739
2181.000000	98.699343
2180.000000	98.720574
2179.000000	98.739215
2178.000000	98.749880
2177.000000	98.740058
2176.000000	98.712269
2175.000000	98.683582
2174.000000	98.664738
2173.000000	98.659727
2172.000000	98.679166
2171.000000	98.724750
2170.000000	98.762960
2169.000000	98.746727
2168.000000	98.672997
2167.000000	98.591004
2166.000000	98.544413
2165.000000	98.532167
2164.000000	98.532653
2163.000000	98.537985
2162.000000	98.552417
2161.000000	98.586221
2160.000000	98.662679
2159.000000	98.793757
2158.000000	98.934720
2157.000000	99.015200
2156.000000	99.024733
2155.000000	99.009098
2154.000000	98.991357
2153.000000	98.954487
2152.000000	98.894115
2151.000000	98.838154
2150.000000	98.807016
2149.000000	98.791630
2148.000000	98.782173
2147.000000	98.785623
2146.000000	98.801622
2145.000000	98.810150
2144.000000	98.799384
2143.000000	98.782075
2142.000000	98.770571
2141.000000	98.756897
2140.000000	98.730252
2139.000000	98.697714
2138.000000	98.676555
2137.000000	98.678045
2136.000000	98.703038
2135.000000	98.739843
2134.000000	98.764630
2133.000000	98.760215
2132.000000	98.737351
2131.000000	98.722341
2130.000000	98.723402
2129.000000	98.724704
2128.000000	98.712418
2127.000000	98.689820
2126.000000	98.664628
2125.000000	98.638217
2124.000000	98.613190
2123.000000	98.597202
2122.000000	98.592247
2121.000000	98.590169
2120.000000	98.583907
2119.000000	98.573874
2118.000000	98.559812
2117.000000	98.537483
2116.000000	98.508658
2115.000000	98.485287
2114.000000	98.478438
2113.000000	98.489348
2112.000000	98.512659
2111.000000	98.540107
2110.000000	98.560126
2109.000000	98.564611
2108.000000	98.558844
2107.000000	98.554662
2106.000000	98.552610
2105.000000	98.542534
2104.000000	98.522559
2103.000000	98.503561
2102.000000	98.492276
2101.000000	98.484200
2100.000000	98.477341
2099.000000	98.479494
2098.000000	98.495772
2097.000000	98.519849
2096.000000	98.542946
2095.000000	98.561482
2094.000000	98.572689
2093.000000	98.573911
2092.000000	98.569322
2091.000000	98.566734
2090.000000	98.566385
2089.000000	98.563439
2088.000000	98.561081
2087.000000	98.567723
2086.000000	98.580418
2085.000000	98.585355
2084.000000	98.577235
2083.000000	98.565017
2082.000000	98.556089
2081.000000	98.548757
2080.000000	98.542371
2079.000000	98.540332
2078.000000	98.540320
2077.000000	98.536586
2076.000000	98.535327
2075.000000	98.551841
2074.000000	98.588815
2073.000000	98.631335
2072.000000	98.665346
2071.000000	98.685794
2070.000000	98.686221
2069.000000	98.661879
2068.000000	98.627040
2067.000000	98.607639
2066.000000	98.611346
2065.000000	98.622315
2064.000000	98.628481
2063.000000	98.633574
2062.000000	98.639103
2061.000000	98.639414
2060.000000	98.639180
2059.000000	98.651203
2058.000000	98.671399
2057.000000	98.680264
2056.000000	98.674348
2055.000000	98.670215
2054.000000	98.670667
2053.000000	98.656719
2052.000000	98.624732
2051.000000	98.602576
2050.000000	98.613739
2049.000000	98.646857
2048.000000	98.677824
2047.000000	98.703469
2046.000000	98.732860
2045.000000	98.767921
2044.000000	98.812328
2043.000000	98.873005
2042.000000	98.935123
2041.000000	98.964008
2040.000000	98.951342
2039.000000	98.928233
2038.000000	98.916333
2037.000000	98.902456
2036.000000	98.877716
2035.000000	98.864360
2034.000000	98.878781
2033.000000	98.901457
2032.000000	98.910811
2031.000000	98.915832
2030.000000	98.933139
2029.000000	98.962238
2028.000000	98.999131
2027.000000	99.042165
2026.000000	99.072945
2025.000000	99.065440
2024.000000	99.024343
2023.000000	98.979575
2022.000000	98.938665
2021.000000	98.886337
2020.000000	98.831569
2019.000000	98.808682
2018.000000	98.826153
2017.000000	98.856401
2016.000000	98.883488
2015.000000	98.914845
2014.000000	98.940446
2013.000000	98.934447
2012.000000	98.905656
2011.000000	98.895081
2010.000000	98.912918
2009.000000	98.926155
2008.000000	98.919979
2007.000000	98.918994
2006.000000	98.931468
2005.000000	98.929206
2004.000000	98.902120
2003.000000	98.880703
2002.000000	98.886557
2001.000000	98.905059
2000.000000	98.918012
1999.000000	98.926062
1998.000000	98.928638
1997.000000	98.915921
1996.000000	98.893601
1995.000000	98.883552
1994.000000	98.891723
1993.000000	98.902889
1992.000000	98.912544
1991.000000	98.931196
1990.000000	98.949530
1989.000000	98.940598
1988.000000	98.904415
1987.000000	98.869744
1986.000000	98.847055
1985.000000	98.820790
1984.000000	98.791969
1983.000000	98.782309
1982.000000	98.786230
1981.000000	98.768797
1980.000000	98.726885
1979.000000	98.704591
1978.000000	98.726141
1977.000000	98.761404
1976.000000	98.789860
1975.000000	98.838263
1974.000000	98.916708
1973.000000	98.980706
1972.000000	98.992645
1971.000000	98.968490
1970.000000	98.937124
1969.000000	98.901792
1968.000000	98.865507
1967.000000	98.850577
1966.000000	98.866498
1965.000000	98.896327
1964.000000	98.933345
1963.000000	98.989850
1962.000000	99.056270
1961.000000	99.091696
1960.000000	99.074913
1959.000000	99.032722
1958.000000	99.001149
1957.000000	98.990207
1956.000000	98.993278
1955.000000	98.997590
1954.000000	98.982106
1953.000000	98.935790
1952.000000	98.883577
1951.000000	98.865188
1950.000000	98.884315
1949.000000	98.908763
1948.000000	98.920083
1947.000000	98.929885
1946.000000	98.945771
1945.000000	98.956855
1944.000000	98.958685
1943.000000	98.958374
1942.000000	98.947469
1941.000000	98.909499
1940.000000	98.859442
1939.000000	98.835376
1938.000000	98.850475
1937.000000	98.879242
1936.000000	98.894884
1935.000000	98.898308
1934.000000	98.899938
1933.000000	98.897571
1932.000000	98.887040
1931.000000	98.873055
1930.000000	98.857240
1929.000000	98.839456
1928.000000	98.831500
1927.000000	98.848406
1926.000000	98.881382
1925.000000	98.900422
1924.000000	98.892487
1923.000000	98.873872
1922.000000	98.859929
1921.000000	98.847391
1920.000000	98.833778
1919.000000	98.829174
1918.000000	98.834900
1917.000000	98.834415
1916.000000	98.822068
1915.000000	98.811404
1914.000000	98.810603
1913.000000	98.813983
1912.000000	98.818182
1911.000000	98.828328
1910.000000	98.841174
1909.000000	98.844508
1908.000000	98.838736
1907.000000	98.838658
1906.000000	98.846534
1905.000000	98.846523
1904.000000	98.835142
1903.000000	98.829006
1902.000000	98.836375
1901.000000	98.844910
1900.000000	98.844047
1899.000000	98.841207
1898.000000	98.845848
1897.000000	98.853652
1896.000000	98.858436
1895.000000	98.862551
1894.000000	98.867622
1893.000000	98.870931
1892.000000	98.875375
1891.000000	98.887586
1890.000000	98.900253
1889.000000	98.895060
1888.000000	98.873824
1887.000000	98.857979
1886.000000	98.854970
1885.000000	98.852731
1884.000000	98.845454
1883.000000	98.844165
1882.000000	98.856019
1881.000000	98.872428
1880.000000	98.883028
1879.000000	98.886100
1878.000000	98.880946
1877.000000	98.863941
1876.000000	98.841902
1875.000000	98.833789
1874.000000	98.848232
1873.000000	98.873567
1872.000000	98.895935
1871.000000	98.913135
1870.000000	98.925300
1869.000000	98.925579
1868.000000	98.915549
1867.000000	98.909391
1866.000000	98.908211
1865.000000	98.900885
1864.000000	98.888802
1863.000000	98.885311
1862.000000	98.892827
1861.000000	98.896949
1860.000000	98.888289
1859.000000	98.873614
1858.000000	98.860083
1857.000000	98.846567
1856.000000	98.835568
1855.000000	98.837065
1854.000000	98.851729
1853.000000	98.867835
1852.000000	98.876342
1851.000000	98.879272
1850.000000	98.885276
1849.000000	98.899862
1848.000000	98.923819
1847.000000	98.950253
1846.000000	98.964044
1845.000000	98.952874
1844.000000	98.925519
1843.000000	98.905880
1842.000000	98.899136
1841.000000	98.892879
1840.000000	98.885368
1839.000000	98.886566
1838.000000	98.895414
1837.000000	98.897662
1836.000000	98.892200
1835.000000	98.893759
1834.000000	98.906708
1833.000000	98.920500
1832.000000	98.928668
1831.000000	98.938822
1830.000000	98.954158
1829.000000	98.959455
1828.000000	98.948710
1827.000000	98.935134
1826.000000	98.930852
1825.000000	98.934870
1824.000000	98.940143
1823.000000	98.944445
1822.000000	98.943526
1821.000000	98.931663
1820.000000	98.914863
1819.000000	98.910102
1818.000000	98.922631
1817.000000	98.936512
1816.000000	98.940052
1815.000000	98.938538
1814.000000	98.939417
1813.000000	98.941238
1812.000000	98.942246
1811.000000	98.947498
1810.000000	98.952872
1809.000000	98.944459
1808.000000	98.923716
1807.000000	98.908729
1806.000000	98.907702
1805.000000	98.909357
1804.000000	98.905673
1803.000000	98.903571
1802.000000	98.910967
1801.000000	98.921131
1800.000000	98.923909
1799.000000	98.924767
1798.000000	98.930891
1797.000000	98.939309
1796.000000	98.946845
1795.000000	98.953989
1794.000000	98.959224
1793.000000	98.954921
1792.000000	98.937250
1791.000000	98.919324
1790.000000	98.911587
1789.000000	98.908159
1788.000000	98.904732
1787.000000	98.906529
1786.000000	98.916187
1785.000000	98.926971
1784.000000	98.936264
1783.000000	98.945943
1782.000000	98.953633
1781.000000	98.953783
1780.000000	98.946831
1779.000000	98.947004
1778.000000	98.963880
1777.000000	98.993907
1776.000000	99.027359
1775.000000	99.052880
1774.000000	99.063445
1773.000000	99.057115
1772.000000	99.036963
1771.000000	99.015432
1770.000000	98.997259
1769.000000	98.973517
1768.000000	98.949161
1767.000000	98.940147
1766.000000	98.946514
1765.000000	98.950700
1764.000000	98.942771
1763.000000	98.930918
1762.000000	98.923901
1761.000000	98.916922
1760.000000	98.906409
1759.000000	98.896816
1758.000000	98.886191
1757.000000	98.871110
1756.000000	98.853477
1755.000000	98.839376
1754.000000	98.826266
1753.000000	98.807887
1752.000000	98.791618
1751.000000	98.792605
1750.000000	98.803305
1749.000000	98.793704
1748.000000	98.757637
1747.000000	98.717502
1746.000000	98.691025
1745.000000	98.675731
1744.000000	98.666757
1743.000000	98.668149
1742.000000	98.675206
1741.000000	98.671895
1740.000000	98.662636
1739.000000	98.674814
1738.000000	98.707831
1737.000000	98.729560
1736.000000	98.726395
1735.000000	98.739296
1734.000000	98.805198
1733.000000	98.879854
1732.000000	98.919201
1731.000000	98.934443
1730.000000	98.940765
1729.000000	98.942647
1728.000000	98.944223
1727.000000	98.954391
1726.000000	98.976907
1725.000000	98.999507
1724.000000	99.009405
1723.000000	99.015587
1722.000000	99.027425
1721.000000	99.035598
1720.000000	99.029804
1719.000000	99.026950
1718.000000	99.047031
1717.000000	99.056749
1716.000000	99.024139
1715.000000	98.972443
1714.000000	98.919204
1713.000000	98.857926
1712.000000	98.790236
1711.000000	98.730219
1710.000000	98.685492
1709.000000	98.647941
1708.000000	98.602693
1707.000000	98.544006
1706.000000	98.475326
1705.000000	98.399340
1704.000000	98.327305
1703.000000	98.257376
1702.000000	98.166367
1701.000000	98.023816
1700.000000	97.850639
1699.000000	97.723988
1698.000000	97.632085
1697.000000	97.483615
1696.000000	97.264784
1695.000000	97.068784
1694.000000	96.952266
1693.000000	96.865880
1692.000000	96.762504
1691.000000	96.646597
1690.000000	96.536442
1689.000000	96.437820
1688.000000	96.351267
1687.000000	96.273554
1686.000000	96.188195
1685.000000	96.035612
1684.000000	95.785833
1683.000000	95.548315
1682.000000	95.386041
1681.000000	95.231049
1680.000000	95.051385
1679.000000	94.873648
1678.000000	94.710412
1677.000000	94.527468
1676.000000	94.284350
1675.000000	94.009550
1674.000000	93.780405
1673.000000	93.608375
1672.000000	93.436495
1671.000000	93.220605
1670.000000	92.939905
1669.000000	92.614662
1668.000000	92.312027
1667.000000	92.079153
1666.000000	91.899799
1665.000000	91.721629
1664.000000	91.502226
1663.000000	91.243691
1662.000000	90.987937
1661.000000	90.766004
1660.000000	90.571830
1659.000000	90.406267
1658.000000	90.278880
1657.000000	90.190025
1656.000000	90.111427
1655.000000	90.018777
1654.000000	89.862313
1653.000000	89.596322
1652.000000	89.372750
1651.000000	89.309961
1650.000000	89.318695
1649.000000	89.311595
1648.000000	89.246730
1647.000000	89.115635
1646.000000	88.965009
1645.000000	88.842070
1644.000000	88.751895
1643.000000	88.680874
1642.000000	88.620633
1641.000000	88.566573
1640.000000	88.521161
1639.000000	88.491730
1638.000000	88.467758
1637.000000	88.402974
1636.000000	88.244134
1635.000000	88.042893
1634.000000	87.908927
1633.000000	87.841536
1632.000000	87.794920
1631.000000	87.759869
1630.000000	87.741391
1629.000000	87.736384
1628.000000	87.739511
1627.000000	87.761488
1626.000000	87.814450
1625.000000	87.895298
1624.000000	87.997752
1623.000000	88.126797
1622.000000	88.283271
1621.000000	88.454239
1620.000000	88.626581
1619.000000	88.803834
1618.000000	89.008640
1617.000000	89.255457
1616.000000	89.514867
1615.000000	89.749712
1614.000000	89.961615
1613.000000	90.170253
1612.000000	90.392906
1611.000000	90.632087
1610.000000	90.875044
1609.000000	91.112250
1608.000000	91.344241
1607.000000	91.568392
1606.000000	91.777407
1605.000000	91.974069
1604.000000	92.165948
1603.000000	92.352937
1602.000000	92.527427
1601.000000	92.686251
1600.000000	92.832983
1599.000000	92.968677
1598.000000	93.092016
1597.000000	93.205221
1596.000000	93.311033
1595.000000	93.404273
1594.000000	93.477961
1593.000000	93.536736
1592.000000	93.590070
1591.000000	93.635967
1590.000000	93.664769
1589.000000	93.677168
1588.000000	93.681734
1587.000000	93.678625
1586.000000	93.659679
1585.000000	93.626365
1584.000000	93.585303
1583.000000	93.529796
1582.000000	93.454411
1581.000000	93.375362
1580.000000	93.313299
1579.000000	93.260734
1578.000000	93.188149
1577.000000	93.067902
1576.000000	92.909180
1575.000000	92.763605
1574.000000	92.661258
1573.000000	92.584719
1572.000000	92.505673
1571.000000	92.397425
1570.000000	92.232821
1569.000000	92.033330
1568.000000	91.857285
1567.000000	91.713236
1566.000000	91.564583
1565.000000	91.399338
1564.000000	91.240802
1563.000000	91.118647
1562.000000	91.030525
1561.000000	90.953562
1560.000000	90.824808
1559.000000	90.526215
1558.000000	90.177349
1557.000000	89.978943
1556.000000	89.854585
1555.000000	89.710045
1554.000000	89.552832
1553.000000	89.415060
1552.000000	89.310747
1551.000000	89.216485
1550.000000	89.118993
1549.000000	89.024389
1548.000000	88.953074
1547.000000	88.909054
1546.000000	88.885483
1545.000000	88.874937
1544.000000	88.871363
1543.000000	88.873978
1542.000000	88.879323
1541.000000	88.861960
1540.000000	88.805754
1539.000000	88.762323
1538.000000	88.783751
1537.000000	88.848692
1536.000000	88.926697
1535.000000	89.017587
1534.000000	89.130304
1533.000000	89.245557
1532.000000	89.338822
1531.000000	89.427051
1530.000000	89.530249
1529.000000	89.647535
1528.000000	89.772215
1527.000000	89.905269
1526.000000	90.048255
1525.000000	90.187894
1524.000000	90.309948
1523.000000	90.425096
1522.000000	90.556324
1521.000000	90.690146
1520.000000	90.801033
1519.000000	90.900514
1518.000000	91.005004
1517.000000	91.109458
1516.000000	91.203875
1515.000000	91.297139
1514.000000	91.406785
1513.000000	91.535364
1512.000000	91.680380
1511.000000	91.839922
1510.000000	92.011776
1509.000000	92.192396
1508.000000	92.390301
1507.000000	92.595849
1506.000000	92.748411
1505.000000	92.842248
1504.000000	92.924282
1503.000000	93.018437
1502.000000	93.136347
1501.000000	93.275171
1500.000000	93.420538
1499.000000	93.563443
1498.000000	93.707869
1497.000000	93.843588
1496.000000	93.955233
1495.000000	94.058002
1494.000000	94.169139
1493.000000	94.282307
1492.000000	94.393756
1491.000000	94.519687
1490.000000	94.659214
1489.000000	94.764660
1488.000000	94.809593
1487.000000	94.828094
1486.000000	94.846670
1485.000000	94.862515
1484.000000	94.870274
1483.000000	94.873582
1482.000000	94.875721
1481.000000	94.865346
1480.000000	94.837028
1479.000000	94.802245
1478.000000	94.769987
1477.000000	94.730722
1476.000000	94.675960
1475.000000	94.610317
1474.000000	94.526585
1473.000000	94.390313
1472.000000	94.203637
1471.000000	94.035970
1470.000000	93.918428
1469.000000	93.822299
1468.000000	93.727028
1467.000000	93.631696
1466.000000	93.529417
1465.000000	93.405213
1464.000000	93.271305
1463.000000	93.170452
1462.000000	93.116478
1461.000000	93.087154
1460.000000	93.056913
1459.000000	93.006611
1458.000000	92.902435
1457.000000	92.708275
1456.000000	92.498111
1455.000000	92.372650
1454.000000	92.314101
1453.000000	92.273718
1452.000000	92.242898
1451.000000	92.233058
1450.000000	92.245097
1449.000000	92.261264
1448.000000	92.274713
1447.000000	92.296193
1446.000000	92.334612
1445.000000	92.387431
1444.000000	92.447110
1443.000000	92.514752
1442.000000	92.593149
1441.000000	92.677755
1440.000000	92.760112
1439.000000	92.840225
1438.000000	92.930870
1437.000000	93.040390
1436.000000	93.154950
1435.000000	93.258337
1434.000000	93.350563
1433.000000	93.432415
1432.000000	93.505514
1431.000000	93.574510
1430.000000	93.640510
1429.000000	93.695129
1428.000000	93.733941
1427.000000	93.763331
1426.000000	93.789660
1425.000000	93.815218
1424.000000	93.836184
1423.000000	93.854012
1422.000000	93.873954
1421.000000	93.893710
1420.000000	93.906269
1419.000000	93.909028
1418.000000	93.908765
1417.000000	93.909159
1416.000000	93.905310
1415.000000	93.896791
1414.000000	93.887440
1413.000000	93.873108
1412.000000	93.844979
1411.000000	93.803741
1410.000000	93.758668
1409.000000	93.711489
1408.000000	93.660393
1407.000000	93.609566
1406.000000	93.561260
1405.000000	93.510526
1404.000000	93.456975
1403.000000	93.415871
1402.000000	93.396009
1401.000000	93.386781
1400.000000	93.377490
1399.000000	93.373099
1398.000000	93.382364
1397.000000	93.396838
1396.000000	93.401246
1395.000000	93.393340
1394.000000	93.384594
1393.000000	93.384802
1392.000000	93.393387
1391.000000	93.407815
1390.000000	93.424991
1389.000000	93.438374
1388.000000	93.444422
1387.000000	93.449041
1386.000000	93.457911
1385.000000	93.467879
1384.000000	93.476149
1383.000000	93.489675
1382.000000	93.513724
1381.000000	93.540467
1380.000000	93.562272
1379.000000	93.584483
1378.000000	93.616072
1377.000000	93.657182
1376.000000	93.705521
1375.000000	93.763199
1374.000000	93.828264
1373.000000	93.891754
1372.000000	93.953021
1371.000000	94.021629
1370.000000	94.102159
1369.000000	94.190834
1368.000000	94.282666
1367.000000	94.378903
1366.000000	94.480724
1365.000000	94.583518
1364.000000	94.683155
1363.000000	94.777623
1362.000000	94.859850
1361.000000	94.922051
1360.000000	94.967578
1359.000000	95.005971
1358.000000	95.039728
1357.000000	95.063064
1356.000000	95.071978
1355.000000	95.068908
1354.000000	95.054736
1353.000000	95.024159
1352.000000	94.976994
1351.000000	94.922314
1350.000000	94.865936
1349.000000	94.805243
1348.000000	94.736245
1347.000000	94.661107
1346.000000	94.581691
1345.000000	94.496287
1344.000000	94.407884
1343.000000	94.326750
1342.000000	94.258267
1341.000000	94.196017
1340.000000	94.132061
1339.000000	94.069363
1338.000000	94.017836
1337.000000	93.983531
1336.000000	93.971291
1335.000000	93.987172
1334.000000	94.028581
1333.000000	94.082467
1332.000000	94.139631
1331.000000	94.202340
1330.000000	94.273193
1329.000000	94.345994
1328.000000	94.413718
1327.000000	94.474898
1326.000000	94.526512
1325.000000	94.561908
1324.000000	94.581059
1323.000000	94.595105
1322.000000	94.613149
1321.000000	94.632302
1320.000000	94.646319
1319.000000	94.656122
1318.000000	94.664705
1317.000000	94.670884
1316.000000	94.676777
1315.000000	94.692113
1314.000000	94.722891
1313.000000	94.763365
1312.000000	94.806916
1311.000000	94.855729
1310.000000	94.911414
1309.000000	94.965278
1308.000000	95.007865
1307.000000	95.040638
1306.000000	95.070257
1305.000000	95.098930
1304.000000	95.127200
1303.000000	95.159075
1302.000000	95.194973
1301.000000	95.226825
1300.000000	95.248138
1299.000000	95.262926
1298.000000	95.276946
1297.000000	95.287519
1296.000000	95.289716
1295.000000	95.284572
1294.000000	95.273410
1293.000000	95.250883
1292.000000	95.212234
1291.000000	95.161249
1290.000000	95.103220
1289.000000	95.037898
1288.000000	94.966994
1287.000000	94.900063
1286.000000	94.843909
1285.000000	94.793999
1284.000000	94.744962
1283.000000	94.700904
1282.000000	94.667210
1281.000000	94.641172
1280.000000	94.619935
1279.000000	94.608364
1278.000000	94.610197
1277.000000	94.619959
1276.000000	94.631887
1275.000000	94.648122
1274.000000	94.669786
1273.000000	94.689034
1272.000000	94.698488
1271.000000	94.700282
1270.000000	94.697675
1269.000000	94.687043
1268.000000	94.666513
1267.000000	94.642732
1266.000000	94.620452
1265.000000	94.594193
1264.000000	94.559145
1263.000000	94.520801
1262.000000	94.484384
1261.000000	94.444996
1260.000000	94.397510
1259.000000	94.345789
1258.000000	94.293032
1257.000000	94.233847
1256.000000	94.165874
1255.000000	94.097097
1254.000000	94.032044
1253.000000	93.962121
1252.000000	93.879456
1251.000000	93.789592
1250.000000	93.700169
1249.000000	93.608227
1248.000000	93.509456
1247.000000	93.409135
1246.000000	93.312997
1245.000000	93.217273
1244.000000	93.118678
1243.000000	93.024127
1242.000000	92.940134
1241.000000	92.863126
1240.000000	92.790889
1239.000000	92.732541
1238.000000	92.695567
1237.000000	92.674402
1236.000000	92.662149
1235.000000	92.663223
1234.000000	92.684837
1233.000000	92.725476
1232.000000	92.782727
1231.000000	92.860969
1230.000000	92.961910
1229.000000	93.078700
1228.000000	93.206901
1227.000000	93.351212
1226.000000	93.512280
1225.000000	93.678058
1224.000000	93.837527
1223.000000	93.992224
1222.000000	94.146461
1221.000000	94.296439
1220.000000	94.436534
1219.000000	94.565259
1218.000000	94.678141
1217.000000	94.765081
1216.000000	94.823238
1215.000000	94.862958
1214.000000	94.891773
1213.000000	94.903991
1212.000000	94.893509
1211.000000	94.866017
1210.000000	94.829488
1209.000000	94.782341
1208.000000	94.722773
1207.000000	94.659774
1206.000000	94.604407
1205.000000	94.558867
1204.000000	94.523431
1203.000000	94.504576
1202.000000	94.507227
1201.000000	94.528901
1200.000000	94.568642
1199.000000	94.631585
1198.000000	94.716097
1197.000000	94.808582
1196.000000	94.900331
1195.000000	94.996961
1194.000000	95.102972
1193.000000	95.208784
1192.000000	95.303123
1191.000000	95.387720
1190.000000	95.469909
1189.000000	95.550354
1188.000000	95.627057
1187.000000	95.701574
1186.000000	95.772036
1185.000000	95.830257
1184.000000	95.873984
1183.000000	95.912536
1182.000000	95.952613
1181.000000	95.988529
1180.000000	96.015302
1179.000000	96.039390
1178.000000	96.066463
1177.000000	96.090496
1176.000000	96.105283
1175.000000	96.116048
1174.000000	96.129649
1173.000000	96.143513
1172.000000	96.153500
1171.000000	96.162197
1170.000000	96.170709
1169.000000	96.172861
1168.000000	96.166373
1167.000000	96.158865
1166.000000	96.154156
1165.000000	96.144761
1164.000000	96.127304
1163.000000	96.112985
1162.000000	96.112510
1161.000000	96.122769
1160.000000	96.137953
1159.000000	96.161238
1158.000000	96.195862
1157.000000	96.237076
1156.000000	96.283193
1155.000000	96.341292
1154.000000	96.412476
1153.000000	96.485403
1152.000000	96.553332
1151.000000	96.623175
1150.000000	96.697798
1149.000000	96.765850
1148.000000	96.821239
1147.000000	96.876571
1146.000000	96.943687
1145.000000	97.015105
1144.000000	97.077802
1143.000000	97.130893
1142.000000	97.177341
1141.000000	97.212746
1140.000000	97.236777
1139.000000	97.262453
1138.000000	97.299257
1137.000000	97.338793
1136.000000	97.369451
1135.000000	97.392784
1134.000000	97.413371
1133.000000	97.426471
1132.000000	97.429906
1131.000000	97.434877
1130.000000	97.450188
1129.000000	97.467838
1128.000000	97.477447
1127.000000	97.482720
1126.000000	97.490442
1125.000000	97.496672
1124.000000	97.498100
1123.000000	97.503696
1122.000000	97.519941
1121.000000	97.536430
1120.000000	97.540686
1119.000000	97.536062
1118.000000	97.531906
1117.000000	97.527980
1116.000000	97.521577
1115.000000	97.516974
1114.000000	97.514960
1113.000000	97.505991
1112.000000	97.486709
1111.000000	97.469527
1110.000000	97.463427
1109.000000	97.459878
1108.000000	97.449836
1107.000000	97.438838
1106.000000	97.431782
1105.000000	97.420374
1104.000000	97.400423
1103.000000	97.384051
1102.000000	97.378482
1101.000000	97.369789
1100.000000	97.344412
1099.000000	97.310738
1098.000000	97.281740
1097.000000	97.253252
1096.000000	97.217415
1095.000000	97.180921
1094.000000	97.150691
1093.000000	97.115715
1092.000000	97.062136
1091.000000	96.993196
1090.000000	96.916960
1089.000000	96.829280
1088.000000	96.726715
1087.000000	96.621516
1086.000000	96.525424
1085.000000	96.432722
1084.000000	96.337796
1083.000000	96.255247
1082.000000	96.203833
1081.000000	96.182922
1080.000000	96.183555
1079.000000	96.208780
1078.000000	96.264117
1077.000000	96.340800
1076.000000	96.424210
1075.000000	96.508726
1074.000000	96.590988
1073.000000	96.662299
1072.000000	96.720508
1071.000000	96.774511
1070.000000	96.824480
1069.000000	96.853683
1068.000000	96.853765
1067.000000	96.841074
1066.000000	96.834393
1065.000000	96.831919
1064.000000	96.824777
1063.000000	96.816267
1062.000000	96.811555
1061.000000	96.804447
1060.000000	96.789970
1059.000000	96.775962
1058.000000	96.768702
1057.000000	96.761891
1056.000000	96.751445
1055.000000	96.744134
1054.000000	96.739761
1053.000000	96.724095
1052.000000	96.692724
1051.000000	96.662160
1050.000000	96.642184
1049.000000	96.619658
1048.000000	96.586346
1047.000000	96.559565
1046.000000	96.556892
1045.000000	96.571673
1044.000000	96.589634
1043.000000	96.608220
1042.000000	96.624784
1041.000000	96.626356
1040.000000	96.606754
1039.000000	96.573812
1038.000000	96.526949
1037.000000	96.449945
1036.000000	96.342667
1035.000000	96.236382
1034.000000	96.158832
1033.000000	96.105321
1032.000000	96.061447
1031.000000	96.030845
1030.000000	96.019313
1029.000000	96.014673
1028.000000	96.004392
1027.000000	95.994862
1026.000000	95.992703
1025.000000	95.986146
1024.000000	95.964446
1023.000000	95.936814
1022.000000	95.913197
1021.000000	95.886027
1020.000000	95.850375
1019.000000	95.822415
1018.000000	95.817917
1017.000000	95.831426
1016.000000	95.856786
1015.000000	95.907349
1014.000000	95.996019
1013.000000	96.111800
1012.000000	96.235653
1011.000000	96.362906
1010.000000	96.493029
1009.000000	96.616560
1008.000000	96.728928
1007.000000	96.839991
1006.000000	96.953912
1005.000000	97.057473
1004.000000	97.143237
1003.000000	97.225534
1002.000000	97.317342
1001.000000	97.410657
1000.000000	97.495617
999.000000	97.579196
998.000000	97.667303
997.000000	97.748051
996.000000	97.811467
995.000000	97.868333
994.000000	97.931078
993.000000	97.992854
992.000000	98.043799
991.000000	98.090359
990.000000	98.140668
989.000000	98.186577
988.000000	98.218888
987.000000	98.245048
986.000000	98.274051
985.000000	98.298408
984.000000	98.307952
983.000000	98.307583
982.000000	98.306088
981.000000	98.301474
980.000000	98.291064
979.000000	98.280275
978.000000	98.268075
977.000000	98.241876
976.000000	98.200638
975.000000	98.165322
974.000000	98.151652
973.000000	98.151615
972.000000	98.155221
971.000000	98.169738
970.000000	98.201203
969.000000	98.237742
968.000000	98.269068
967.000000	98.302562
966.000000	98.343639
965.000000	98.379620
964.000000	98.401162
963.000000	98.420056
962.000000	98.448620
961.000000	98.480023
960.000000	98.506201
959.000000	98.535032
958.000000	98.571410
957.000000	98.600924
956.000000	98.611457
955.000000	98.613355
954.000000	98.620145
953.000000	98.627597
952.000000	98.628740
951.000000	98.630729
950.000000	98.638310
949.000000	98.639564
948.000000	98.625920
947.000000	98.608705
946.000000	98.598428
945.000000	98.586546
944.000000	98.564951
943.000000	98.544354
942.000000	98.536186
941.000000	98.534506
940.000000	98.532232
939.000000	98.535126
938.000000	98.544627
937.000000	98.548329
936.000000	98.544599
935.000000	98.553954
934.000000	98.588157
933.000000	98.629871
932.000000	98.661020
931.000000	98.687850
930.000000	98.718896
929.000000	98.743166
928.000000	98.751394
927.000000	98.756264
926.000000	98.769051
925.000000	98.778413
924.000000	98.774013
923.000000	98.769672
922.000000	98.779616
921.000000	98.793219
920.000000	98.796612
919.000000	98.798960
918.000000	98.813760
917.000000	98.833713
916.000000	98.848553
915.000000	98.868112
914.000000	98.903363
913.000000	98.941687
912.000000	98.965323
911.000000	98.977732
910.000000	98.989881
909.000000	98.997440
908.000000	98.994257
907.000000	98.991156
906.000000	98.998587
905.000000	99.006695
904.000000	99.003924
903.000000	98.999211
902.000000	99.004997
901.000000	99.015648
900.000000	99.021736
899.000000	99.027744
898.000000	99.036218
897.000000	99.034554
896.000000	99.017755
895.000000	99.004876
894.000000	99.011978
893.000000	99.028122
892.000000	99.037526
891.000000	99.044100
890.000000	99.054014
889.000000	99.055673
888.000000	99.039596
887.000000	99.016963
886.000000	98.997645
885.000000	98.970804
884.000000	98.929055
883.000000	98.888322
882.000000	98.860388
881.000000	98.828950
880.000000	98.777682
879.000000	98.719572
878.000000	98.672657
877.000000	98.630188
876.000000	98.580999
875.000000	98.537751
874.000000	98.518197
873.000000	98.519825
872.000000	98.536830
871.000000	98.578335
870.000000	98.645162
869.000000	98.712362
868.000000	98.759078
867.000000	98.794043
866.000000	98.830155
865.000000	98.858307
864.000000	98.869577
863.000000	98.877572
862.000000	98.893981
861.000000	98.905204
860.000000	98.898434
859.000000	98.887129
858.000000	98.886441
857.000000	98.886271
856.000000	98.873570
855.000000	98.858715
854.000000	98.854874
853.000000	98.853392
852.000000	98.843142
851.000000	98.833106
850.000000	98.833281
849.000000	98.836298
848.000000	98.838619
847.000000	98.855186
846.000000	98.890870
845.000000	98.923489
844.000000	98.937044
843.000000	98.945765
842.000000	98.963703
841.000000	98.978386
840.000000	98.978195
839.000000	98.977399
838.000000	98.989769
837.000000	99.004022
836.000000	99.009596
835.000000	99.018664
834.000000	99.038507
833.000000	99.050224
832.000000	99.040928
831.000000	99.029361
830.000000	99.033692
829.000000	99.041404
828.000000	99.037287
827.000000	99.032937
826.000000	99.040306
825.000000	99.045720
824.000000	99.038029
823.000000	99.031352
822.000000	99.032243
821.000000	99.020182
820.000000	98.987496
819.000000	98.961169
818.000000	98.958252
817.000000	98.956730
816.000000	98.938074
815.000000	98.923110
814.000000	98.935797
813.000000	98.962840
812.000000	98.979345
811.000000	98.984830
810.000000	98.987135
809.000000	98.981283
808.000000	98.970646
807.000000	98.977681
806.000000	99.007277
805.000000	99.030457
804.000000	99.028704
803.000000	99.020851
802.000000	99.023495
801.000000	99.023633
800.000000	99.015283
799.000000	99.021161
798.000000	99.047934
797.000000	99.061785
796.000000	99.040937
795.000000	99.012868
794.000000	99.006687
793.000000	99.008424
792.000000	98.996710
791.000000	98.983168
790.000000	98.983015
789.000000	98.982890
788.000000	98.972205
787.000000	98.970218
786.000000	98.988432
785.000000	99.001644
784.000000	98.990029
783.000000	98.975443
782.000000	98.982396
781.000000	98.997437
780.000000	99.000919
779.000000	99.004460
778.000000	99.021745
777.000000	99.035391
776.000000	99.028904
775.000000	99.020085
774.000000	99.027448
773.000000	99.034120
772.000000	99.020273
771.000000	99.001087
770.000000	98.997635
769.000000	98.999666
768.000000	98.992451
767.000000	98.991207
766.000000	99.012533
765.000000	99.038581
764.000000	99.044373
763.000000	99.036043
762.000000	99.029983
761.000000	99.020870
760.000000	99.001614
759.000000	98.988027
758.000000	98.991762
757.000000	98.994708
756.000000	98.979733
755.000000	98.960768
754.000000	98.955309
753.000000	98.955252
752.000000	98.951287
751.000000	98.954803
750.000000	98.968893
749.000000	98.970516
748.000000	98.949909
747.000000	98.933296
746.000000	98.938047
745.000000	98.940540
744.000000	98.919390
743.000000	98.893768
742.000000	98.885448
741.000000	98.879333
740.000000	98.856402
739.000000	98.831507
738.000000	98.822403
737.000000	98.814823
736.000000	98.792590
735.000000	98.770134
734.000000	98.760046
733.000000	98.742448
732.000000	98.702396
731.000000	98.664890
730.000000	98.654533
729.000000	98.650241
728.000000	98.620288
727.000000	98.571620
726.000000	98.525551
725.000000	98.476451
724.000000	98.414022
723.000000	98.355841
722.000000	98.320578
721.000000	98.296804
720.000000	98.272415
719.000000	98.262780
718.000000	98.276017
717.000000	98.283741
716.000000	98.259364
715.000000	98.217066
714.000000	98.182491
713.000000	98.154918
712.000000	98.128589
711.000000	98.117945
710.000000	98.126658
709.000000	98.124460
708.000000	98.089386
707.000000	98.044439
706.000000	98.016982
705.000000	97.996588
704.000000	97.966997
703.000000	97.939456
702.000000	97.922554
701.000000	97.896598
700.000000	97.851445
699.000000	97.815535
698.000000	97.809231
697.000000	97.805890
696.000000	97.779416
695.000000	97.749849
694.000000	97.748782
693.000000	97.770739
692.000000	97.790098
691.000000	97.798862
690.000000	97.790697
689.000000	97.748015
688.000000	97.680975
687.000000	97.636619
686.000000	97.636918
685.000000	97.647715
684.000000	97.636011
683.000000	97.617123
682.000000	97.610128
681.000000	97.594196
680.000000	97.546939
679.000000	97.486790
678.000000	97.438008
677.000000	97.384097
676.000000	97.307180
675.000000	97.232417
674.000000	97.180641
673.000000	97.131534
672.000000	97.083011
671.000000	97.092995
670.000000	97.204297
669.000000	97.361453
668.000000	97.403203
667.000000	97.250455
666.000000	97.087834
665.000000	97.004985
664.000000	96.961149
663.000000	96.948899
662.000000	96.966026
661.000000	96.981358
660.000000	96.970345
659.000000	96.957832
658.000000	96.970465
657.000000	96.983251
656.000000	96.971590
655.000000	96.963360
654.000000	96.976119
653.000000	96.969247
652.000000	96.920708
651.000000	96.878342
650.000000	96.881696
649.000000	96.896236
648.000000	96.885127
647.000000	96.873981
646.000000	96.888904
645.000000	96.904160
644.000000	96.902735
643.000000	96.917320
642.000000	96.964276
641.000000	97.000802
640.000000	96.997806
639.000000	96.990098
638.000000	97.001166
637.000000	96.992297
636.000000	96.940420
635.000000	96.892576
634.000000	96.887344
633.000000	96.895377
632.000000	96.889863
631.000000	96.901247
630.000000	96.945162
629.000000	96.972650
628.000000	96.952895
627.000000	96.931628
626.000000	96.946501
625.000000	96.958175
624.000000	96.929370
623.000000	96.895355
622.000000	96.894568
621.000000	96.902371
620.000000	96.896545
619.000000	96.913542
618.000000	96.976064
617.000000	97.034486
616.000000	97.048561
615.000000	97.057317
614.000000	97.096539
613.000000	97.124733
612.000000	97.101151
611.000000	97.064536
610.000000	97.061040
609.000000	97.066480
608.000000	97.050211
607.000000	97.044743
606.000000	97.076083
605.000000	97.101300
604.000000	97.088109
603.000000	97.081247
602.000000	97.117572
601.000000	97.151023
600.000000	97.137200
599.000000	97.114790
598.000000	97.130173
597.000000	97.156782
596.000000	97.166109
595.000000	97.196300
594.000000	97.274178
593.000000	97.340607
592.000000	97.334522
591.000000	97.287521
590.000000	97.255143
589.000000	97.228640
588.000000	97.192751
587.000000	97.188283
586.000000	97.239084
585.000000	97.291587
584.000000	97.301305
583.000000	97.304990
582.000000	97.332736
581.000000	97.336052
580.000000	97.281868
579.000000	97.232255
578.000000	97.244466
577.000000	97.279896
576.000000	97.291740
575.000000	97.311405
574.000000	97.362916
573.000000	97.385894
572.000000	97.334557
571.000000	97.258244
570.000000	97.209207
569.000000	97.155040
568.000000	97.070327
567.000000	97.016320
566.000000	97.029368
565.000000	97.034073
564.000000	96.966314
563.000000	96.879748
562.000000	96.837552
561.000000	96.801557
560.000000	96.727901
559.000000	96.673178
558.000000	96.695517
557.000000	96.748961
556.000000	96.778489
555.000000	96.818301
554.000000	96.892320
553.000000	96.928767
552.000000	96.884111
551.000000	96.842718
550.000000	96.883184
549.000000	96.950037
548.000000	96.977901
547.000000	97.023673
546.000000	97.146854
545.000000	97.267782
544.000000	97.288093
543.000000	97.242856
542.000000	97.205285
541.000000	97.149570
540.000000	97.032899
539.000000	96.910939
538.000000	96.843631
537.000000	96.783337
536.000000	96.678265
535.000000	96.588133
534.000000	96.568543
533.000000	96.549232
532.000000	96.459932
531.000000	96.371639
530.000000	96.376537
529.000000	96.434695
528.000000	96.473312
527.000000	96.529371
526.000000	96.653256
525.000000	96.762160
524.000000	96.763852
523.000000	96.715826
522.000000	96.710464
521.000000	96.729913
520.000000	96.729674
519.000000	96.759906
518.000000	96.872611
517.000000	96.997745
516.000000	97.070607
515.000000	97.159560
514.000000	97.318833
513.000000	97.463294
512.000000	97.511915
511.000000	97.532412
510.000000	97.615421
509.000000	97.715622
508.000000	97.754037
507.000000	97.766692
506.000000	97.807645
505.000000	97.822308
504.000000	97.768427
503.000000	97.741583
502.000000	97.827525
501.000000	97.934696
500.000000	97.956623
499.000000	97.955551
498.000000	98.021345
497.000000	98.107012
496.000000	98.139301
495.000000	98.162356
494.000000	98.224141
493.000000	98.241808
492.000000	98.148030
491.000000	98.056467
490.000000	98.100868
489.000000	98.232632
488.000000	98.345518
487.000000	98.454652
486.000000	98.598867
485.000000	98.699668
484.000000	98.688702
483.000000	98.655278
482.000000	98.679622
481.000000	98.679380
480.000000	98.591730
479.000000	98.535732
478.000000	98.618079
477.000000	98.726799
476.000000	98.711298
475.000000	98.625286
474.000000	98.594872
473.000000	98.582257
472.000000	98.498082
471.000000	98.424257
470.000000	98.435154
469.000000	98.393301
468.000000	98.174446
467.000000	97.920703
466.000000	97.854660
465.000000	97.961849
464.000000	98.107861
463.000000	98.291610
462.000000	98.546306
461.000000	98.764354
460.000000	98.859347
459.000000	98.945940
458.000000	99.125558
457.000000	99.216291
456.000000	99.058684
455.000000	98.839538
454.000000	98.758671
453.000000	98.764818
452.000000	98.754365
451.000000	98.830707
450.000000	99.087639
