PE IR       SUBTECH     SPECTRUM    ASCII       PEDS        4.00        
   -1
Chevre_UK-1-C001_1.ASC
23/09/13
10:02:47.00
23/09/13
11:33:37.00
uco
Sample 011 By uco Date Wednesday, September 13 2023
450.000000
#HDR
-1
-1
#GR
cm-1
%T
1.0
0.0
4000.000000
-1.000000
3551
8
98.885754
87.945481
#DATA
4000.000000	98.798085
3999.000000	98.788641
3998.000000	98.784129
3997.000000	98.784570
3996.000000	98.788155
3995.000000	98.792339
3994.000000	98.795125
3993.000000	98.796072
3992.000000	98.796494
3991.000000	98.798310
3990.000000	98.802206
3989.000000	98.806717
3988.000000	98.809207
3987.000000	98.807937
3986.000000	98.803255
3985.000000	98.797033
3984.000000	98.791210
3983.000000	98.786657
3982.000000	98.783238
3981.000000	98.780630
3980.000000	98.778939
3979.000000	98.778486
3978.000000	98.779011
3977.000000	98.779280
3976.000000	98.777779
3975.000000	98.774003
3974.000000	98.768961
3973.000000	98.764444
3972.000000	98.761904
3971.000000	98.761995
3970.000000	98.764496
3969.000000	98.767960
3968.000000	98.769763
3967.000000	98.767530
3966.000000	98.761335
3965.000000	98.754337
3964.000000	98.750631
3963.000000	98.752209
3962.000000	98.757817
3961.000000	98.764623
3960.000000	98.770565
3959.000000	98.774755
3958.000000	98.776436
3957.000000	98.774626
3956.000000	98.769126
3955.000000	98.761448
3954.000000	98.754453
3953.000000	98.751015
3952.000000	98.752596
3951.000000	98.758394
3950.000000	98.765286
3949.000000	98.769027
3948.000000	98.766720
3947.000000	98.758732
3946.000000	98.748365
3945.000000	98.739919
3944.000000	98.736358
3943.000000	98.737781
3942.000000	98.741746
3941.000000	98.745244
3940.000000	98.746559
3939.000000	98.745747
3938.000000	98.743940
3937.000000	98.742399
3936.000000	98.741872
3935.000000	98.742328
3934.000000	98.743129
3933.000000	98.743410
3932.000000	98.742707
3931.000000	98.741204
3930.000000	98.739262
3929.000000	98.737432
3928.000000	98.736998
3927.000000	98.739553
3926.000000	98.744853
3925.000000	98.749544
3924.000000	98.750083
3923.000000	98.746969
3922.000000	98.744203
3921.000000	98.745018
3920.000000	98.748939
3919.000000	98.752733
3918.000000	98.753441
3917.000000	98.750619
3916.000000	98.746067
3915.000000	98.741974
3914.000000	98.739564
3913.000000	98.738941
3912.000000	98.739259
3911.000000	98.739308
3910.000000	98.738246
3909.000000	98.735963
3908.000000	98.733240
3907.000000	98.731652
3906.000000	98.732811
3905.000000	98.736431
3904.000000	98.739601
3903.000000	98.739460
3902.000000	98.736289
3901.000000	98.733192
3900.000000	98.732946
3899.000000	98.735696
3898.000000	98.739125
3897.000000	98.740462
3896.000000	98.738258
3895.000000	98.733642
3894.000000	98.730313
3893.000000	98.731993
3892.000000	98.737435
3891.000000	98.740098
3890.000000	98.735513
3889.000000	98.726502
3888.000000	98.721252
3887.000000	98.726142
3886.000000	98.737828
3885.000000	98.746033
3884.000000	98.745815
3883.000000	98.742038
3882.000000	98.741816
3881.000000	98.745480
3880.000000	98.746282
3879.000000	98.739596
3878.000000	98.728067
3877.000000	98.718131
3876.000000	98.714781
3875.000000	98.717548
3874.000000	98.721345
3873.000000	98.722794
3872.000000	98.723544
3871.000000	98.725202
3870.000000	98.724469
3869.000000	98.719036
3868.000000	98.712475
3867.000000	98.709563
3866.000000	98.710971
3865.000000	98.712683
3864.000000	98.711401
3863.000000	98.710031
3862.000000	98.713040
3861.000000	98.720000
3860.000000	98.726080
3859.000000	98.726311
3858.000000	98.718676
3857.000000	98.705592
3856.000000	98.694525
3855.000000	98.693269
3854.000000	98.697908
3853.000000	98.698180
3852.000000	98.696144
3851.000000	98.698254
3850.000000	98.704778
3849.000000	98.712960
3848.000000	98.720285
3847.000000	98.725722
3846.000000	98.729463
3845.000000	98.732038
3844.000000	98.733551
3843.000000	98.733836
3842.000000	98.732960
3841.000000	98.731426
3840.000000	98.729699
3839.000000	98.727779
3838.000000	98.726259
3837.000000	98.726423
3836.000000	98.728237
3835.000000	98.730151
3834.000000	98.730838
3833.000000	98.729580
3832.000000	98.725553
3831.000000	98.718926
3830.000000	98.712106
3829.000000	98.709229
3828.000000	98.713184
3827.000000	98.722045
3826.000000	98.729219
3825.000000	98.729322
3824.000000	98.723738
3823.000000	98.719761
3822.000000	98.722239
3821.000000	98.727767
3820.000000	98.731182
3819.000000	98.732151
3818.000000	98.734692
3817.000000	98.741241
3816.000000	98.747826
3815.000000	98.750312
3814.000000	98.750543
3813.000000	98.751727
3812.000000	98.753576
3811.000000	98.753064
3810.000000	98.748717
3809.000000	98.743168
3808.000000	98.739678
3807.000000	98.737685
3806.000000	98.734783
3805.000000	98.730666
3804.000000	98.728088
3803.000000	98.730175
3802.000000	98.734520
3801.000000	98.736548
3800.000000	98.737893
3799.000000	98.742051
3798.000000	98.749329
3797.000000	98.757067
3796.000000	98.762311
3795.000000	98.764916
3794.000000	98.766365
3793.000000	98.766895
3792.000000	98.765375
3791.000000	98.761534
3790.000000	98.756989
3789.000000	98.753664
3788.000000	98.751892
3787.000000	98.750661
3786.000000	98.749153
3785.000000	98.747508
3784.000000	98.746461
3783.000000	98.746922
3782.000000	98.749977
3781.000000	98.756261
3780.000000	98.764051
3779.000000	98.769559
3778.000000	98.770503
3777.000000	98.767671
3776.000000	98.762745
3775.000000	98.756306
3774.000000	98.748683
3773.000000	98.742052
3772.000000	98.739976
3771.000000	98.743474
3770.000000	98.748961
3769.000000	98.752453
3768.000000	98.753596
3767.000000	98.753743
3766.000000	98.752581
3765.000000	98.749040
3764.000000	98.744597
3763.000000	98.743239
3762.000000	98.747701
3761.000000	98.756220
3760.000000	98.762794
3759.000000	98.762394
3758.000000	98.755877
3757.000000	98.747636
3756.000000	98.740843
3755.000000	98.736425
3754.000000	98.734363
3753.000000	98.734355
3752.000000	98.736609
3751.000000	98.742903
3750.000000	98.753841
3749.000000	98.764336
3748.000000	98.768198
3747.000000	98.766083
3746.000000	98.764003
3745.000000	98.761640
3744.000000	98.755033
3743.000000	98.749444
3742.000000	98.750360
3741.000000	98.755658
3740.000000	98.760223
3739.000000	98.761362
3738.000000	98.761576
3737.000000	98.764704
3736.000000	98.769627
3735.000000	98.772096
3734.000000	98.771696
3733.000000	98.771329
3732.000000	98.771995
3731.000000	98.772622
3730.000000	98.773172
3729.000000	98.775858
3728.000000	98.782863
3727.000000	98.792490
3726.000000	98.799782
3725.000000	98.802151
3724.000000	98.801747
3723.000000	98.801846
3722.000000	98.802839
3721.000000	98.802506
3720.000000	98.798894
3719.000000	98.792195
3718.000000	98.784020
3717.000000	98.775865
3716.000000	98.769039
3715.000000	98.765341
3714.000000	98.766514
3713.000000	98.771924
3712.000000	98.777208
3711.000000	98.778429
3710.000000	98.777154
3709.000000	98.778234
3708.000000	98.784428
3707.000000	98.794215
3706.000000	98.803287
3705.000000	98.807771
3704.000000	98.806935
3703.000000	98.803151
3702.000000	98.799177
3701.000000	98.795723
3700.000000	98.791974
3699.000000	98.788028
3698.000000	98.785375
3697.000000	98.784830
3696.000000	98.785447
3695.000000	98.785966
3694.000000	98.785733
3693.000000	98.784094
3692.000000	98.779944
3691.000000	98.772600
3690.000000	98.762983
3689.000000	98.754745
3688.000000	98.753154
3687.000000	98.759752
3686.000000	98.770808
3685.000000	98.781189
3684.000000	98.787284
3683.000000	98.788272
3682.000000	98.786115
3681.000000	98.782078
3680.000000	98.773720
3679.000000	98.758359
3678.000000	98.739946
3677.000000	98.728406
3676.000000	98.727087
3675.000000	98.728763
3674.000000	98.727208
3673.000000	98.723350
3672.000000	98.721983
3671.000000	98.724418
3670.000000	98.724938
3669.000000	98.720810
3668.000000	98.717102
3667.000000	98.717904
3666.000000	98.722697
3665.000000	98.728757
3664.000000	98.733177
3663.000000	98.733968
3662.000000	98.730474
3661.000000	98.723034
3660.000000	98.713014
3659.000000	98.703141
3658.000000	98.696851
3657.000000	98.694836
3656.000000	98.692898
3655.000000	98.685732
3654.000000	98.671779
3653.000000	98.654845
3652.000000	98.642377
3651.000000	98.639709
3650.000000	98.642847
3649.000000	98.640989
3648.000000	98.630094
3647.000000	98.616193
3646.000000	98.605110
3645.000000	98.598176
3644.000000	98.594871
3643.000000	98.594141
3642.000000	98.593998
3641.000000	98.591978
3640.000000	98.586738
3639.000000	98.578669
3638.000000	98.569582
3637.000000	98.561999
3636.000000	98.557691
3635.000000	98.555585
3634.000000	98.551446
3633.000000	98.541526
3632.000000	98.526334
3631.000000	98.510320
3630.000000	98.495778
3629.000000	98.480239
3628.000000	98.466654
3627.000000	98.461564
3626.000000	98.463876
3625.000000	98.467541
3624.000000	98.467038
3623.000000	98.459470
3622.000000	98.445374
3621.000000	98.427494
3620.000000	98.408519
3619.000000	98.390706
3618.000000	98.376432
3617.000000	98.366640
3616.000000	98.360319
3615.000000	98.355529
3614.000000	98.349596
3613.000000	98.340707
3612.000000	98.330098
3611.000000	98.320345
3610.000000	98.311798
3609.000000	98.302181
3608.000000	98.290452
3607.000000	98.279731
3606.000000	98.273767
3605.000000	98.272453
3604.000000	98.272253
3603.000000	98.268673
3602.000000	98.258399
3601.000000	98.241214
3600.000000	98.221081
3599.000000	98.203708
3598.000000	98.192080
3597.000000	98.184692
3596.000000	98.177683
3595.000000	98.167709
3594.000000	98.153601
3593.000000	98.136359
3592.000000	98.117801
3591.000000	98.099516
3590.000000	98.082598
3589.000000	98.067039
3588.000000	98.052125
3587.000000	98.039361
3586.000000	98.031656
3585.000000	98.028090
3584.000000	98.024351
3583.000000	98.017336
3582.000000	98.007214
3581.000000	97.996268
3580.000000	97.986096
3579.000000	97.975772
3578.000000	97.962723
3577.000000	97.945501
3576.000000	97.925279
3575.000000	97.904671
3574.000000	97.885381
3573.000000	97.867446
3572.000000	97.850370
3571.000000	97.834248
3570.000000	97.819595
3569.000000	97.806028
3568.000000	97.791452
3567.000000	97.775337
3566.000000	97.761922
3565.000000	97.754906
3564.000000	97.751798
3563.000000	97.746736
3562.000000	97.735922
3561.000000	97.720606
3560.000000	97.705738
3559.000000	97.694791
3558.000000	97.686115
3557.000000	97.675398
3556.000000	97.661037
3555.000000	97.645704
3554.000000	97.632576
3553.000000	97.620950
3552.000000	97.607005
3551.000000	97.588668
3550.000000	97.567815
3549.000000	97.547645
3548.000000	97.529442
3547.000000	97.511993
3546.000000	97.493747
3545.000000	97.475343
3544.000000	97.459142
3543.000000	97.446397
3542.000000	97.435764
3541.000000	97.424525
3540.000000	97.410703
3539.000000	97.393919
3538.000000	97.374794
3537.000000	97.354310
3536.000000	97.333943
3535.000000	97.315171
3534.000000	97.298062
3533.000000	97.281202
3532.000000	97.263823
3531.000000	97.247432
3530.000000	97.234363
3529.000000	97.224674
3528.000000	97.215597
3527.000000	97.204506
3526.000000	97.191236
3525.000000	97.176838
3524.000000	97.161616
3523.000000	97.145642
3522.000000	97.130181
3521.000000	97.116784
3520.000000	97.105044
3519.000000	97.092406
3518.000000	97.076791
3517.000000	97.059190
3516.000000	97.042990
3515.000000	97.030533
3514.000000	97.020752
3513.000000	97.010407
3512.000000	96.997382
3511.000000	96.982522
3510.000000	96.968315
3509.000000	96.955958
3508.000000	96.944053
3507.000000	96.930307
3506.000000	96.914169
3505.000000	96.897497
3504.000000	96.882961
3503.000000	96.871969
3502.000000	96.863955
3501.000000	96.857092
3500.000000	96.849143
3499.000000	96.838034
3498.000000	96.822917
3497.000000	96.805612
3496.000000	96.790412
3495.000000	96.781001
3494.000000	96.777043
3493.000000	96.774365
3492.000000	96.768678
3491.000000	96.758816
3490.000000	96.746555
3489.000000	96.733849
3488.000000	96.720814
3487.000000	96.706653
3486.000000	96.692049
3485.000000	96.679446
3484.000000	96.670379
3483.000000	96.663056
3482.000000	96.653760
3481.000000	96.641227
3480.000000	96.628243
3479.000000	96.617830
3478.000000	96.609086
3477.000000	96.598375
3476.000000	96.584130
3475.000000	96.569176
3474.000000	96.557606
3473.000000	96.550061
3472.000000	96.543048
3471.000000	96.532656
3470.000000	96.518347
3469.000000	96.503251
3468.000000	96.491326
3467.000000	96.484205
3466.000000	96.480150
3465.000000	96.475329
3464.000000	96.465881
3463.000000	96.449851
3462.000000	96.428662
3461.000000	96.406971
3460.000000	96.389690
3459.000000	96.378065
3458.000000	96.369139
3457.000000	96.359460
3456.000000	96.348710
3455.000000	96.339088
3454.000000	96.331910
3453.000000	96.326255
3452.000000	96.320620
3451.000000	96.314282
3450.000000	96.306556
3449.000000	96.296250
3448.000000	96.283248
3447.000000	96.270215
3446.000000	96.260874
3445.000000	96.255711
3444.000000	96.250465
3443.000000	96.239489
3442.000000	96.220821
3441.000000	96.198206
3440.000000	96.177941
3439.000000	96.163632
3438.000000	96.154182
3437.000000	96.146471
3436.000000	96.139060
3435.000000	96.132748
3434.000000	96.128236
3433.000000	96.124611
3432.000000	96.120470
3431.000000	96.115455
3430.000000	96.109893
3429.000000	96.103495
3428.000000	96.095367
3427.000000	96.085211
3426.000000	96.073668
3425.000000	96.061217
3424.000000	96.047294
3423.000000	96.031128
3422.000000	96.013345
3421.000000	95.996341
3420.000000	95.982786
3419.000000	95.973834
3418.000000	95.969029
3417.000000	95.967463
3416.000000	95.968107
3415.000000	95.968879
3414.000000	95.966346
3413.000000	95.957564
3412.000000	95.942559
3411.000000	95.924638
3410.000000	95.907992
3409.000000	95.894797
3408.000000	95.884286
3407.000000	95.874222
3406.000000	95.863343
3405.000000	95.852651
3404.000000	95.844239
3403.000000	95.838650
3402.000000	95.833742
3401.000000	95.826679
3400.000000	95.816855
3399.000000	95.806371
3398.000000	95.797843
3397.000000	95.792190
3396.000000	95.788228
3395.000000	95.783607
3394.000000	95.776199
3393.000000	95.765567
3392.000000	95.753399
3391.000000	95.741787
3390.000000	95.731055
3389.000000	95.720146
3388.000000	95.709031
3387.000000	95.699334
3386.000000	95.691933
3385.000000	95.685107
3384.000000	95.676328
3383.000000	95.665365
3382.000000	95.654519
3381.000000	95.646011
3380.000000	95.639898
3379.000000	95.634206
3378.000000	95.626367
3377.000000	95.614945
3376.000000	95.600966
3375.000000	95.587457
3374.000000	95.576609
3373.000000	95.567168
3372.000000	95.555375
3371.000000	95.538723
3370.000000	95.518159
3369.000000	95.496446
3368.000000	95.475428
3367.000000	95.455717
3366.000000	95.438297
3365.000000	95.424820
3364.000000	95.415658
3363.000000	95.408252
3362.000000	95.397925
3361.000000	95.380494
3360.000000	95.354535
3359.000000	95.322147
3358.000000	95.288312
3357.000000	95.258997
3356.000000	95.238132
3355.000000	95.224977
3354.000000	95.214366
3353.000000	95.200240
3352.000000	95.179453
3351.000000	95.152669
3350.000000	95.122672
3349.000000	95.092614
3348.000000	95.065228
3347.000000	95.042051
3346.000000	95.022527
3345.000000	95.004282
3344.000000	94.984901
3343.000000	94.963340
3342.000000	94.939598
3341.000000	94.913825
3340.000000	94.886471
3339.000000	94.858884
3338.000000	94.832836
3337.000000	94.809396
3336.000000	94.788708
3335.000000	94.770645
3334.000000	94.754822
3333.000000	94.739789
3332.000000	94.723211
3331.000000	94.703828
3330.000000	94.682989
3329.000000	94.663516
3328.000000	94.646895
3327.000000	94.631972
3326.000000	94.616562
3325.000000	94.599868
3324.000000	94.582980
3323.000000	94.567338
3322.000000	94.553314
3321.000000	94.540274
3320.000000	94.527415
3319.000000	94.514308
3318.000000	94.500909
3317.000000	94.487273
3316.000000	94.473287
3315.000000	94.458928
3314.000000	94.445293
3313.000000	94.435148
3312.000000	94.431109
3311.000000	94.432520
3310.000000	94.434894
3309.000000	94.433659
3308.000000	94.428462
3307.000000	94.422695
3306.000000	94.418929
3305.000000	94.416185
3304.000000	94.411860
3303.000000	94.404897
3302.000000	94.396184
3301.000000	94.386764
3300.000000	94.376922
3299.000000	94.366835
3298.000000	94.357051
3297.000000	94.348374
3296.000000	94.341970
3295.000000	94.339275
3294.000000	94.340611
3293.000000	94.343708
3292.000000	94.344642
3291.000000	94.340949
3290.000000	94.333535
3289.000000	94.325330
3288.000000	94.318684
3287.000000	94.314294
3286.000000	94.311797
3285.000000	94.310552
3284.000000	94.310125
3283.000000	94.310605
3282.000000	94.312426
3281.000000	94.315709
3280.000000	94.320058
3279.000000	94.325018
3278.000000	94.330237
3277.000000	94.335049
3276.000000	94.338894
3275.000000	94.342935
3274.000000	94.350125
3273.000000	94.362082
3272.000000	94.376052
3271.000000	94.386421
3270.000000	94.389758
3269.000000	94.387493
3268.000000	94.383629
3267.000000	94.381255
3266.000000	94.381940
3265.000000	94.387187
3264.000000	94.398385
3263.000000	94.414904
3262.000000	94.433355
3261.000000	94.449577
3260.000000	94.461370
3259.000000	94.469121
3258.000000	94.474235
3257.000000	94.477676
3256.000000	94.480080
3255.000000	94.482613
3254.000000	94.486904
3253.000000	94.493991
3252.000000	94.503956
3251.000000	94.516745
3250.000000	94.532494
3249.000000	94.550260
3248.000000	94.567084
3247.000000	94.579699
3246.000000	94.587436
3245.000000	94.592683
3244.000000	94.598164
3243.000000	94.604667
3242.000000	94.611672
3241.000000	94.619006
3240.000000	94.627054
3239.000000	94.636064
3238.000000	94.646011
3237.000000	94.656550
3236.000000	94.666445
3235.000000	94.673964
3234.000000	94.678932
3233.000000	94.683730
3232.000000	94.690957
3231.000000	94.700215
3230.000000	94.708516
3229.000000	94.713926
3228.000000	94.717712
3227.000000	94.722721
3226.000000	94.730591
3225.000000	94.740910
3224.000000	94.751996
3223.000000	94.761796
3222.000000	94.768759
3221.000000	94.772809
3220.000000	94.775554
3219.000000	94.779076
3218.000000	94.784423
3217.000000	94.791428
3216.000000	94.799690
3215.000000	94.809464
3214.000000	94.821590
3213.000000	94.836339
3212.000000	94.852136
3211.000000	94.865626
3210.000000	94.873783
3209.000000	94.876358
3208.000000	94.876178
3207.000000	94.877118
3206.000000	94.881977
3205.000000	94.891828
3204.000000	94.906083
3203.000000	94.922586
3202.000000	94.938376
3201.000000	94.951221
3200.000000	94.960689
3199.000000	94.967911
3198.000000	94.974668
3197.000000	94.982690
3196.000000	94.992956
3195.000000	95.005028
3194.000000	95.017351
3193.000000	95.028655
3192.000000	95.039168
3191.000000	95.050223
3190.000000	95.062790
3189.000000	95.076626
3188.000000	95.090876
3187.000000	95.105417
3186.000000	95.121512
3185.000000	95.140819
3184.000000	95.163365
3183.000000	95.186581
3182.000000	95.206774
3181.000000	95.221807
3180.000000	95.232390
3179.000000	95.241140
3178.000000	95.250723
3177.000000	95.262511
3176.000000	95.276228
3175.000000	95.290512
3174.000000	95.304099
3173.000000	95.316641
3172.000000	95.328431
3171.000000	95.339759
3170.000000	95.351124
3169.000000	95.363751
3168.000000	95.378663
3167.000000	95.394914
3166.000000	95.409893
3165.000000	95.422273
3164.000000	95.434040
3163.000000	95.448551
3162.000000	95.466687
3161.000000	95.485794
3160.000000	95.502650
3159.000000	95.516979
3158.000000	95.531713
3157.000000	95.549831
3156.000000	95.571043
3155.000000	95.591542
3154.000000	95.607095
3153.000000	95.616561
3152.000000	95.622658
3151.000000	95.629669
3150.000000	95.640650
3149.000000	95.656278
3148.000000	95.675244
3147.000000	95.695091
3146.000000	95.713262
3145.000000	95.728300
3144.000000	95.740544
3143.000000	95.751663
3142.000000	95.763353
3141.000000	95.776200
3140.000000	95.789372
3139.000000	95.801301
3138.000000	95.811034
3137.000000	95.819262
3136.000000	95.827884
3135.000000	95.838303
3134.000000	95.850064
3133.000000	95.861057
3132.000000	95.869105
3131.000000	95.873833
3130.000000	95.877543
3129.000000	95.883970
3128.000000	95.895186
3127.000000	95.909370
3126.000000	95.922348
3125.000000	95.931550
3124.000000	95.937741
3123.000000	95.942916
3122.000000	95.947942
3121.000000	95.952928
3120.000000	95.958378
3119.000000	95.964356
3118.000000	95.969016
3117.000000	95.969803
3116.000000	95.966427
3115.000000	95.961619
3114.000000	95.958638
3113.000000	95.958708
3112.000000	95.960898
3111.000000	95.963412
3110.000000	95.964595
3109.000000	95.963498
3108.000000	95.960230
3107.000000	95.955810
3106.000000	95.951447
3105.000000	95.947884
3104.000000	95.945106
3103.000000	95.942256
3102.000000	95.938164
3101.000000	95.932710
3100.000000	95.927695
3099.000000	95.925506
3098.000000	95.926431
3097.000000	95.927664
3096.000000	95.925316
3095.000000	95.917424
3094.000000	95.905215
3093.000000	95.892093
3092.000000	95.881595
3091.000000	95.875514
3090.000000	95.872884
3089.000000	95.870731
3088.000000	95.866513
3087.000000	95.860267
3086.000000	95.854249
3085.000000	95.850402
3084.000000	95.848433
3083.000000	95.846495
3082.000000	95.843559
3081.000000	95.840631
3080.000000	95.839331
3079.000000	95.839413
3078.000000	95.838357
3077.000000	95.833913
3076.000000	95.826706
3075.000000	95.819797
3074.000000	95.815832
3073.000000	95.815319
3072.000000	95.817781
3071.000000	95.823425
3070.000000	95.832664
3069.000000	95.844175
3068.000000	95.854549
3067.000000	95.860465
3066.000000	95.861110
3065.000000	95.858583
3064.000000	95.856427
3063.000000	95.857812
3062.000000	95.864260
3061.000000	95.875245
3060.000000	95.888980
3059.000000	95.903927
3058.000000	95.919528
3057.000000	95.935510
3056.000000	95.951151
3055.000000	95.965893
3054.000000	95.980128
3053.000000	95.994350
3052.000000	96.007688
3051.000000	96.018527
3050.000000	96.026871
3049.000000	96.035056
3048.000000	96.045426
3047.000000	96.058047
3046.000000	96.071444
3045.000000	96.084875
3044.000000	96.098993
3043.000000	96.114779
3042.000000	96.132746
3041.000000	96.152692
3040.000000	96.173182
3039.000000	96.191539
3038.000000	96.205750
3037.000000	96.216793
3036.000000	96.228187
3035.000000	96.242821
3034.000000	96.260638
3033.000000	96.279495
3032.000000	96.297332
3031.000000	96.313074
3030.000000	96.326421
3029.000000	96.337746
3028.000000	96.348030
3027.000000	96.358259
3026.000000	96.368909
3025.000000	96.380141
3024.000000	96.392116
3023.000000	96.404908
3022.000000	96.418584
3021.000000	96.433576
3020.000000	96.450229
3019.000000	96.467382
3018.000000	96.482059
3017.000000	96.491555
3016.000000	96.495895
3015.000000	96.497837
3014.000000	96.500646
3013.000000	96.506238
3012.000000	96.514962
3011.000000	96.526032
3010.000000	96.537872
3009.000000	96.548551
3008.000000	96.556445
3007.000000	96.560730
3006.000000	96.561501
3005.000000	96.559640
3004.000000	96.556285
3003.000000	96.552188
3002.000000	96.547754
3001.000000	96.543720
3000.000000	96.541339
2999.000000	96.541536
2998.000000	96.544149
2997.000000	96.547983
2996.000000	96.550888
2995.000000	96.549789
2994.000000	96.542161
2993.000000	96.528747
2992.000000	96.514039
2991.000000	96.502486
2990.000000	96.494304
2989.000000	96.485954
2988.000000	96.474524
2987.000000	96.460397
2986.000000	96.445740
2985.000000	96.431980
2984.000000	96.419414
2983.000000	96.408046
2982.000000	96.397727
2981.000000	96.388022
2980.000000	96.378779
2979.000000	96.370669
2978.000000	96.364695
2977.000000	96.361313
2976.000000	96.359997
2975.000000	96.358959
2974.000000	96.355138
2973.000000	96.345638
2972.000000	96.330298
2971.000000	96.312420
2970.000000	96.295889
2969.000000	96.281437
2968.000000	96.266451
2967.000000	96.248581
2966.000000	96.229062
2965.000000	96.212026
2964.000000	96.200442
2963.000000	96.192836
2962.000000	96.184222
2961.000000	96.170797
2960.000000	96.153722
2959.000000	96.137872
2958.000000	96.126909
2957.000000	96.120358
2956.000000	96.115783
2955.000000	96.112517
2954.000000	96.112068
2953.000000	96.115337
2952.000000	96.120841
2951.000000	96.125943
2950.000000	96.128773
2949.000000	96.128610
2948.000000	96.125250
2947.000000	96.118849
2946.000000	96.110025
2945.000000	96.099447
2944.000000	96.087369
2943.000000	96.073840
2942.000000	96.059225
2941.000000	96.044181
2940.000000	96.029248
2939.000000	96.014616
2938.000000	96.000078
2937.000000	95.985029
2936.000000	95.968727
2935.000000	95.950844
2934.000000	95.931635
2933.000000	95.911510
2932.000000	95.890913
2931.000000	95.870905
2930.000000	95.853149
2929.000000	95.838270
2928.000000	95.824436
2927.000000	95.808673
2926.000000	95.789937
2925.000000	95.770147
2924.000000	95.751835
2923.000000	95.735784
2922.000000	95.721804
2921.000000	95.711120
2920.000000	95.706863
2919.000000	95.712154
2918.000000	95.728639
2917.000000	95.756847
2916.000000	95.796713
2915.000000	95.846870
2914.000000	95.903611
2913.000000	95.961450
2912.000000	96.015360
2911.000000	96.063126
2910.000000	96.105786
2909.000000	96.145749
2908.000000	96.184224
2907.000000	96.220199
2906.000000	96.251877
2905.000000	96.278692
2904.000000	96.301637
2903.000000	96.321673
2902.000000	96.338369
2901.000000	96.350468
2900.000000	96.357810
2899.000000	96.362862
2898.000000	96.370057
2897.000000	96.382958
2896.000000	96.401326
2895.000000	96.421162
2894.000000	96.438336
2893.000000	96.452124
2892.000000	96.464615
2891.000000	96.476986
2890.000000	96.487602
2889.000000	96.494329
2888.000000	96.497596
2887.000000	96.500078
2886.000000	96.503755
2885.000000	96.508200
2884.000000	96.511619
2883.000000	96.512824
2882.000000	96.512147
2881.000000	96.511045
2880.000000	96.510831
2879.000000	96.511359
2878.000000	96.510944
2877.000000	96.508101
2876.000000	96.503483
2875.000000	96.499678
2874.000000	96.498989
2873.000000	96.501725
2872.000000	96.506733
2871.000000	96.513149
2870.000000	96.521253
2869.000000	96.531720
2868.000000	96.544300
2867.000000	96.557389
2866.000000	96.569001
2865.000000	96.578279
2864.000000	96.585877
2863.000000	96.592872
2862.000000	96.599580
2861.000000	96.605435
2860.000000	96.609327
2859.000000	96.609305
2858.000000	96.602582
2857.000000	96.587068
2856.000000	96.563359
2855.000000	96.534674
2854.000000	96.504886
2853.000000	96.477120
2852.000000	96.454352
2851.000000	96.440408
2850.000000	96.439377
2849.000000	96.454058
2848.000000	96.484811
2847.000000	96.529236
2846.000000	96.582436
2845.000000	96.638022
2844.000000	96.689939
2843.000000	96.734403
2842.000000	96.770691
2841.000000	96.800481
2840.000000	96.826428
2839.000000	96.850424
2838.000000	96.872343
2837.000000	96.890269
2836.000000	96.902420
2835.000000	96.909260
2834.000000	96.913764
2833.000000	96.919418
2832.000000	96.927833
2831.000000	96.938207
2830.000000	96.948903
2829.000000	96.959142
2828.000000	96.968853
2827.000000	96.977371
2826.000000	96.983555
2825.000000	96.987789
2824.000000	96.992861
2823.000000	97.001359
2822.000000	97.012241
2821.000000	97.021379
2820.000000	97.026092
2819.000000	97.028134
2818.000000	97.031380
2817.000000	97.037422
2816.000000	97.044523
2815.000000	97.050377
2814.000000	97.054524
2813.000000	97.057945
2812.000000	97.061593
2811.000000	97.065980
2810.000000	97.071294
2809.000000	97.077036
2808.000000	97.081984
2807.000000	97.085445
2806.000000	97.088458
2805.000000	97.092914
2804.000000	97.099272
2803.000000	97.105873
2802.000000	97.111001
2801.000000	97.115038
2800.000000	97.119738
2799.000000	97.125500
2798.000000	97.130306
2797.000000	97.131936
2796.000000	97.130771
2795.000000	97.129753
2794.000000	97.131670
2793.000000	97.137103
2792.000000	97.144869
2791.000000	97.153465
2790.000000	97.161502
2789.000000	97.167476
2788.000000	97.170447
2787.000000	97.171254
2786.000000	97.172250
2785.000000	97.175172
2784.000000	97.179502
2783.000000	97.183379
2782.000000	97.185898
2781.000000	97.188009
2780.000000	97.191138
2779.000000	97.195512
2778.000000	97.200147
2777.000000	97.204084
2776.000000	97.207232
2775.000000	97.210234
2774.000000	97.213993
2773.000000	97.219282
2772.000000	97.226212
2771.000000	97.233773
2770.000000	97.240311
2769.000000	97.244947
2768.000000	97.248531
2767.000000	97.252862
2766.000000	97.258881
2765.000000	97.265796
2764.000000	97.272077
2763.000000	97.277119
2762.000000	97.281633
2761.000000	97.286345
2760.000000	97.290575
2759.000000	97.292605
2758.000000	97.291717
2757.000000	97.289575
2756.000000	97.289192
2755.000000	97.292530
2754.000000	97.299416
2753.000000	97.308499
2752.000000	97.318432
2751.000000	97.327773
2750.000000	97.334568
2749.000000	97.337285
2748.000000	97.336502
2747.000000	97.335069
2746.000000	97.336028
2745.000000	97.340271
2744.000000	97.346258
2743.000000	97.351828
2742.000000	97.356053
2741.000000	97.359483
2740.000000	97.363091
2739.000000	97.367387
2738.000000	97.372409
2737.000000	97.378018
2736.000000	97.383795
2735.000000	97.388818
2734.000000	97.392024
2733.000000	97.393057
2732.000000	97.392868
2731.000000	97.393509
2730.000000	97.397187
2729.000000	97.404797
2728.000000	97.414762
2727.000000	97.423550
2726.000000	97.428173
2725.000000	97.428604
2724.000000	97.427595
2723.000000	97.428058
2722.000000	97.430757
2721.000000	97.434225
2720.000000	97.436224
2719.000000	97.435355
2718.000000	97.432221
2717.000000	97.429516
2716.000000	97.430220
2715.000000	97.434901
2714.000000	97.440993
2713.000000	97.445161
2712.000000	97.446169
2711.000000	97.445238
2710.000000	97.444357
2709.000000	97.445025
2708.000000	97.448109
2707.000000	97.453581
2706.000000	97.460021
2705.000000	97.465206
2704.000000	97.467929
2703.000000	97.469145
2702.000000	97.471011
2701.000000	97.474843
2700.000000	97.480109
2699.000000	97.485295
2698.000000	97.489416
2697.000000	97.492514
2696.000000	97.494959
2695.000000	97.496854
2694.000000	97.498354
2693.000000	97.499989
2692.000000	97.501967
2691.000000	97.503474
2690.000000	97.503573
2689.000000	97.502670
2688.000000	97.502086
2687.000000	97.502117
2686.000000	97.501832
2685.000000	97.501167
2684.000000	97.501595
2683.000000	97.503590
2682.000000	97.504907
2681.000000	97.503344
2680.000000	97.500514
2679.000000	97.500600
2678.000000	97.505094
2677.000000	97.510730
2676.000000	97.513539
2675.000000	97.513477
2674.000000	97.513824
2673.000000	97.516827
2672.000000	97.521201
2671.000000	97.523719
2670.000000	97.522483
2669.000000	97.518749
2668.000000	97.516029
2667.000000	97.517167
2666.000000	97.521663
2665.000000	97.525877
2664.000000	97.526216
2663.000000	97.522163
2662.000000	97.516307
2661.000000	97.512019
2660.000000	97.511436
2659.000000	97.514858
2658.000000	97.520864
2657.000000	97.526868
2656.000000	97.530581
2655.000000	97.531733
2654.000000	97.532227
2653.000000	97.534257
2652.000000	97.538291
2651.000000	97.543005
2650.000000	97.546979
2649.000000	97.550167
2648.000000	97.553779
2647.000000	97.558922
2646.000000	97.565374
2645.000000	97.571563
2644.000000	97.575843
2643.000000	97.577978
2642.000000	97.579328
2641.000000	97.581478
2640.000000	97.584821
2639.000000	97.588795
2638.000000	97.593249
2637.000000	97.598827
2636.000000	97.605761
2635.000000	97.612977
2634.000000	97.618947
2633.000000	97.622987
2632.000000	97.625208
2631.000000	97.625830
2630.000000	97.625570
2629.000000	97.626356
2628.000000	97.630151
2627.000000	97.636596
2626.000000	97.642752
2625.000000	97.645860
2624.000000	97.645949
2623.000000	97.645657
2622.000000	97.648260
2621.000000	97.655982
2620.000000	97.668784
2619.000000	97.683561
2618.000000	97.695165
2617.000000	97.699710
2616.000000	97.697650
2615.000000	97.693668
2614.000000	97.693509
2613.000000	97.700284
2612.000000	97.712569
2611.000000	97.725648
2610.000000	97.735368
2609.000000	97.741240
2608.000000	97.745377
2607.000000	97.748905
2606.000000	97.751169
2605.000000	97.752602
2604.000000	97.755842
2603.000000	97.762496
2602.000000	97.770496
2601.000000	97.776556
2600.000000	97.779809
2599.000000	97.781158
2598.000000	97.780571
2597.000000	97.777754
2596.000000	97.774785
2595.000000	97.774985
2594.000000	97.778998
2593.000000	97.784292
2592.000000	97.788752
2591.000000	97.792254
2590.000000	97.794240
2589.000000	97.792598
2588.000000	97.786629
2587.000000	97.779437
2586.000000	97.775698
2585.000000	97.778144
2584.000000	97.786927
2583.000000	97.800622
2582.000000	97.815963
2581.000000	97.827826
2580.000000	97.832177
2579.000000	97.829835
2578.000000	97.826093
2577.000000	97.825901
2576.000000	97.829758
2575.000000	97.834419
2574.000000	97.837106
2573.000000	97.838235
2572.000000	97.839808
2571.000000	97.841976
2570.000000	97.842534
2569.000000	97.840182
2568.000000	97.836885
2567.000000	97.835732
2566.000000	97.837288
2565.000000	97.839567
2564.000000	97.841089
2563.000000	97.842037
2562.000000	97.842281
2561.000000	97.840394
2560.000000	97.835821
2559.000000	97.830826
2558.000000	97.829001
2557.000000	97.832295
2556.000000	97.839974
2555.000000	97.849565
2554.000000	97.857752
2553.000000	97.861110
2552.000000	97.857994
2551.000000	97.850848
2550.000000	97.846069
2549.000000	97.849855
2548.000000	97.862728
2547.000000	97.878009
2546.000000	97.886860
2545.000000	97.885773
2544.000000	97.879003
2543.000000	97.873510
2542.000000	97.872344
2541.000000	97.873371
2540.000000	97.873215
2539.000000	97.870955
2538.000000	97.868609
2537.000000	97.869780
2536.000000	97.877661
2535.000000	97.892273
2534.000000	97.908630
2533.000000	97.918935
2532.000000	97.918247
2531.000000	97.908441
2530.000000	97.896325
2529.000000	97.888299
2528.000000	97.886758
2527.000000	97.890280
2526.000000	97.895537
2525.000000	97.898848
2524.000000	97.897798
2523.000000	97.893469
2522.000000	97.891063
2521.000000	97.896180
2520.000000	97.909008
2519.000000	97.923183
2518.000000	97.931762
2517.000000	97.933759
2516.000000	97.933173
2515.000000	97.932574
2514.000000	97.930466
2513.000000	97.925422
2512.000000	97.919817
2511.000000	97.917333
2510.000000	97.918563
2509.000000	97.921262
2508.000000	97.924196
2507.000000	97.928675
2506.000000	97.936168
2505.000000	97.945674
2504.000000	97.953852
2503.000000	97.957672
2502.000000	97.957304
2501.000000	97.956207
2500.000000	97.957334
2499.000000	97.959234
2498.000000	97.957729
2497.000000	97.951842
2496.000000	97.945589
2495.000000	97.942704
2494.000000	97.941990
2493.000000	97.940333
2492.000000	97.938401
2491.000000	97.940046
2490.000000	97.946530
2489.000000	97.954013
2488.000000	97.957332
2487.000000	97.954645
2486.000000	97.948457
2485.000000	97.943804
2484.000000	97.945146
2483.000000	97.953036
2482.000000	97.963389
2481.000000	97.971308
2480.000000	97.976030
2479.000000	97.981047
2478.000000	97.989313
2477.000000	97.999429
2476.000000	98.006690
2475.000000	98.007139
2474.000000	98.000691
2473.000000	97.991178
2472.000000	97.983444
2471.000000	97.979622
2470.000000	97.978341
2469.000000	97.977704
2468.000000	97.977937
2467.000000	97.980205
2466.000000	97.983796
2465.000000	97.985951
2464.000000	97.984346
2463.000000	97.978955
2462.000000	97.972047
2461.000000	97.967169
2460.000000	97.966968
2459.000000	97.970479
2458.000000	97.973207
2457.000000	97.971360
2456.000000	97.966007
2455.000000	97.962088
2454.000000	97.963595
2453.000000	97.970806
2452.000000	97.981486
2451.000000	97.993199
2450.000000	98.004206
2449.000000	98.013003
2448.000000	98.017686
2447.000000	98.016381
2446.000000	98.009304
2445.000000	98.000277
2444.000000	97.994441
2443.000000	97.993610
2442.000000	97.995101
2441.000000	97.995622
2440.000000	97.994558
2439.000000	97.992780
2438.000000	97.990718
2437.000000	97.989308
2436.000000	97.990573
2435.000000	97.994828
2434.000000	97.998889
2433.000000	97.999751
2432.000000	97.999129
2431.000000	98.001792
2430.000000	98.009557
2429.000000	98.018737
2428.000000	98.023330
2427.000000	98.019939
2426.000000	98.010602
2425.000000	98.001949
2424.000000	98.000094
2423.000000	98.004802
2422.000000	98.010158
2421.000000	98.012429
2420.000000	98.014894
2419.000000	98.022288
2418.000000	98.032581
2417.000000	98.038097
2416.000000	98.034454
2415.000000	98.025192
2414.000000	98.017551
2413.000000	98.016267
2412.000000	98.021468
2411.000000	98.029967
2410.000000	98.037673
2409.000000	98.042455
2408.000000	98.045446
2407.000000	98.048902
2406.000000	98.053037
2405.000000	98.055868
2404.000000	98.055442
2403.000000	98.051197
2402.000000	98.044118
2401.000000	98.036851
2400.000000	98.032481
2399.000000	98.031719
2398.000000	98.032452
2397.000000	98.033375
2396.000000	98.036183
2395.000000	98.042256
2394.000000	98.049069
2393.000000	98.052646
2392.000000	98.052310
2391.000000	98.050107
2390.000000	98.046599
2389.000000	98.040407
2388.000000	98.031724
2387.000000	98.023391
2386.000000	98.018364
2385.000000	98.018294
2384.000000	98.024298
2383.000000	98.036615
2382.000000	98.053158
2381.000000	98.070226
2380.000000	98.084659
2379.000000	98.093826
2378.000000	98.094683
2377.000000	98.085912
2376.000000	98.071018
2375.000000	98.056219
2374.000000	98.044927
2373.000000	98.037146
2372.000000	98.033836
2371.000000	98.036915
2370.000000	98.043693
2369.000000	98.046384
2368.000000	98.040532
2367.000000	98.030872
2366.000000	98.025814
2365.000000	98.028511
2364.000000	98.035774
2363.000000	98.042586
2362.000000	98.043861
2361.000000	98.035170
2360.000000	98.016811
2359.000000	97.995992
2358.000000	97.981627
2357.000000	97.976483
2356.000000	97.978146
2355.000000	97.984341
2354.000000	97.993338
2353.000000	97.999876
2352.000000	97.999503
2351.000000	97.995394
2350.000000	97.994120
2349.000000	97.999142
2348.000000	98.007270
2347.000000	98.007157
2346.000000	97.988565
2345.000000	97.957349
2344.000000	97.932282
2343.000000	97.926951
2342.000000	97.940220
2341.000000	97.958817
2340.000000	97.969287
2339.000000	97.967734
2338.000000	97.958739
2337.000000	97.949311
2336.000000	97.944757
2335.000000	97.948141
2334.000000	97.959394
2333.000000	97.975004
2332.000000	97.988392
2331.000000	97.992953
2330.000000	97.984110
2329.000000	97.962419
2328.000000	97.932763
2327.000000	97.901251
2326.000000	97.872014
2325.000000	97.848455
2324.000000	97.835345
2323.000000	97.835823
2322.000000	97.846545
2321.000000	97.859716
2320.000000	97.870647
2319.000000	97.881049
2318.000000	97.893681
2317.000000	97.909047
2316.000000	97.926261
2315.000000	97.944020
2314.000000	97.957989
2313.000000	97.962443
2312.000000	97.955833
2311.000000	97.943834
2310.000000	97.934362
2309.000000	97.931716
2308.000000	97.934903
2307.000000	97.940074
2306.000000	97.943820
2305.000000	97.946408
2304.000000	97.951674
2303.000000	97.961777
2302.000000	97.972416
2301.000000	97.977039
2300.000000	97.975493
2299.000000	97.974953
2298.000000	97.980519
2297.000000	97.989285
2296.000000	97.994990
2295.000000	97.995456
2294.000000	97.992344
2293.000000	97.986781
2292.000000	97.978598
2291.000000	97.969064
2290.000000	97.961834
2289.000000	97.960618
2288.000000	97.965900
2287.000000	97.973088
2286.000000	97.975315
2285.000000	97.970995
2284.000000	97.968443
2283.000000	97.978996
2282.000000	98.004631
2281.000000	98.035467
2280.000000	98.060059
2279.000000	98.074384
2278.000000	98.080379
2277.000000	98.081252
2276.000000	98.080588
2275.000000	98.080959
2274.000000	98.080235
2273.000000	98.073169
2272.000000	98.059499
2271.000000	98.046529
2270.000000	98.041305
2269.000000	98.044408
2268.000000	98.053846
2267.000000	98.069585
2266.000000	98.089622
2265.000000	98.106196
2264.000000	98.112221
2263.000000	98.110052
2262.000000	98.108738
2261.000000	98.113265
2260.000000	98.119890
2259.000000	98.121633
2258.000000	98.116227
2257.000000	98.109060
2256.000000	98.108963
2255.000000	98.118845
2254.000000	98.129640
2253.000000	98.127093
2252.000000	98.107792
2251.000000	98.086476
2250.000000	98.084379
2249.000000	98.109662
2248.000000	98.149359
2247.000000	98.180274
2246.000000	98.188552
2245.000000	98.179887
2244.000000	98.170848
2243.000000	98.170813
2242.000000	98.175443
2241.000000	98.177955
2240.000000	98.179594
2239.000000	98.183932
2238.000000	98.186730
2237.000000	98.180215
2236.000000	98.164445
2235.000000	98.146213
2234.000000	98.129083
2233.000000	98.113190
2232.000000	98.101591
2231.000000	98.095823
2230.000000	98.086693
2229.000000	98.063252
2228.000000	98.033844
2227.000000	98.025718
2226.000000	98.056988
2225.000000	98.115951
2224.000000	98.171887
2223.000000	98.199634
2222.000000	98.192052
2221.000000	98.159804
2220.000000	98.125792
2219.000000	98.110770
2218.000000	98.116856
2217.000000	98.127791
2216.000000	98.127679
2215.000000	98.113805
2214.000000	98.090645
2213.000000	98.062751
2212.000000	98.039713
2211.000000	98.037734
2210.000000	98.065922
2209.000000	98.113077
2208.000000	98.153565
2207.000000	98.166035
2206.000000	98.147408
2205.000000	98.115404
2204.000000	98.097585
2203.000000	98.107937
2202.000000	98.130422
2201.000000	98.134110
2200.000000	98.109019
2199.000000	98.078611
2198.000000	98.072132
2197.000000	98.094085
2196.000000	98.126478
2195.000000	98.151919
2194.000000	98.165042
2193.000000	98.167540
2192.000000	98.161625
2191.000000	98.147074
2190.000000	98.121599
2189.000000	98.088996
2188.000000	98.067864
2187.000000	98.081803
2186.000000	98.134031
2185.000000	98.198605
2184.000000	98.244715
2183.000000	98.265621
2182.000000	98.276383
2181.000000	98.289919
2180.000000	98.305346
2179.000000	98.314455
2178.000000	98.309936
2177.000000	98.289046
2176.000000	98.257351
2175.000000	98.228353
2174.000000	98.215868
2173.000000	98.226505
2172.000000	98.257598
2171.000000	98.296629
2170.000000	98.322667
2169.000000	98.317741
2168.000000	98.283565
2167.000000	98.240937
2166.000000	98.206575
2165.000000	98.175419
2164.000000	98.131062
2163.000000	98.073079
2162.000000	98.028963
2161.000000	98.037346
2160.000000	98.115018
2159.000000	98.235885
2158.000000	98.350061
2157.000000	98.429697
2156.000000	98.483356
2155.000000	98.523256
2154.000000	98.541852
2153.000000	98.530205
2152.000000	98.500481
2151.000000	98.473226
2150.000000	98.451260
2149.000000	98.422516
2148.000000	98.385259
2147.000000	98.354002
2146.000000	98.340668
2145.000000	98.342767
2144.000000	98.352358
2143.000000	98.365577
2142.000000	98.379031
2141.000000	98.384554
2140.000000	98.373391
2139.000000	98.344127
2138.000000	98.306742
2137.000000	98.280562
2136.000000	98.282858
2135.000000	98.312710
2134.000000	98.349213
2133.000000	98.370744
2132.000000	98.372866
2131.000000	98.363872
2130.000000	98.349628
2129.000000	98.330962
2128.000000	98.310070
2127.000000	98.289823
2126.000000	98.268728
2125.000000	98.244794
2124.000000	98.223299
2123.000000	98.212626
2122.000000	98.212280
2121.000000	98.211864
2120.000000	98.203220
2119.000000	98.187769
2118.000000	98.170856
2117.000000	98.154989
2116.000000	98.140629
2115.000000	98.129329
2114.000000	98.123835
2113.000000	98.127294
2112.000000	98.142090
2111.000000	98.166041
2110.000000	98.190097
2109.000000	98.204128
2108.000000	98.205893
2107.000000	98.201384
2106.000000	98.196642
2105.000000	98.192847
2104.000000	98.188161
2103.000000	98.179934
2102.000000	98.166418
2101.000000	98.150887
2100.000000	98.142405
2099.000000	98.147211
2098.000000	98.160477
2097.000000	98.171493
2096.000000	98.176549
2095.000000	98.181452
2094.000000	98.192144
2093.000000	98.207960
2092.000000	98.223442
2091.000000	98.232658
2090.000000	98.233277
2089.000000	98.230210
2088.000000	98.231808
2087.000000	98.237723
2086.000000	98.236095
2085.000000	98.219522
2084.000000	98.198413
2083.000000	98.188838
2082.000000	98.190342
2081.000000	98.187294
2080.000000	98.171093
2079.000000	98.150431
2078.000000	98.138972
2077.000000	98.142856
2076.000000	98.161274
2075.000000	98.188921
2074.000000	98.215977
2073.000000	98.234383
2072.000000	98.246453
2071.000000	98.259418
2070.000000	98.271397
2069.000000	98.273311
2068.000000	98.265764
2067.000000	98.261864
2066.000000	98.270205
2065.000000	98.285703
2064.000000	98.300741
2063.000000	98.314800
2062.000000	98.327868
2061.000000	98.335241
2060.000000	98.334675
2059.000000	98.329818
2058.000000	98.321314
2057.000000	98.303283
2056.000000	98.273850
2055.000000	98.241684
2054.000000	98.217324
2053.000000	98.204196
2052.000000	98.201697
2051.000000	98.210001
2050.000000	98.226035
2049.000000	98.240433
2048.000000	98.246480
2047.000000	98.249936
2046.000000	98.263214
2045.000000	98.291959
2044.000000	98.330969
2043.000000	98.369874
2042.000000	98.399307
2041.000000	98.414623
2040.000000	98.415766
2039.000000	98.402621
2038.000000	98.375599
2037.000000	98.345447
2036.000000	98.333499
2035.000000	98.351214
2034.000000	98.385887
2033.000000	98.416049
2032.000000	98.434214
2031.000000	98.446004
2030.000000	98.458310
2029.000000	98.480299
2028.000000	98.521306
2027.000000	98.572414
2026.000000	98.604376
2025.000000	98.600640
2024.000000	98.578671
2023.000000	98.559701
2022.000000	98.535497
2021.000000	98.490618
2020.000000	98.439682
2019.000000	98.411909
2018.000000	98.410797
2017.000000	98.417430
2016.000000	98.425613
2015.000000	98.443622
2014.000000	98.467636
2013.000000	98.484123
2012.000000	98.494505
2011.000000	98.511457
2010.000000	98.532791
2009.000000	98.544555
2008.000000	98.548200
2007.000000	98.557713
2006.000000	98.570818
2005.000000	98.571459
2004.000000	98.559938
2003.000000	98.555126
2002.000000	98.566309
2001.000000	98.584161
2000.000000	98.597038
1999.000000	98.599320
1998.000000	98.587912
1997.000000	98.566285
1996.000000	98.548863
1995.000000	98.546342
1994.000000	98.552129
1993.000000	98.554841
1992.000000	98.555810
1991.000000	98.558393
1990.000000	98.551756
1989.000000	98.528007
1988.000000	98.502193
1987.000000	98.491790
1986.000000	98.488508
1985.000000	98.474665
1984.000000	98.454696
1983.000000	98.442560
1982.000000	98.429715
1981.000000	98.399420
1980.000000	98.364668
1979.000000	98.355410
1978.000000	98.372767
1977.000000	98.394940
1976.000000	98.427514
1975.000000	98.495040
1974.000000	98.581813
1973.000000	98.637212
1972.000000	98.643791
1971.000000	98.630498
1970.000000	98.614462
1969.000000	98.579490
1968.000000	98.522265
1967.000000	98.477726
1966.000000	98.477833
1965.000000	98.517492
1964.000000	98.576881
1963.000000	98.644223
1962.000000	98.705330
1961.000000	98.742733
1960.000000	98.757765
1959.000000	98.767247
1958.000000	98.771689
1957.000000	98.754213
1956.000000	98.714612
1955.000000	98.675441
1954.000000	98.649457
1953.000000	98.625681
1952.000000	98.595227
1951.000000	98.569045
1950.000000	98.559291
1949.000000	98.562042
1948.000000	98.565898
1947.000000	98.563179
1946.000000	98.547604
1945.000000	98.516310
1944.000000	98.480122
1943.000000	98.459266
1942.000000	98.462911
1941.000000	98.483682
1940.000000	98.513636
1939.000000	98.548053
1938.000000	98.574106
1937.000000	98.576696
1936.000000	98.560764
1935.000000	98.549295
1934.000000	98.553727
1933.000000	98.561465
1932.000000	98.557992
1931.000000	98.546348
1930.000000	98.536954
1929.000000	98.534425
1928.000000	98.537492
1927.000000	98.542927
1926.000000	98.545402
1925.000000	98.540916
1924.000000	98.533719
1923.000000	98.527457
1922.000000	98.514083
1921.000000	98.486410
1920.000000	98.457096
1919.000000	98.450655
1918.000000	98.472891
1917.000000	98.499727
1916.000000	98.511209
1915.000000	98.513427
1914.000000	98.517992
1913.000000	98.524170
1912.000000	98.527670
1911.000000	98.531509
1910.000000	98.538157
1909.000000	98.541972
1908.000000	98.536903
1907.000000	98.525536
1906.000000	98.513100
1905.000000	98.500729
1904.000000	98.491515
1903.000000	98.490599
1902.000000	98.497128
1901.000000	98.504370
1900.000000	98.508783
1899.000000	98.513190
1898.000000	98.519315
1897.000000	98.524181
1896.000000	98.527312
1895.000000	98.531688
1894.000000	98.536097
1893.000000	98.535581
1892.000000	98.530273
1891.000000	98.525278
1890.000000	98.521186
1889.000000	98.514099
1888.000000	98.506666
1887.000000	98.505382
1886.000000	98.509012
1885.000000	98.510731
1884.000000	98.509714
1883.000000	98.511560
1882.000000	98.516995
1881.000000	98.521686
1880.000000	98.526151
1879.000000	98.535356
1878.000000	98.547627
1877.000000	98.553447
1876.000000	98.550365
1875.000000	98.547851
1874.000000	98.551414
1873.000000	98.554103
1872.000000	98.548844
1871.000000	98.539594
1870.000000	98.535552
1869.000000	98.538399
1868.000000	98.542279
1867.000000	98.543935
1866.000000	98.541874
1865.000000	98.535259
1864.000000	98.529057
1863.000000	98.531434
1862.000000	98.543374
1861.000000	98.556766
1860.000000	98.564758
1859.000000	98.567716
1858.000000	98.567466
1857.000000	98.564201
1856.000000	98.561506
1855.000000	98.565860
1854.000000	98.576120
1853.000000	98.582793
1852.000000	98.578847
1851.000000	98.566884
1850.000000	98.556988
1849.000000	98.557877
1848.000000	98.572039
1847.000000	98.593388
1846.000000	98.609681
1845.000000	98.612248
1844.000000	98.604580
1843.000000	98.596494
1842.000000	98.591190
1841.000000	98.588891
1840.000000	98.592033
1839.000000	98.600421
1838.000000	98.606186
1837.000000	98.601823
1836.000000	98.593740
1835.000000	98.593760
1834.000000	98.600892
1833.000000	98.603946
1832.000000	98.598469
1831.000000	98.594158
1830.000000	98.600988
1829.000000	98.613053
1828.000000	98.621097
1827.000000	98.624676
1826.000000	98.627637
1825.000000	98.630532
1824.000000	98.631899
1823.000000	98.632470
1822.000000	98.631541
1821.000000	98.627830
1820.000000	98.624219
1819.000000	98.627393
1818.000000	98.638612
1817.000000	98.650701
1816.000000	98.658497
1815.000000	98.661728
1814.000000	98.660104
1813.000000	98.653129
1812.000000	98.645438
1811.000000	98.644984
1810.000000	98.648863
1809.000000	98.646198
1808.000000	98.636342
1807.000000	98.628582
1806.000000	98.626386
1805.000000	98.623635
1804.000000	98.617869
1803.000000	98.613755
1802.000000	98.614256
1801.000000	98.615327
1800.000000	98.614211
1799.000000	98.616861
1798.000000	98.625906
1797.000000	98.636489
1796.000000	98.645643
1795.000000	98.653922
1794.000000	98.659715
1793.000000	98.659423
1792.000000	98.653219
1791.000000	98.647712
1790.000000	98.644559
1789.000000	98.639827
1788.000000	98.635063
1787.000000	98.637581
1786.000000	98.650654
1785.000000	98.667515
1784.000000	98.679900
1783.000000	98.684114
1782.000000	98.681055
1781.000000	98.674274
1780.000000	98.669720
1779.000000	98.675610
1778.000000	98.691600
1777.000000	98.711722
1776.000000	98.731179
1775.000000	98.744230
1774.000000	98.744124
1773.000000	98.732843
1772.000000	98.722098
1771.000000	98.720161
1770.000000	98.721871
1769.000000	98.716747
1768.000000	98.706294
1767.000000	98.701699
1766.000000	98.705957
1765.000000	98.710695
1764.000000	98.710146
1763.000000	98.708827
1762.000000	98.714246
1761.000000	98.722462
1760.000000	98.725403
1759.000000	98.724686
1758.000000	98.725064
1757.000000	98.729473
1756.000000	98.735901
1755.000000	98.741462
1754.000000	98.744152
1753.000000	98.741334
1752.000000	98.735488
1751.000000	98.736778
1750.000000	98.743541
1749.000000	98.740455
1748.000000	98.728066
1747.000000	98.719260
1746.000000	98.718029
1745.000000	98.717692
1744.000000	98.715948
1743.000000	98.717998
1742.000000	98.721103
1741.000000	98.714365
1740.000000	98.700904
1739.000000	98.699321
1738.000000	98.715758
1737.000000	98.739797
1736.000000	98.760951
1735.000000	98.790621
1734.000000	98.840223
1733.000000	98.867395
1732.000000	98.843847
1731.000000	98.803372
1730.000000	98.778100
1729.000000	98.767362
1728.000000	98.761173
1727.000000	98.758805
1726.000000	98.762059
1725.000000	98.763658
1724.000000	98.757996
1723.000000	98.753727
1722.000000	98.757698
1721.000000	98.765400
1720.000000	98.771669
1719.000000	98.782737
1718.000000	98.800623
1717.000000	98.797083
1716.000000	98.754000
1715.000000	98.697475
1714.000000	98.650969
1713.000000	98.608141
1712.000000	98.558859
1711.000000	98.507593
1710.000000	98.459505
1709.000000	98.406437
1708.000000	98.335979
1707.000000	98.248068
1706.000000	98.151188
1705.000000	98.055678
1704.000000	97.977628
1703.000000	97.916683
1702.000000	97.831781
1701.000000	97.684757
1700.000000	97.513415
1699.000000	97.399166
1698.000000	97.328450
1697.000000	97.219229
1696.000000	97.032333
1695.000000	96.824479
1694.000000	96.651055
1693.000000	96.502348
1692.000000	96.361960
1691.000000	96.224380
1690.000000	96.091489
1689.000000	95.976269
1688.000000	95.894502
1687.000000	95.838648
1686.000000	95.753640
1685.000000	95.559154
1684.000000	95.255976
1683.000000	94.987967
1682.000000	94.806060
1681.000000	94.640366
1680.000000	94.459664
1679.000000	94.284171
1678.000000	94.127131
1677.000000	93.952926
1676.000000	93.715688
1675.000000	93.438034
1674.000000	93.198840
1673.000000	93.014038
1672.000000	92.834314
1671.000000	92.615582
1670.000000	92.342219
1669.000000	92.046082
1668.000000	91.787041
1667.000000	91.590346
1666.000000	91.433356
1665.000000	91.268833
1664.000000	91.057024
1663.000000	90.802313
1662.000000	90.555429
1661.000000	90.352592
1660.000000	90.183665
1659.000000	90.038517
1658.000000	89.927049
1657.000000	89.863455
1656.000000	89.837669
1655.000000	89.800038
1654.000000	89.657150
1653.000000	89.388049
1652.000000	89.176998
1651.000000	89.078530
1650.000000	89.024234
1649.000000	88.981013
1648.000000	88.903506
1647.000000	88.771993
1646.000000	88.647397
1645.000000	88.574825
1644.000000	88.528752
1643.000000	88.491037
1642.000000	88.458955
1641.000000	88.425777
1640.000000	88.390882
1639.000000	88.366094
1638.000000	88.347364
1637.000000	88.293719
1636.000000	88.168802
1635.000000	88.030990
1634.000000	87.961932
1633.000000	87.945481
1632.000000	87.947213
1631.000000	87.958471
1630.000000	87.980148
1629.000000	88.013800
1628.000000	88.061623
1627.000000	88.128798
1626.000000	88.218203
1625.000000	88.326930
1624.000000	88.455531
1623.000000	88.610208
1622.000000	88.786990
1621.000000	88.973201
1620.000000	89.163719
1619.000000	89.361189
1618.000000	89.568220
1617.000000	89.786617
1616.000000	90.001062
1615.000000	90.188507
1614.000000	90.357717
1613.000000	90.535964
1612.000000	90.735024
1611.000000	90.945657
1610.000000	91.154133
1609.000000	91.357571
1608.000000	91.558274
1607.000000	91.750661
1606.000000	91.927562
1605.000000	92.092923
1604.000000	92.253534
1603.000000	92.408070
1602.000000	92.551800
1601.000000	92.686569
1600.000000	92.815696
1599.000000	92.934892
1598.000000	93.039367
1597.000000	93.132988
1596.000000	93.221370
1595.000000	93.300907
1594.000000	93.365986
1593.000000	93.420777
1592.000000	93.470989
1591.000000	93.512485
1590.000000	93.539830
1589.000000	93.558372
1588.000000	93.573753
1587.000000	93.579298
1586.000000	93.566502
1585.000000	93.540874
1584.000000	93.510123
1583.000000	93.466666
1582.000000	93.403175
1581.000000	93.335867
1580.000000	93.290747
1579.000000	93.268482
1578.000000	93.234542
1577.000000	93.143530
1576.000000	92.993356
1575.000000	92.834983
1574.000000	92.706515
1573.000000	92.610077
1572.000000	92.523182
1571.000000	92.405616
1570.000000	92.234207
1569.000000	92.049680
1568.000000	91.905155
1567.000000	91.785962
1566.000000	91.652589
1565.000000	91.504362
1564.000000	91.379025
1563.000000	91.311570
1562.000000	91.290153
1561.000000	91.253061
1560.000000	91.107223
1559.000000	90.771452
1558.000000	90.440635
1557.000000	90.296560
1556.000000	90.221355
1555.000000	90.128815
1554.000000	90.015652
1553.000000	89.909178
1552.000000	89.823551
1551.000000	89.743598
1550.000000	89.659405
1549.000000	89.586554
1548.000000	89.546212
1547.000000	89.531572
1546.000000	89.523542
1545.000000	89.513049
1544.000000	89.504627
1543.000000	89.504585
1542.000000	89.504604
1541.000000	89.481931
1540.000000	89.443215
1539.000000	89.441796
1538.000000	89.481088
1537.000000	89.526585
1536.000000	89.575446
1535.000000	89.630169
1534.000000	89.694374
1533.000000	89.776134
1532.000000	89.872909
1531.000000	89.974150
1530.000000	90.073055
1529.000000	90.170477
1528.000000	90.269859
1527.000000	90.372652
1526.000000	90.480125
1525.000000	90.592950
1524.000000	90.710287
1523.000000	90.831292
1522.000000	90.950132
1521.000000	91.050826
1520.000000	91.123589
1519.000000	91.182922
1518.000000	91.255644
1517.000000	91.352755
1516.000000	91.463130
1515.000000	91.575184
1514.000000	91.690016
1513.000000	91.812471
1512.000000	91.944503
1511.000000	92.086630
1510.000000	92.240133
1509.000000	92.401222
1508.000000	92.563045
1507.000000	92.720452
1506.000000	92.867070
1505.000000	92.984650
1504.000000	93.067152
1503.000000	93.144765
1502.000000	93.241950
1501.000000	93.355390
1500.000000	93.475138
1499.000000	93.602150
1498.000000	93.741625
1497.000000	93.881604
1496.000000	94.001944
1495.000000	94.098694
1494.000000	94.181327
1493.000000	94.258448
1492.000000	94.336043
1491.000000	94.424367
1490.000000	94.524198
1489.000000	94.610086
1488.000000	94.664789
1487.000000	94.702965
1486.000000	94.736921
1485.000000	94.763766
1484.000000	94.779758
1483.000000	94.787514
1482.000000	94.789817
1481.000000	94.781961
1480.000000	94.762558
1479.000000	94.737079
1478.000000	94.707569
1477.000000	94.669301
1476.000000	94.623307
1475.000000	94.573675
1474.000000	94.506720
1473.000000	94.397940
1472.000000	94.262048
1471.000000	94.148910
1470.000000	94.070037
1469.000000	94.004614
1468.000000	93.938950
1467.000000	93.866039
1466.000000	93.773999
1465.000000	93.657109
1464.000000	93.539678
1463.000000	93.454920
1462.000000	93.402784
1461.000000	93.366992
1460.000000	93.337312
1459.000000	93.298552
1458.000000	93.208793
1457.000000	93.043982
1456.000000	92.875566
1455.000000	92.764555
1454.000000	92.697398
1453.000000	92.656870
1452.000000	92.634109
1451.000000	92.624306
1450.000000	92.622644
1449.000000	92.621565
1448.000000	92.622368
1447.000000	92.634793
1446.000000	92.663352
1445.000000	92.703511
1444.000000	92.749785
1443.000000	92.802142
1442.000000	92.861566
1441.000000	92.927689
1440.000000	92.998916
1439.000000	93.072021
1438.000000	93.143372
1437.000000	93.216388
1436.000000	93.296151
1435.000000	93.376248
1434.000000	93.449761
1433.000000	93.516596
1432.000000	93.575677
1431.000000	93.626347
1430.000000	93.673351
1429.000000	93.720194
1428.000000	93.765526
1427.000000	93.804959
1426.000000	93.834440
1425.000000	93.852811
1424.000000	93.863449
1423.000000	93.879951
1422.000000	93.912402
1421.000000	93.949823
1420.000000	93.969609
1419.000000	93.961708
1418.000000	93.940003
1417.000000	93.921605
1416.000000	93.910010
1415.000000	93.902664
1414.000000	93.896176
1413.000000	93.884809
1412.000000	93.862106
1411.000000	93.828401
1410.000000	93.792511
1409.000000	93.760628
1408.000000	93.732395
1407.000000	93.704785
1406.000000	93.674492
1405.000000	93.642592
1404.000000	93.618098
1403.000000	93.611456
1402.000000	93.620932
1401.000000	93.635561
1400.000000	93.650170
1399.000000	93.671784
1398.000000	93.708107
1397.000000	93.752649
1396.000000	93.791629
1395.000000	93.818370
1394.000000	93.839017
1393.000000	93.862884
1392.000000	93.892488
1391.000000	93.927740
1390.000000	93.966535
1389.000000	94.001540
1388.000000	94.024980
1387.000000	94.037371
1386.000000	94.047207
1385.000000	94.061984
1384.000000	94.084244
1383.000000	94.114933
1382.000000	94.153042
1381.000000	94.193502
1380.000000	94.230694
1379.000000	94.263595
1378.000000	94.296623
1377.000000	94.334873
1376.000000	94.380103
1375.000000	94.429833
1374.000000	94.480502
1373.000000	94.532159
1372.000000	94.587831
1371.000000	94.648598
1370.000000	94.713062
1369.000000	94.780007
1368.000000	94.848930
1367.000000	94.920075
1366.000000	94.993277
1365.000000	95.067194
1364.000000	95.138582
1363.000000	95.200463
1362.000000	95.245804
1361.000000	95.275045
1360.000000	95.295140
1359.000000	95.312277
1358.000000	95.328139
1357.000000	95.339720
1356.000000	95.341615
1355.000000	95.330158
1354.000000	95.306316
1353.000000	95.273225
1352.000000	95.233548
1351.000000	95.188665
1350.000000	95.139757
1349.000000	95.088907
1348.000000	95.036889
1347.000000	94.982630
1346.000000	94.924871
1345.000000	94.864330
1344.000000	94.804198
1343.000000	94.747713
1342.000000	94.694785
1341.000000	94.641453
1340.000000	94.584391
1339.000000	94.527631
1338.000000	94.481644
1337.000000	94.454048
1336.000000	94.446160
1335.000000	94.455931
1334.000000	94.479473
1333.000000	94.512274
1332.000000	94.551291
1331.000000	94.595757
1330.000000	94.645451
1329.000000	94.698565
1328.000000	94.752109
1327.000000	94.802825
1326.000000	94.847181
1325.000000	94.882230
1324.000000	94.907507
1323.000000	94.925891
1322.000000	94.941238
1321.000000	94.955182
1320.000000	94.967055
1319.000000	94.976595
1318.000000	94.985448
1317.000000	94.996248
1316.000000	95.011571
1315.000000	95.033176
1314.000000	95.060447
1313.000000	95.090218
1312.000000	95.120213
1311.000000	95.151721
1310.000000	95.186807
1309.000000	95.223681
1308.000000	95.257592
1307.000000	95.285881
1306.000000	95.310125
1305.000000	95.333507
1304.000000	95.357953
1303.000000	95.383808
1302.000000	95.409497
1301.000000	95.431334
1300.000000	95.446235
1299.000000	95.455418
1298.000000	95.462722
1297.000000	95.468818
1296.000000	95.469875
1295.000000	95.462480
1294.000000	95.447179
1293.000000	95.425493
1292.000000	95.396773
1291.000000	95.360223
1290.000000	95.317341
1289.000000	95.270647
1288.000000	95.221867
1287.000000	95.172966
1286.000000	95.126954
1285.000000	95.086033
1284.000000	95.050537
1283.000000	95.020602
1282.000000	94.997195
1281.000000	94.980887
1280.000000	94.971500
1279.000000	94.968950
1278.000000	94.972753
1277.000000	94.980516
1276.000000	94.988794
1275.000000	94.996463
1274.000000	95.005340
1273.000000	95.016440
1272.000000	95.026877
1271.000000	95.031595
1270.000000	95.027485
1269.000000	95.015004
1268.000000	94.996725
1267.000000	94.975445
1266.000000	94.953389
1265.000000	94.931767
1264.000000	94.910627
1263.000000	94.888661
1262.000000	94.862774
1261.000000	94.829463
1260.000000	94.787482
1259.000000	94.738482
1258.000000	94.684475
1257.000000	94.626123
1256.000000	94.564976
1255.000000	94.504339
1254.000000	94.445200
1253.000000	94.383304
1252.000000	94.313169
1251.000000	94.234239
1250.000000	94.150377
1249.000000	94.064973
1248.000000	93.979798
1247.000000	93.897264
1246.000000	93.819901
1245.000000	93.747513
1244.000000	93.677625
1243.000000	93.608479
1242.000000	93.540439
1241.000000	93.475947
1240.000000	93.420301
1239.000000	93.380367
1238.000000	93.358807
1237.000000	93.351719
1236.000000	93.353707
1235.000000	93.363586
1234.000000	93.384207
1233.000000	93.418806
1232.000000	93.470689
1231.000000	93.542807
1230.000000	93.634486
1229.000000	93.740804
1228.000000	93.856338
1227.000000	93.978358
1226.000000	94.104675
1225.000000	94.231179
1224.000000	94.354291
1223.000000	94.473894
1222.000000	94.591809
1221.000000	94.708075
1220.000000	94.819922
1219.000000	94.922575
1218.000000	95.010209
1217.000000	95.077765
1216.000000	95.124859
1215.000000	95.157636
1214.000000	95.182663
1213.000000	95.199541
1212.000000	95.201631
1211.000000	95.184509
1210.000000	95.151319
1209.000000	95.108551
1208.000000	95.061274
1207.000000	95.014032
1206.000000	94.972575
1205.000000	94.941559
1204.000000	94.922094
1203.000000	94.913482
1202.000000	94.916541
1201.000000	94.934313
1200.000000	94.969501
1199.000000	95.022179
1198.000000	95.088732
1197.000000	95.163359
1196.000000	95.242044
1195.000000	95.324288
1194.000000	95.410379
1193.000000	95.496825
1192.000000	95.576819
1191.000000	95.646957
1190.000000	95.712109
1189.000000	95.780890
1188.000000	95.855811
1187.000000	95.929546
1186.000000	95.991606
1185.000000	96.038183
1184.000000	96.074198
1183.000000	96.106997
1182.000000	96.139754
1181.000000	96.170627
1180.000000	96.197410
1179.000000	96.221010
1178.000000	96.243684
1177.000000	96.265365
1176.000000	96.283457
1175.000000	96.296445
1174.000000	96.305817
1173.000000	96.313834
1172.000000	96.320850
1171.000000	96.325472
1170.000000	96.326519
1169.000000	96.323865
1168.000000	96.318048
1167.000000	96.309883
1166.000000	96.300056
1165.000000	96.289289
1164.000000	96.279498
1163.000000	96.273997
1162.000000	96.274929
1161.000000	96.281292
1160.000000	96.291358
1159.000000	96.306587
1158.000000	96.330880
1157.000000	96.365639
1156.000000	96.408383
1155.000000	96.456046
1154.000000	96.506662
1153.000000	96.557464
1152.000000	96.604580
1151.000000	96.647023
1150.000000	96.688622
1149.000000	96.733416
1148.000000	96.780694
1147.000000	96.826801
1146.000000	96.870140
1145.000000	96.911851
1144.000000	96.952480
1143.000000	96.990128
1142.000000	97.021872
1141.000000	97.045678
1140.000000	97.062052
1139.000000	97.075369
1138.000000	97.091750
1137.000000	97.113560
1136.000000	97.136728
1135.000000	97.155173
1134.000000	97.166836
1133.000000	97.173656
1132.000000	97.177608
1131.000000	97.179303
1130.000000	97.179398
1129.000000	97.178949
1128.000000	97.178734
1127.000000	97.179875
1126.000000	97.183917
1125.000000	97.190639
1124.000000	97.197259
1123.000000	97.201742
1122.000000	97.205454
1121.000000	97.210445
1120.000000	97.215727
1119.000000	97.218821
1118.000000	97.219700
1117.000000	97.220381
1116.000000	97.221267
1115.000000	97.220372
1114.000000	97.215983
1113.000000	97.208271
1112.000000	97.198993
1111.000000	97.190978
1110.000000	97.186470
1109.000000	97.184130
1108.000000	97.179005
1107.000000	97.167721
1106.000000	97.152821
1105.000000	97.140543
1104.000000	97.135509
1103.000000	97.138321
1102.000000	97.145153
1101.000000	97.147847
1100.000000	97.137451
1099.000000	97.112145
1098.000000	97.080577
1097.000000	97.053830
1096.000000	97.035421
1095.000000	97.020994
1094.000000	97.005190
1093.000000	96.984403
1092.000000	96.954450
1091.000000	96.911154
1090.000000	96.853928
1089.000000	96.786236
1088.000000	96.712339
1087.000000	96.635883
1086.000000	96.560740
1085.000000	96.490071
1084.000000	96.425181
1083.000000	96.367919
1082.000000	96.323922
1081.000000	96.300546
1080.000000	96.302325
1079.000000	96.329177
1078.000000	96.377081
1077.000000	96.438001
1076.000000	96.499958
1075.000000	96.552942
1074.000000	96.596499
1073.000000	96.638224
1072.000000	96.683237
1071.000000	96.727319
1070.000000	96.761294
1069.000000	96.779524
1068.000000	96.783304
1067.000000	96.779351
1066.000000	96.776864
1065.000000	96.781983
1064.000000	96.792346
1063.000000	96.799857
1062.000000	96.801037
1061.000000	96.802084
1060.000000	96.810713
1059.000000	96.826326
1058.000000	96.842764
1057.000000	96.858410
1056.000000	96.877392
1055.000000	96.900414
1054.000000	96.920762
1053.000000	96.932491
1052.000000	96.938732
1051.000000	96.947932
1050.000000	96.963582
1049.000000	96.981528
1048.000000	96.996405
1047.000000	97.006836
1046.000000	97.014447
1045.000000	97.020911
1044.000000	97.026713
1043.000000	97.031000
1042.000000	97.031306
1041.000000	97.024504
1040.000000	97.008355
1039.000000	96.981311
1038.000000	96.941862
1037.000000	96.889868
1036.000000	96.829358
1035.000000	96.768497
1034.000000	96.715712
1033.000000	96.676537
1032.000000	96.653871
1031.000000	96.648345
1030.000000	96.656798
1029.000000	96.673347
1028.000000	96.693922
1027.000000	96.718844
1026.000000	96.749481
1025.000000	96.784032
1024.000000	96.818824
1023.000000	96.851810
1022.000000	96.882354
1021.000000	96.908836
1020.000000	96.929871
1019.000000	96.948157
1018.000000	96.969908
1017.000000	96.999125
1016.000000	97.034551
1015.000000	97.073253
1014.000000	97.114910
1013.000000	97.160391
1012.000000	97.207528
1011.000000	97.251449
1010.000000	97.289856
1009.000000	97.326525
1008.000000	97.368053
1007.000000	97.417140
1006.000000	97.469556
1005.000000	97.517578
1004.000000	97.556495
1003.000000	97.588291
1002.000000	97.619556
1001.000000	97.655898
1000.000000	97.697990
999.000000	97.742496
998.000000	97.786467
997.000000	97.830185
996.000000	97.875296
995.000000	97.920607
994.000000	97.961184
993.000000	97.992881
992.000000	98.017147
991.000000	98.039685
990.000000	98.064190
989.000000	98.088907
988.000000	98.110196
987.000000	98.127292
986.000000	98.141185
985.000000	98.150601
984.000000	98.152728
983.000000	98.148509
982.000000	98.144016
981.000000	98.144342
980.000000	98.147526
979.000000	98.146175
978.000000	98.134629
977.000000	98.113990
976.000000	98.091384
975.000000	98.075240
974.000000	98.070419
973.000000	98.076830
972.000000	98.091675
971.000000	98.111913
970.000000	98.134115
969.000000	98.154325
968.000000	98.171090
967.000000	98.187712
966.000000	98.208564
965.000000	98.232905
964.000000	98.255422
963.000000	98.273248
962.000000	98.289005
961.000000	98.305738
960.000000	98.322359
959.000000	98.336626
958.000000	98.349744
957.000000	98.365200
956.000000	98.384692
955.000000	98.407550
954.000000	98.432119
953.000000	98.454728
952.000000	98.469256
951.000000	98.471623
950.000000	98.464532
949.000000	98.455006
948.000000	98.447670
947.000000	98.442778
946.000000	98.439620
945.000000	98.438211
944.000000	98.437579
943.000000	98.435993
942.000000	98.434028
941.000000	98.434711
940.000000	98.439116
939.000000	98.444063
938.000000	98.446096
937.000000	98.446371
936.000000	98.449347
935.000000	98.457301
934.000000	98.468189
933.000000	98.479439
932.000000	98.492073
931.000000	98.508978
930.000000	98.529548
929.000000	98.548279
928.000000	98.559901
927.000000	98.564719
926.000000	98.567113
925.000000	98.569814
924.000000	98.572031
923.000000	98.573052
922.000000	98.574702
921.000000	98.579182
920.000000	98.586868
919.000000	98.597487
918.000000	98.611380
917.000000	98.627804
916.000000	98.643935
915.000000	98.657768
914.000000	98.670890
913.000000	98.686314
912.000000	98.704311
911.000000	98.722275
910.000000	98.737793
909.000000	98.750036
908.000000	98.758942
907.000000	98.765246
906.000000	98.771084
905.000000	98.778345
904.000000	98.786125
903.000000	98.791397
902.000000	98.792643
901.000000	98.791714
900.000000	98.791742
899.000000	98.793725
898.000000	98.795257
897.000000	98.792652
896.000000	98.785222
895.000000	98.778038
894.000000	98.779042
893.000000	98.791826
892.000000	98.811495
891.000000	98.827947
890.000000	98.832852
889.000000	98.823939
888.000000	98.804780
887.000000	98.782184
886.000000	98.762461
885.000000	98.747798
884.000000	98.736333
883.000000	98.725717
882.000000	98.714453
881.000000	98.699197
880.000000	98.673626
879.000000	98.633422
878.000000	98.581965
877.000000	98.529444
876.000000	98.487242
875.000000	98.464220
874.000000	98.465528
873.000000	98.490251
872.000000	98.529886
871.000000	98.571974
870.000000	98.607644
869.000000	98.635700
868.000000	98.659779
867.000000	98.683030
866.000000	98.705208
865.000000	98.723729
864.000000	98.736949
863.000000	98.746350
862.000000	98.754397
861.000000	98.760008
860.000000	98.758837
859.000000	98.749780
858.000000	98.739009
857.000000	98.734237
856.000000	98.735985
855.000000	98.737947
854.000000	98.734769
853.000000	98.725806
852.000000	98.712270
851.000000	98.696258
850.000000	98.683702
849.000000	98.682616
848.000000	98.695039
847.000000	98.714413
846.000000	98.734108
845.000000	98.754130
844.000000	98.775085
843.000000	98.790011
842.000000	98.790133
841.000000	98.778219
840.000000	98.768561
839.000000	98.771916
838.000000	98.785753
837.000000	98.801129
836.000000	98.812858
835.000000	98.818867
834.000000	98.815745
833.000000	98.802612
832.000000	98.787799
831.000000	98.784551
830.000000	98.798092
829.000000	98.819950
828.000000	98.835713
827.000000	98.836411
826.000000	98.823188
825.000000	98.804942
824.000000	98.791926
823.000000	98.787752
822.000000	98.786479
821.000000	98.779878
820.000000	98.767294
819.000000	98.755215
818.000000	98.747958
817.000000	98.743414
816.000000	98.738968
815.000000	98.737362
814.000000	98.743453
813.000000	98.756745
812.000000	98.769945
811.000000	98.775036
810.000000	98.770406
809.000000	98.762424
808.000000	98.759188
807.000000	98.762072
806.000000	98.765004
805.000000	98.763324
804.000000	98.760048
803.000000	98.759817
802.000000	98.760738
801.000000	98.758655
800.000000	98.756930
799.000000	98.762779
798.000000	98.772895
797.000000	98.772383
796.000000	98.752381
795.000000	98.721969
794.000000	98.697848
793.000000	98.687469
792.000000	98.686127
791.000000	98.685022
790.000000	98.677852
789.000000	98.664189
788.000000	98.650891
787.000000	98.646302
786.000000	98.649166
785.000000	98.647792
784.000000	98.634603
783.000000	98.616543
782.000000	98.605711
781.000000	98.604354
780.000000	98.605158
779.000000	98.602158
778.000000	98.594390
777.000000	98.582150
776.000000	98.567422
775.000000	98.556253
774.000000	98.553322
773.000000	98.554849
772.000000	98.553407
771.000000	98.548719
770.000000	98.546520
769.000000	98.547270
768.000000	98.544347
767.000000	98.535155
766.000000	98.526259
765.000000	98.523416
764.000000	98.522366
763.000000	98.514402
762.000000	98.497139
761.000000	98.475300
760.000000	98.453765
759.000000	98.434662
758.000000	98.419872
757.000000	98.410800
756.000000	98.404146
755.000000	98.391725
754.000000	98.368171
753.000000	98.338538
752.000000	98.314949
751.000000	98.304084
750.000000	98.300145
749.000000	98.292672
748.000000	98.279364
747.000000	98.266856
746.000000	98.259275
745.000000	98.251654
744.000000	98.237239
743.000000	98.216589
742.000000	98.195308
741.000000	98.176022
740.000000	98.156785
739.000000	98.136026
738.000000	98.115620
737.000000	98.099318
736.000000	98.089380
735.000000	98.082926
734.000000	98.071068
733.000000	98.045809
732.000000	98.010659
731.000000	97.980455
730.000000	97.965800
729.000000	97.959770
728.000000	97.944142
727.000000	97.907067
726.000000	97.852053
725.000000	97.792671
724.000000	97.742952
723.000000	97.710094
722.000000	97.690289
721.000000	97.672033
720.000000	97.647893
719.000000	97.622584
718.000000	97.605825
717.000000	97.597549
716.000000	97.585355
715.000000	97.559792
714.000000	97.527716
713.000000	97.505584
712.000000	97.500240
711.000000	97.500266
710.000000	97.488122
709.000000	97.458017
708.000000	97.419454
707.000000	97.384503
706.000000	97.355815
705.000000	97.329084
704.000000	97.302177
703.000000	97.276276
702.000000	97.250722
701.000000	97.223786
700.000000	97.198683
699.000000	97.182257
698.000000	97.175399
697.000000	97.170436
696.000000	97.161438
695.000000	97.151916
694.000000	97.148855
693.000000	97.152506
692.000000	97.155697
691.000000	97.151212
690.000000	97.136571
689.000000	97.114859
688.000000	97.093087
687.000000	97.075746
686.000000	97.059018
685.000000	97.035277
684.000000	97.004009
683.000000	96.973357
682.000000	96.949555
681.000000	96.931643
680.000000	96.916884
679.000000	96.904692
678.000000	96.891300
677.000000	96.870255
676.000000	96.843275
675.000000	96.818926
674.000000	96.799496
673.000000	96.777631
672.000000	96.747395
671.000000	96.713821
670.000000	96.683837
669.000000	96.660489
668.000000	96.622209
667.000000	96.572883
666.000000	96.561540
665.000000	96.574468
664.000000	96.574340
663.000000	96.557466
662.000000	96.542915
661.000000	96.545262
660.000000	96.558360
659.000000	96.566560
658.000000	96.559862
657.000000	96.540018
656.000000	96.519544
655.000000	96.512396
654.000000	96.521032
653.000000	96.530758
652.000000	96.522561
651.000000	96.493420
650.000000	96.461293
649.000000	96.447189
648.000000	96.454750
647.000000	96.469704
646.000000	96.476690
645.000000	96.474371
644.000000	96.473194
643.000000	96.481089
642.000000	96.494616
641.000000	96.504168
640.000000	96.505334
639.000000	96.501635
638.000000	96.497628
637.000000	96.493909
636.000000	96.488161
635.000000	96.476816
634.000000	96.457541
633.000000	96.434916
632.000000	96.421796
631.000000	96.428368
630.000000	96.449381
629.000000	96.469228
628.000000	96.479151
627.000000	96.480966
626.000000	96.474628
625.000000	96.455249
624.000000	96.427401
623.000000	96.408917
622.000000	96.410531
621.000000	96.419789
620.000000	96.415191
619.000000	96.391530
618.000000	96.363753
617.000000	96.349593
616.000000	96.356150
615.000000	96.381256
614.000000	96.417315
613.000000	96.452336
612.000000	96.473950
611.000000	96.474733
610.000000	96.454607
609.000000	96.422687
608.000000	96.397328
607.000000	96.395317
606.000000	96.414646
605.000000	96.435639
604.000000	96.445934
603.000000	96.455516
602.000000	96.476884
601.000000	96.499291
600.000000	96.498164
599.000000	96.467878
598.000000	96.431289
597.000000	96.415048
596.000000	96.427389
595.000000	96.459539
594.000000	96.495093
593.000000	96.515411
592.000000	96.507310
591.000000	96.474540
590.000000	96.436874
589.000000	96.411977
588.000000	96.402895
587.000000	96.403874
586.000000	96.410943
585.000000	96.424311
584.000000	96.443717
583.000000	96.463744
582.000000	96.473830
581.000000	96.463999
580.000000	96.433850
579.000000	96.396948
578.000000	96.373678
577.000000	96.379469
576.000000	96.416711
575.000000	96.470988
574.000000	96.516210
573.000000	96.529555
572.000000	96.502254
571.000000	96.439740
570.000000	96.359168
569.000000	96.286545
568.000000	96.247883
567.000000	96.250143
566.000000	96.267207
565.000000	96.257240
564.000000	96.200245
563.000000	96.114781
562.000000	96.039922
561.000000	96.006942
560.000000	96.025819
559.000000	96.082617
558.000000	96.143115
557.000000	96.177265
556.000000	96.189163
555.000000	96.209279
554.000000	96.250076
553.000000	96.286785
552.000000	96.292630
551.000000	96.274043
550.000000	96.258209
549.000000	96.261963
548.000000	96.291014
547.000000	96.352891
546.000000	96.442468
545.000000	96.524584
544.000000	96.560024
543.000000	96.546149
542.000000	96.513212
541.000000	96.485178
540.000000	96.461292
539.000000	96.432740
538.000000	96.397175
537.000000	96.354601
536.000000	96.304725
535.000000	96.253562
534.000000	96.212542
533.000000	96.189767
532.000000	96.189769
531.000000	96.215520
530.000000	96.259042
529.000000	96.300129
528.000000	96.327831
527.000000	96.354962
526.000000	96.395189
525.000000	96.433633
524.000000	96.449287
523.000000	96.455716
522.000000	96.488529
521.000000	96.559706
520.000000	96.643794
519.000000	96.709906
518.000000	96.752486
517.000000	96.784215
516.000000	96.816055
515.000000	96.854274
514.000000	96.899680
513.000000	96.939688
512.000000	96.954828
511.000000	96.945091
510.000000	96.941513
509.000000	96.979587
508.000000	97.064494
507.000000	97.163764
506.000000	97.232768
505.000000	97.252150
504.000000	97.239726
503.000000	97.231767
502.000000	97.252816
501.000000	97.295563
500.000000	97.336610
499.000000	97.365261
498.000000	97.383845
497.000000	97.393738
496.000000	97.396048
495.000000	97.397879
494.000000	97.405979
493.000000	97.417543
492.000000	97.427710
491.000000	97.446318
490.000000	97.490719
489.000000	97.561338
488.000000	97.638872
487.000000	97.703158
486.000000	97.747068
485.000000	97.777444
484.000000	97.810125
483.000000	97.855145
482.000000	97.900345
481.000000	97.923106
480.000000	97.925089
479.000000	97.940810
478.000000	97.993275
477.000000	98.051037
476.000000	98.056233
475.000000	97.990540
474.000000	97.893953
473.000000	97.834446
472.000000	97.865055
471.000000	97.986689
470.000000	98.144632
469.000000	98.260138
468.000000	98.278321
467.000000	98.219012
466.000000	98.167266
465.000000	98.183514
464.000000	98.251343
463.000000	98.318569
462.000000	98.352970
461.000000	98.356612
460.000000	98.347564
459.000000	98.343304
458.000000	98.358998
457.000000	98.389810
456.000000	98.422366
455.000000	98.448342
454.000000	98.480518
453.000000	98.554120
452.000000	98.649387
451.000000	98.763740
450.000000	98.885754
