PE IR       SUBTECH     SPECTRUM    ASCII       PEDS        4.00        
   -1
Veau_Al-1-C001_1.ASC
23/09/13
10:56:10.00
23/09/13
11:33:37.00
uco
Sample 001 By uco Date Wednesday, September 13 2023
450.000000
#HDR
-1
-1
#GR
cm-1
%T
1.0
0.0
4000.000000
-1.000000
3551
8
99.020283
82.073861
#DATA
4000.000000	98.927998
3999.000000	98.932414
3998.000000	98.941473
3997.000000	98.952257
3996.000000	98.961325
3995.000000	98.966067
3994.000000	98.936330
3993.000000	98.932732
3992.000000	98.929498
3991.000000	98.929867
3990.000000	98.934978
3989.000000	98.942526
3988.000000	98.947463
3987.000000	98.945605
3986.000000	98.936895
3985.000000	98.925553
3984.000000	98.916964
3983.000000	98.914052
3982.000000	98.916137
3981.000000	98.920580
3980.000000	98.925155
3979.000000	98.929074
3978.000000	98.932156
3977.000000	98.933762
3976.000000	98.932771
3975.000000	98.928582
3974.000000	98.922135
3973.000000	98.915752
3972.000000	98.911755
3971.000000	98.910737
3970.000000	98.911216
3969.000000	98.910715
3968.000000	98.907457
3967.000000	98.901864
3966.000000	98.896396
3965.000000	98.893889
3964.000000	98.895406
3963.000000	98.899487
3962.000000	98.903541
3961.000000	98.906079
3960.000000	98.907819
3959.000000	98.910121
3958.000000	98.913080
3957.000000	98.915047
3956.000000	98.913423
3955.000000	98.906621
3954.000000	98.895816
3953.000000	98.885367
3952.000000	98.880803
3951.000000	98.885363
3950.000000	98.897522
3949.000000	98.910758
3948.000000	98.917496
3947.000000	98.914616
3946.000000	98.904761
3945.000000	98.893827
3944.000000	98.887368
3943.000000	98.887215
3942.000000	98.890856
3941.000000	98.893726
3940.000000	98.892597
3939.000000	98.887125
3938.000000	98.879915
3937.000000	98.875135
3936.000000	98.875388
3935.000000	98.880279
3934.000000	98.887218
3933.000000	98.892692
3932.000000	98.893945
3931.000000	98.890264
3930.000000	98.883406
3929.000000	98.875516
3928.000000	98.867651
3927.000000	98.861625
3926.000000	98.860173
3925.000000	98.864699
3924.000000	98.873512
3923.000000	98.883503
3922.000000	98.892476
3921.000000	98.899503
3920.000000	98.903996
3919.000000	98.905213
3918.000000	98.902309
3917.000000	98.895736
3916.000000	98.887914
3915.000000	98.881067
3914.000000	98.875648
3913.000000	98.871068
3912.000000	98.867548
3911.000000	98.865322
3910.000000	98.863923
3909.000000	98.862216
3908.000000	98.859436
3907.000000	98.857378
3906.000000	98.860326
3905.000000	98.871909
3904.000000	98.889881
3903.000000	98.905573
3902.000000	98.911614
3901.000000	98.907313
3900.000000	98.896552
3899.000000	98.885435
3898.000000	98.878682
3897.000000	98.876778
3896.000000	98.877431
3895.000000	98.878253
3894.000000	98.879383
3893.000000	98.881981
3892.000000	98.883975
3891.000000	98.880046
3890.000000	98.869939
3889.000000	98.859152
3888.000000	98.852930
3887.000000	98.853642
3886.000000	98.859195
3885.000000	98.863909
3884.000000	98.863973
3883.000000	98.860082
3882.000000	98.855499
3881.000000	98.853215
3880.000000	98.853018
3879.000000	98.853405
3878.000000	98.853704
3877.000000	98.853130
3876.000000	98.850898
3875.000000	98.847776
3874.000000	98.846395
3873.000000	98.849095
3872.000000	98.855736
3871.000000	98.862491
3870.000000	98.864032
3869.000000	98.860085
3868.000000	98.856130
3867.000000	98.854887
3866.000000	98.854403
3865.000000	98.854034
3864.000000	98.855607
3863.000000	98.859865
3862.000000	98.865405
3861.000000	98.869276
3860.000000	98.868004
3859.000000	98.860373
3858.000000	98.848316
3857.000000	98.836679
3856.000000	98.831551
3855.000000	98.836870
3854.000000	98.853833
3853.000000	98.867577
3852.000000	98.867686
3851.000000	98.864686
3850.000000	98.865214
3849.000000	98.865452
3848.000000	98.862296
3847.000000	98.855601
3846.000000	98.848039
3845.000000	98.843241
3844.000000	98.842996
3843.000000	98.846390
3842.000000	98.851932
3841.000000	98.857454
3840.000000	98.860225
3839.000000	98.857804
3838.000000	98.850393
3837.000000	98.843344
3836.000000	98.841723
3835.000000	98.845287
3834.000000	98.850726
3833.000000	98.854837
3832.000000	98.855131
3831.000000	98.851552
3830.000000	98.846827
3829.000000	98.845478
3828.000000	98.850401
3827.000000	98.860121
3826.000000	98.870536
3825.000000	98.878174
3824.000000	98.881443
3823.000000	98.878912
3822.000000	98.872337
3821.000000	98.865596
3820.000000	98.860308
3819.000000	98.857738
3818.000000	98.857857
3817.000000	98.858920
3816.000000	98.857818
3815.000000	98.854955
3814.000000	98.854845
3813.000000	98.859403
3812.000000	98.866274
3811.000000	98.871842
3810.000000	98.874633
3809.000000	98.875174
3808.000000	98.874172
3807.000000	98.871413
3806.000000	98.868025
3805.000000	98.865987
3804.000000	98.865057
3803.000000	98.860841
3802.000000	98.849795
3801.000000	98.834776
3800.000000	98.826466
3799.000000	98.829182
3798.000000	98.837227
3797.000000	98.843050
3796.000000	98.843781
3795.000000	98.842247
3794.000000	98.842294
3793.000000	98.845183
3792.000000	98.849458
3791.000000	98.852967
3790.000000	98.854587
3789.000000	98.854556
3788.000000	98.853553
3787.000000	98.852698
3786.000000	98.853229
3785.000000	98.855172
3784.000000	98.856721
3783.000000	98.855374
3782.000000	98.849609
3781.000000	98.840300
3780.000000	98.831144
3779.000000	98.825844
3778.000000	98.826161
3777.000000	98.831033
3776.000000	98.837020
3775.000000	98.840671
3774.000000	98.842327
3773.000000	98.846379
3772.000000	98.856697
3771.000000	98.872148
3770.000000	98.886612
3769.000000	98.894466
3768.000000	98.894626
3767.000000	98.889116
3766.000000	98.879998
3765.000000	98.869767
3764.000000	98.861817
3763.000000	98.857831
3762.000000	98.856569
3761.000000	98.856389
3760.000000	98.857736
3759.000000	98.860701
3758.000000	98.864857
3757.000000	98.871051
3756.000000	98.879564
3755.000000	98.888112
3754.000000	98.894502
3753.000000	98.900082
3752.000000	98.908238
3751.000000	98.916638
3750.000000	98.918056
3749.000000	98.914113
3748.000000	98.910963
3747.000000	98.908893
3746.000000	98.902139
3745.000000	98.884951
3744.000000	98.862471
3743.000000	98.853402
3742.000000	98.866508
3741.000000	98.893039
3740.000000	98.919051
3739.000000	98.934678
3738.000000	98.936344
3737.000000	98.929830
3736.000000	98.926502
3735.000000	98.933104
3734.000000	98.946803
3733.000000	98.957653
3732.000000	98.957309
3731.000000	98.947000
3730.000000	98.934644
3729.000000	98.925973
3728.000000	98.920640
3727.000000	98.915537
3726.000000	98.909318
3725.000000	98.904145
3724.000000	98.902528
3723.000000	98.904802
3722.000000	98.909690
3721.000000	98.913828
3720.000000	98.914017
3719.000000	98.908938
3718.000000	98.900328
3717.000000	98.892260
3716.000000	98.887858
3715.000000	98.886338
3714.000000	98.882374
3713.000000	98.870766
3712.000000	98.853793
3711.000000	98.841265
3710.000000	98.841750
3709.000000	98.855503
3708.000000	98.874946
3707.000000	98.891934
3706.000000	98.903126
3705.000000	98.908787
3704.000000	98.910969
3703.000000	98.911497
3702.000000	98.910002
3701.000000	98.904263
3700.000000	98.894089
3699.000000	98.882326
3698.000000	98.871511
3697.000000	98.862081
3696.000000	98.853186
3695.000000	98.843903
3694.000000	98.834283
3693.000000	98.826483
3692.000000	98.825263
3691.000000	98.835216
3690.000000	98.853076
3689.000000	98.864584
3688.000000	98.860973
3687.000000	98.850882
3686.000000	98.844948
3685.000000	98.844550
3684.000000	98.845223
3683.000000	98.841615
3682.000000	98.831816
3681.000000	98.818535
3680.000000	98.806346
3679.000000	98.798599
3678.000000	98.796487
3677.000000	98.797623
3676.000000	98.796216
3675.000000	98.786277
3674.000000	98.774590
3673.000000	98.769238
3672.000000	98.767371
3671.000000	98.759885
3670.000000	98.743569
3669.000000	98.727398
3668.000000	98.723171
3667.000000	98.730137
3666.000000	98.739420
3665.000000	98.743984
3664.000000	98.741847
3663.000000	98.733920
3662.000000	98.722573
3661.000000	98.710983
3660.000000	98.701390
3659.000000	98.694282
3658.000000	98.688406
3657.000000	98.681240
3656.000000	98.669906
3655.000000	98.654580
3654.000000	98.638742
3653.000000	98.624997
3652.000000	98.616070
3651.000000	98.618016
3650.000000	98.631784
3649.000000	98.637541
3648.000000	98.618215
3647.000000	98.587795
3646.000000	98.566904
3645.000000	98.559930
3644.000000	98.559858
3643.000000	98.557085
3642.000000	98.545663
3641.000000	98.526278
3640.000000	98.503520
3639.000000	98.481957
3638.000000	98.465038
3637.000000	98.454547
3636.000000	98.449439
3635.000000	98.446689
3634.000000	98.445406
3633.000000	98.448095
3632.000000	98.455870
3631.000000	98.463422
3630.000000	98.460816
3629.000000	98.440563
3628.000000	98.409065
3627.000000	98.384720
3626.000000	98.372777
3625.000000	98.365948
3624.000000	98.357345
3623.000000	98.345834
3622.000000	98.333610
3621.000000	98.322125
3620.000000	98.309060
3619.000000	98.289668
3618.000000	98.263737
3617.000000	98.238492
3616.000000	98.219819
3615.000000	98.207352
3614.000000	98.197676
3613.000000	98.188554
3612.000000	98.180964
3611.000000	98.175549
3610.000000	98.168547
3609.000000	98.154200
3608.000000	98.131835
3607.000000	98.108212
3606.000000	98.091387
3605.000000	98.083290
3604.000000	98.079125
3603.000000	98.072639
3602.000000	98.059724
3601.000000	98.039723
3600.000000	98.015737
3599.000000	97.992756
3598.000000	97.973536
3597.000000	97.957522
3596.000000	97.941939
3595.000000	97.924165
3594.000000	97.904674
3593.000000	97.886355
3592.000000	97.870878
3591.000000	97.856687
3590.000000	97.841357
3589.000000	97.824111
3588.000000	97.803735
3587.000000	97.776613
3586.000000	97.745600
3585.000000	97.717885
3584.000000	97.695241
3583.000000	97.675378
3582.000000	97.657217
3581.000000	97.641176
3580.000000	97.626844
3579.000000	97.611844
3578.000000	97.593973
3577.000000	97.573768
3576.000000	97.554229
3575.000000	97.537958
3574.000000	97.524958
3573.000000	97.512594
3572.000000	97.496376
3571.000000	97.472750
3570.000000	97.442267
3569.000000	97.411094
3568.000000	97.385522
3567.000000	97.364229
3566.000000	97.344059
3565.000000	97.329528
3564.000000	97.322244
3563.000000	97.315539
3562.000000	97.302519
3561.000000	97.282620
3560.000000	97.260204
3559.000000	97.239126
3558.000000	97.219331
3557.000000	97.199081
3556.000000	97.178170
3555.000000	97.157990
3554.000000	97.139091
3553.000000	97.120079
3552.000000	97.099138
3551.000000	97.076710
3550.000000	97.055374
3549.000000	97.037286
3548.000000	97.022531
3547.000000	97.008386
3546.000000	96.990403
3545.000000	96.966766
3544.000000	96.940839
3543.000000	96.917134
3542.000000	96.897100
3541.000000	96.878406
3540.000000	96.856979
3539.000000	96.830177
3538.000000	96.798652
3537.000000	96.765893
3536.000000	96.735310
3535.000000	96.708738
3534.000000	96.686808
3533.000000	96.669320
3532.000000	96.655000
3531.000000	96.641696
3530.000000	96.627786
3529.000000	96.613270
3528.000000	96.599027
3527.000000	96.585485
3526.000000	96.572015
3525.000000	96.556504
3524.000000	96.535994
3523.000000	96.509465
3522.000000	96.479938
3521.000000	96.451917
3520.000000	96.426796
3519.000000	96.402876
3518.000000	96.379119
3517.000000	96.357127
3516.000000	96.338831
3515.000000	96.323714
3514.000000	96.310000
3513.000000	96.297392
3512.000000	96.287302
3511.000000	96.280516
3510.000000	96.274881
3509.000000	96.265571
3508.000000	96.248292
3507.000000	96.223148
3506.000000	96.195414
3505.000000	96.172476
3504.000000	96.157889
3503.000000	96.148296
3502.000000	96.137958
3501.000000	96.124818
3500.000000	96.110183
3499.000000	96.095019
3498.000000	96.079122
3497.000000	96.062301
3496.000000	96.045164
3495.000000	96.028643
3494.000000	96.013206
3493.000000	95.998325
3492.000000	95.982811
3491.000000	95.966460
3490.000000	95.950812
3489.000000	95.936847
3488.000000	95.922607
3487.000000	95.905455
3486.000000	95.886588
3485.000000	95.870370
3484.000000	95.858344
3483.000000	95.846488
3482.000000	95.830246
3481.000000	95.810849
3480.000000	95.793758
3479.000000	95.781728
3478.000000	95.772224
3477.000000	95.761437
3476.000000	95.748326
3475.000000	95.734516
3474.000000	95.721536
3473.000000	95.708627
3472.000000	95.692936
3471.000000	95.672336
3470.000000	95.648760
3469.000000	95.627735
3468.000000	95.613609
3467.000000	95.605444
3466.000000	95.598018
3465.000000	95.586285
3464.000000	95.568231
3463.000000	95.545061
3462.000000	95.520448
3461.000000	95.498877
3460.000000	95.482772
3459.000000	95.470806
3458.000000	95.459755
3457.000000	95.447882
3456.000000	95.435419
3455.000000	95.422706
3454.000000	95.409330
3453.000000	95.395212
3452.000000	95.381440
3451.000000	95.369275
3450.000000	95.359037
3449.000000	95.349930
3448.000000	95.340417
3447.000000	95.329225
3446.000000	95.316951
3445.000000	95.305408
3444.000000	95.294619
3443.000000	95.281879
3442.000000	95.264920
3441.000000	95.245268
3440.000000	95.226755
3439.000000	95.211448
3438.000000	95.198551
3437.000000	95.186833
3436.000000	95.175769
3435.000000	95.164313
3434.000000	95.150471
3433.000000	95.133426
3432.000000	95.115710
3431.000000	95.101994
3430.000000	95.095732
3429.000000	95.096289
3428.000000	95.098819
3427.000000	95.097364
3426.000000	95.088800
3425.000000	95.074148
3424.000000	95.056244
3423.000000	95.037201
3422.000000	95.018473
3421.000000	95.001606
3420.000000	94.987216
3419.000000	94.974094
3418.000000	94.961034
3417.000000	94.948888
3416.000000	94.939350
3415.000000	94.932140
3414.000000	94.925022
3413.000000	94.916578
3412.000000	94.907428
3411.000000	94.898612
3410.000000	94.890082
3409.000000	94.880949
3408.000000	94.870103
3407.000000	94.856565
3406.000000	94.840224
3405.000000	94.822629
3404.000000	94.806176
3403.000000	94.792315
3402.000000	94.780941
3401.000000	94.771150
3400.000000	94.762054
3399.000000	94.753034
3398.000000	94.743951
3397.000000	94.735010
3396.000000	94.725966
3395.000000	94.715839
3394.000000	94.704123
3393.000000	94.691866
3392.000000	94.680687
3391.000000	94.670773
3390.000000	94.660399
3389.000000	94.647579
3388.000000	94.631936
3387.000000	94.614998
3386.000000	94.598778
3385.000000	94.583840
3384.000000	94.568619
3383.000000	94.551128
3382.000000	94.531265
3381.000000	94.510769
3380.000000	94.490907
3379.000000	94.470855
3378.000000	94.448852
3377.000000	94.424405
3376.000000	94.399152
3375.000000	94.375744
3374.000000	94.355552
3373.000000	94.336763
3372.000000	94.315008
3371.000000	94.287088
3370.000000	94.254262
3369.000000	94.220714
3368.000000	94.188565
3367.000000	94.155865
3366.000000	94.120245
3365.000000	94.083071
3364.000000	94.048312
3363.000000	94.018046
3362.000000	93.990217
3361.000000	93.960332
3360.000000	93.924479
3359.000000	93.881359
3358.000000	93.832935
3357.000000	93.783508
3356.000000	93.737362
3355.000000	93.696401
3354.000000	93.659459
3353.000000	93.623279
3352.000000	93.584095
3351.000000	93.539370
3350.000000	93.489211
3349.000000	93.436207
3348.000000	93.383542
3347.000000	93.333315
3346.000000	93.286298
3345.000000	93.242384
3344.000000	93.200588
3343.000000	93.159049
3342.000000	93.115983
3341.000000	93.070884
3340.000000	93.024827
3339.000000	92.979630
3338.000000	92.936405
3337.000000	92.894494
3336.000000	92.852260
3335.000000	92.809582
3334.000000	92.769045
3333.000000	92.733485
3332.000000	92.702368
3331.000000	92.671848
3330.000000	92.638469
3329.000000	92.601991
3328.000000	92.564797
3327.000000	92.529920
3326.000000	92.499671
3325.000000	92.474416
3324.000000	92.451761
3323.000000	92.427974
3322.000000	92.401008
3321.000000	92.371563
3320.000000	92.341316
3319.000000	92.311720
3318.000000	92.284705
3317.000000	92.262312
3316.000000	92.244277
3315.000000	92.227398
3314.000000	92.209145
3313.000000	92.191241
3312.000000	92.177965
3311.000000	92.171308
3310.000000	92.168792
3309.000000	92.165659
3308.000000	92.158468
3307.000000	92.146969
3306.000000	92.133560
3305.000000	92.120969
3304.000000	92.109929
3303.000000	92.099206
3302.000000	92.087982
3301.000000	92.077515
3300.000000	92.069779
3299.000000	92.065075
3298.000000	92.061775
3297.000000	92.057949
3296.000000	92.052976
3295.000000	92.047900
3294.000000	92.044342
3293.000000	92.042668
3292.000000	92.041215
3291.000000	92.038123
3290.000000	92.033886
3289.000000	92.030934
3288.000000	92.030636
3287.000000	92.032083
3286.000000	92.034253
3285.000000	92.037922
3284.000000	92.044714
3283.000000	92.055205
3282.000000	92.068406
3281.000000	92.082285
3280.000000	92.094617
3279.000000	92.104672
3278.000000	92.114402
3277.000000	92.126550
3276.000000	92.141192
3275.000000	92.155736
3274.000000	92.168666
3273.000000	92.180918
3272.000000	92.192829
3271.000000	92.202316
3270.000000	92.208147
3269.000000	92.213133
3268.000000	92.221599
3267.000000	92.234496
3266.000000	92.248886
3265.000000	92.261955
3264.000000	92.274042
3263.000000	92.287943
3262.000000	92.306506
3261.000000	92.330593
3260.000000	92.358050
3259.000000	92.384616
3258.000000	92.406637
3257.000000	92.423255
3256.000000	92.436159
3255.000000	92.448091
3254.000000	92.461768
3253.000000	92.479101
3252.000000	92.500426
3251.000000	92.524689
3250.000000	92.550656
3249.000000	92.577135
3248.000000	92.601929
3247.000000	92.621950
3246.000000	92.635193
3245.000000	92.642238
3244.000000	92.645828
3243.000000	92.649793
3242.000000	92.658114
3241.000000	92.672963
3240.000000	92.692823
3239.000000	92.714051
3238.000000	92.734802
3237.000000	92.755760
3236.000000	92.776451
3235.000000	92.793523
3234.000000	92.804482
3233.000000	92.811076
3232.000000	92.816949
3231.000000	92.823317
3230.000000	92.829455
3229.000000	92.836320
3228.000000	92.846697
3227.000000	92.861532
3226.000000	92.878198
3225.000000	92.893182
3224.000000	92.905444
3223.000000	92.916753
3222.000000	92.929367
3221.000000	92.943598
3220.000000	92.957208
3219.000000	92.967322
3218.000000	92.973242
3217.000000	92.977068
3216.000000	92.981838
3215.000000	92.989862
3214.000000	93.002571
3213.000000	93.020133
3212.000000	93.040230
3211.000000	93.058592
3210.000000	93.072371
3209.000000	93.082535
3208.000000	93.092047
3207.000000	93.102545
3206.000000	93.114012
3205.000000	93.126977
3204.000000	93.143372
3203.000000	93.165026
3202.000000	93.191974
3201.000000	93.221851
3200.000000	93.250204
3199.000000	93.272496
3198.000000	93.287431
3197.000000	93.298536
3196.000000	93.311448
3195.000000	93.329168
3194.000000	93.350209
3193.000000	93.370747
3192.000000	93.388090
3191.000000	93.402804
3190.000000	93.418333
3189.000000	93.438227
3188.000000	93.463039
3187.000000	93.490230
3186.000000	93.517261
3185.000000	93.543893
3184.000000	93.570680
3183.000000	93.596494
3182.000000	93.619254
3181.000000	93.638947
3180.000000	93.658455
3179.000000	93.680868
3178.000000	93.706554
3177.000000	93.733103
3176.000000	93.757679
3175.000000	93.779380
3174.000000	93.799706
3173.000000	93.820969
3172.000000	93.844188
3171.000000	93.868571
3170.000000	93.892918
3169.000000	93.916706
3168.000000	93.939654
3167.000000	93.961185
3166.000000	93.981213
3165.000000	94.000964
3164.000000	94.022145
3163.000000	94.045607
3162.000000	94.071255
3161.000000	94.098772
3160.000000	94.127539
3159.000000	94.156216
3158.000000	94.183388
3157.000000	94.208585
3156.000000	94.231964
3155.000000	94.253304
3154.000000	94.272374
3153.000000	94.290381
3152.000000	94.309941
3151.000000	94.332910
3150.000000	94.358513
3149.000000	94.383966
3148.000000	94.406905
3147.000000	94.427110
3146.000000	94.446093
3145.000000	94.465276
3144.000000	94.484817
3143.000000	94.504202
3142.000000	94.523251
3141.000000	94.541706
3140.000000	94.558125
3139.000000	94.570458
3138.000000	94.578452
3137.000000	94.585017
3136.000000	94.594710
3135.000000	94.610749
3134.000000	94.633052
3133.000000	94.658238
3132.000000	94.681428
3131.000000	94.699125
3130.000000	94.711328
3129.000000	94.720834
3128.000000	94.730302
3127.000000	94.740174
3126.000000	94.749484
3125.000000	94.757899
3124.000000	94.766128
3123.000000	94.774703
3122.000000	94.783264
3121.000000	94.790992
3120.000000	94.796935
3119.000000	94.799893
3118.000000	94.798731
3117.000000	94.793448
3116.000000	94.785719
3115.000000	94.778085
3114.000000	94.772426
3113.000000	94.769012
3112.000000	94.766748
3111.000000	94.763939
3110.000000	94.758854
3109.000000	94.750046
3108.000000	94.737086
3107.000000	94.721599
3106.000000	94.707191
3105.000000	94.697023
3104.000000	94.690980
3103.000000	94.685633
3102.000000	94.677486
3101.000000	94.665902
3100.000000	94.652768
3099.000000	94.640153
3098.000000	94.628785
3097.000000	94.617893
3096.000000	94.605574
3095.000000	94.589832
3094.000000	94.570236
3093.000000	94.548505
3092.000000	94.527086
3091.000000	94.507554
3090.000000	94.490699
3089.000000	94.477401
3088.000000	94.468460
3087.000000	94.463505
3086.000000	94.460571
3085.000000	94.456820
3084.000000	94.449724
3083.000000	94.438433
3082.000000	94.424560
3081.000000	94.411241
3080.000000	94.400642
3079.000000	94.392393
3078.000000	94.384722
3077.000000	94.376832
3076.000000	94.369770
3075.000000	94.365412
3074.000000	94.365090
3073.000000	94.369058
3072.000000	94.376969
3071.000000	94.388455
3070.000000	94.402960
3069.000000	94.418589
3068.000000	94.431832
3067.000000	94.439865
3066.000000	94.443432
3065.000000	94.446587
3064.000000	94.453166
3063.000000	94.464452
3062.000000	94.480356
3061.000000	94.501216
3060.000000	94.527249
3059.000000	94.557227
3058.000000	94.588798
3057.000000	94.619912
3056.000000	94.649485
3055.000000	94.677378
3054.000000	94.704289
3053.000000	94.730878
3052.000000	94.756618
3051.000000	94.780349
3050.000000	94.802523
3049.000000	94.825870
3048.000000	94.852838
3047.000000	94.883122
3046.000000	94.914584
3045.000000	94.945718
3044.000000	94.976270
3043.000000	95.006147
3042.000000	95.034940
3041.000000	95.062339
3040.000000	95.088173
3039.000000	95.112360
3038.000000	95.135394
3037.000000	95.158632
3036.000000	95.183571
3035.000000	95.210927
3034.000000	95.240359
3033.000000	95.270327
3032.000000	95.297968
3031.000000	95.320302
3030.000000	95.336709
3029.000000	95.350004
3028.000000	95.364671
3027.000000	95.383864
3026.000000	95.407728
3025.000000	95.433557
3024.000000	95.457515
3023.000000	95.477441
3022.000000	95.494664
3021.000000	95.512419
3020.000000	95.532057
3019.000000	95.551727
3018.000000	95.569283
3017.000000	95.585166
3016.000000	95.601264
3015.000000	95.617956
3014.000000	95.633598
3013.000000	95.646523
3012.000000	95.656352
3011.000000	95.663729
3010.000000	95.669677
3009.000000	95.674896
3008.000000	95.679243
3007.000000	95.682253
3006.000000	95.684568
3005.000000	95.687802
3004.000000	95.692130
3003.000000	95.695056
3002.000000	95.693798
3001.000000	95.688363
3000.000000	95.681321
2999.000000	95.675266
2998.000000	95.671411
2997.000000	95.669470
2996.000000	95.667056
2995.000000	95.660019
2994.000000	95.645502
2993.000000	95.624908
2992.000000	95.602285
2991.000000	95.579664
2990.000000	95.555584
2989.000000	95.528247
2988.000000	95.498449
2987.000000	95.468670
2986.000000	95.440675
2985.000000	95.414970
2984.000000	95.391782
2983.000000	95.371407
2982.000000	95.353674
2981.000000	95.337554
2980.000000	95.321378
2979.000000	95.303598
2978.000000	95.283861
2977.000000	95.263339
2976.000000	95.243373
2975.000000	95.223638
2974.000000	95.202114
2973.000000	95.176984
2972.000000	95.148129
2971.000000	95.116545
2970.000000	95.082706
2969.000000	95.045774
2968.000000	95.004590
2967.000000	94.959673
2966.000000	94.914173
2965.000000	94.872117
2964.000000	94.834960
2963.000000	94.800385
2962.000000	94.765142
2961.000000	94.728888
2960.000000	94.694478
2959.000000	94.664774
2958.000000	94.640273
2957.000000	94.619785
2956.000000	94.602702
2955.000000	94.590177
2954.000000	94.584609
2953.000000	94.587818
2952.000000	94.598812
2951.000000	94.613200
2950.000000	94.625194
2949.000000	94.630593
2948.000000	94.627654
2947.000000	94.615910
2946.000000	94.595416
2945.000000	94.567296
2944.000000	94.533928
2943.000000	94.497473
2942.000000	94.458332
2941.000000	94.415154
2940.000000	94.366453
2939.000000	94.312323
2938.000000	94.254837
2937.000000	94.196625
2936.000000	94.138548
2935.000000	94.079029
2934.000000	94.016250
2933.000000	93.950833
2932.000000	93.885588
2931.000000	93.822318
2930.000000	93.759428
2929.000000	93.692976
2928.000000	93.620112
2927.000000	93.542248
2926.000000	93.465427
2925.000000	93.397277
2924.000000	93.342114
2923.000000	93.298613
2922.000000	93.262686
2921.000000	93.232895
2920.000000	93.213546
2919.000000	93.213242
2918.000000	93.241643
2917.000000	93.306608
2916.000000	93.411387
2915.000000	93.552271
2914.000000	93.718240
2913.000000	93.894001
2912.000000	94.064818
2911.000000	94.221072
2910.000000	94.359884
2909.000000	94.482840
2908.000000	94.591814
2907.000000	94.686451
2906.000000	94.765670
2905.000000	94.830426
2904.000000	94.884036
2903.000000	94.930534
2902.000000	94.972397
2901.000000	95.011394
2900.000000	95.048685
2899.000000	95.084621
2898.000000	95.119649
2897.000000	95.155133
2896.000000	95.192513
2895.000000	95.231191
2894.000000	95.268493
2893.000000	95.302180
2892.000000	95.331861
2891.000000	95.357386
2890.000000	95.377428
2889.000000	95.391255
2888.000000	95.401146
2887.000000	95.411125
2886.000000	95.423035
2885.000000	95.434889
2884.000000	95.443327
2883.000000	95.446868
2882.000000	95.446643
2881.000000	95.444888
2880.000000	95.443256
2879.000000	95.442075
2878.000000	95.440541
2877.000000	95.437577
2876.000000	95.432872
2875.000000	95.427409
2874.000000	95.423238
2873.000000	95.422479
2872.000000	95.426097
2871.000000	95.433534
2870.000000	95.443829
2869.000000	95.457096
2868.000000	95.474153
2867.000000	95.494270
2866.000000	95.513773
2865.000000	95.527620
2864.000000	95.532107
2863.000000	95.525841
2862.000000	95.508762
2861.000000	95.481323
2860.000000	95.444485
2859.000000	95.399183
2858.000000	95.345315
2857.000000	95.282085
2856.000000	95.210053
2855.000000	95.132408
2854.000000	95.054181
2853.000000	94.980834
2852.000000	94.919306
2851.000000	94.881044
2850.000000	94.881946
2849.000000	94.936136
2848.000000	95.046281
2847.000000	95.198900
2846.000000	95.369843
2845.000000	95.536148
2844.000000	95.684443
2843.000000	95.811226
2842.000000	95.918068
2841.000000	96.007432
2840.000000	96.081826
2839.000000	96.143911
2838.000000	96.196062
2837.000000	96.239759
2836.000000	96.275564
2835.000000	96.303942
2834.000000	96.326551
2833.000000	96.346678
2832.000000	96.367715
2831.000000	96.390596
2830.000000	96.413131
2829.000000	96.432559
2828.000000	96.448364
2827.000000	96.462071
2826.000000	96.475014
2825.000000	96.487534
2824.000000	96.500082
2823.000000	96.513468
2822.000000	96.527521
2821.000000	96.540797
2820.000000	96.552524
2819.000000	96.563999
2818.000000	96.576871
2817.000000	96.590443
2816.000000	96.601883
2815.000000	96.609428
2814.000000	96.614629
2813.000000	96.620826
2812.000000	96.629757
2811.000000	96.640152
2810.000000	96.649496
2809.000000	96.656504
2808.000000	96.661532
2807.000000	96.665250
2806.000000	96.667956
2805.000000	96.670277
2804.000000	96.673544
2803.000000	96.678706
2802.000000	96.685301
2801.000000	96.692286
2800.000000	96.699578
2799.000000	96.707891
2798.000000	96.717096
2797.000000	96.725771
2796.000000	96.732853
2795.000000	96.739124
2794.000000	96.746462
2793.000000	96.755996
2792.000000	96.767452
2791.000000	96.779840
2790.000000	96.792009
2789.000000	96.802634
2788.000000	96.810567
2787.000000	96.815885
2786.000000	96.820334
2785.000000	96.826151
2784.000000	96.834201
2783.000000	96.843498
2782.000000	96.852607
2781.000000	96.861245
2780.000000	96.870166
2779.000000	96.879711
2778.000000	96.889048
2777.000000	96.897095
2776.000000	96.903790
2775.000000	96.910107
2774.000000	96.917043
2773.000000	96.924867
2772.000000	96.933164
2771.000000	96.941240
2770.000000	96.948699
2769.000000	96.956008
2768.000000	96.964345
2767.000000	96.974342
2766.000000	96.984958
2765.000000	96.994187
2764.000000	97.001129
2763.000000	97.006944
2762.000000	97.013503
2761.000000	97.021453
2760.000000	97.029976
2759.000000	97.038086
2758.000000	97.045523
2757.000000	97.052353
2756.000000	97.058528
2755.000000	97.064507
2754.000000	97.071911
2753.000000	97.082442
2752.000000	97.095597
2751.000000	97.108111
2750.000000	97.116501
2749.000000	97.120157
2748.000000	97.121579
2747.000000	97.123777
2746.000000	97.128029
2745.000000	97.133841
2744.000000	97.140099
2743.000000	97.146052
2742.000000	97.151893
2741.000000	97.158634
2740.000000	97.166884
2739.000000	97.175708
2738.000000	97.183602
2737.000000	97.190771
2736.000000	97.199163
2735.000000	97.209322
2734.000000	97.218242
2733.000000	97.221936
2732.000000	97.220150
2731.000000	97.217423
2730.000000	97.219145
2729.000000	97.226992
2728.000000	97.238205
2727.000000	97.248550
2726.000000	97.255560
2725.000000	97.259500
2724.000000	97.262172
2723.000000	97.265379
2722.000000	97.270286
2721.000000	97.277227
2720.000000	97.285246
2719.000000	97.292186
2718.000000	97.296360
2717.000000	97.298428
2716.000000	97.300838
2715.000000	97.305080
2714.000000	97.310189
2713.000000	97.314238
2712.000000	97.316425
2711.000000	97.317255
2710.000000	97.317622
2709.000000	97.318595
2708.000000	97.321465
2707.000000	97.326997
2706.000000	97.334674
2705.000000	97.343044
2704.000000	97.350534
2703.000000	97.355902
2702.000000	97.358804
2701.000000	97.360550
2700.000000	97.363489
2699.000000	97.368824
2698.000000	97.375520
2697.000000	97.381846
2696.000000	97.387282
2695.000000	97.392282
2694.000000	97.397008
2693.000000	97.401172
2692.000000	97.404402
2691.000000	97.405912
2690.000000	97.404715
2689.000000	97.401289
2688.000000	97.398250
2687.000000	97.397990
2686.000000	97.399970
2685.000000	97.401536
2684.000000	97.401007
2683.000000	97.398859
2682.000000	97.396511
2681.000000	97.395494
2680.000000	97.397452
2679.000000	97.403071
2678.000000	97.410613
2677.000000	97.416804
2676.000000	97.419806
2675.000000	97.420615
2674.000000	97.421449
2673.000000	97.423626
2672.000000	97.427023
2671.000000	97.430493
2670.000000	97.432528
2669.000000	97.432443
2668.000000	97.431279
2667.000000	97.430786
2666.000000	97.431234
2665.000000	97.431032
2664.000000	97.428866
2663.000000	97.425410
2662.000000	97.422445
2661.000000	97.420816
2660.000000	97.419750
2659.000000	97.417996
2658.000000	97.415429
2657.000000	97.413626
2656.000000	97.414789
2655.000000	97.419797
2654.000000	97.427483
2653.000000	97.436144
2652.000000	97.445212
2651.000000	97.454832
2650.000000	97.464268
2649.000000	97.471897
2648.000000	97.477015
2647.000000	97.480820
2646.000000	97.485321
2645.000000	97.491707
2644.000000	97.499776
2643.000000	97.508409
2642.000000	97.516549
2641.000000	97.524122
2640.000000	97.531913
2639.000000	97.540279
2638.000000	97.548417
2637.000000	97.555428
2636.000000	97.561472
2635.000000	97.567036
2634.000000	97.571658
2633.000000	97.574516
2632.000000	97.576059
2631.000000	97.577954
2630.000000	97.581413
2629.000000	97.586544
2628.000000	97.593146
2627.000000	97.601059
2626.000000	97.609668
2625.000000	97.618036
2624.000000	97.625796
2623.000000	97.633374
2622.000000	97.641314
2621.000000	97.649685
2620.000000	97.657777
2619.000000	97.664022
2618.000000	97.667006
2617.000000	97.667411
2616.000000	97.668324
2615.000000	97.672724
2614.000000	97.681127
2613.000000	97.692156
2612.000000	97.704358
2611.000000	97.716592
2610.000000	97.727942
2609.000000	97.738476
2608.000000	97.748871
2607.000000	97.757997
2606.000000	97.762353
2605.000000	97.759792
2604.000000	97.752816
2603.000000	97.746448
2602.000000	97.743877
2601.000000	97.745788
2600.000000	97.751995
2599.000000	97.760863
2598.000000	97.768274
2597.000000	97.770537
2596.000000	97.768676
2595.000000	97.767622
2594.000000	97.771228
2593.000000	97.779646
2592.000000	97.790689
2591.000000	97.801292
2590.000000	97.808207
2589.000000	97.809971
2588.000000	97.808436
2587.000000	97.806680
2586.000000	97.806116
2585.000000	97.807379
2584.000000	97.812357
2583.000000	97.821924
2582.000000	97.832312
2581.000000	97.837495
2580.000000	97.835983
2579.000000	97.832977
2578.000000	97.835163
2577.000000	97.845056
2576.000000	97.859950
2575.000000	97.874310
2574.000000	97.883556
2573.000000	97.887568
2572.000000	97.890201
2571.000000	97.893930
2570.000000	97.896512
2569.000000	97.895262
2568.000000	97.892656
2567.000000	97.893931
2566.000000	97.900226
2565.000000	97.907819
2564.000000	97.913591
2563.000000	97.917337
2562.000000	97.918866
2561.000000	97.917092
2560.000000	97.912896
2559.000000	97.909621
2558.000000	97.909674
2557.000000	97.913030
2556.000000	97.919132
2555.000000	97.927457
2554.000000	97.936008
2553.000000	97.942081
2552.000000	97.945098
2551.000000	97.946570
2550.000000	97.947595
2549.000000	97.948837
2548.000000	97.952144
2547.000000	97.958764
2546.000000	97.966058
2545.000000	97.969377
2544.000000	97.967523
2543.000000	97.963654
2542.000000	97.960937
2541.000000	97.960230
2540.000000	97.961664
2539.000000	97.964927
2538.000000	97.967890
2537.000000	97.968580
2536.000000	97.969259
2535.000000	97.975177
2534.000000	97.988151
2533.000000	98.003817
2532.000000	98.015859
2531.000000	98.020882
2530.000000	98.019044
2529.000000	98.012845
2528.000000	98.006144
2527.000000	98.001986
2526.000000	98.000442
2525.000000	97.999673
2524.000000	97.998702
2523.000000	97.997805
2522.000000	97.997339
2521.000000	97.998237
2520.000000	98.002263
2519.000000	98.009306
2518.000000	98.015920
2517.000000	98.019435
2516.000000	98.021874
2515.000000	98.026262
2514.000000	98.030767
2513.000000	98.031062
2512.000000	98.027704
2511.000000	98.026335
2510.000000	98.030258
2509.000000	98.036885
2508.000000	98.042094
2507.000000	98.044391
2506.000000	98.044246
2505.000000	98.042903
2504.000000	98.042658
2503.000000	98.045180
2502.000000	98.048800
2501.000000	98.049873
2500.000000	98.047090
2499.000000	98.042443
2498.000000	98.038819
2497.000000	98.039080
2496.000000	98.045841
2495.000000	98.058260
2494.000000	98.069980
2493.000000	98.074750
2492.000000	98.073857
2491.000000	98.074024
2490.000000	98.078500
2489.000000	98.084528
2488.000000	98.089558
2487.000000	98.094805
2486.000000	98.101415
2485.000000	98.107562
2484.000000	98.111049
2483.000000	98.111734
2482.000000	98.110255
2481.000000	98.107355
2480.000000	98.105364
2479.000000	98.107377
2478.000000	98.113863
2477.000000	98.122244
2476.000000	98.130128
2475.000000	98.136795
2474.000000	98.141607
2473.000000	98.143475
2472.000000	98.142080
2471.000000	98.137741
2470.000000	98.130916
2469.000000	98.124004
2468.000000	98.121883
2467.000000	98.127339
2466.000000	98.136905
2465.000000	98.144105
2464.000000	98.145496
2463.000000	98.140669
2462.000000	98.129305
2461.000000	98.113379
2460.000000	98.100186
2459.000000	98.096805
2458.000000	98.101552
2457.000000	98.106220
2456.000000	98.107133
2455.000000	98.108781
2454.000000	98.115797
2453.000000	98.126859
2452.000000	98.138026
2451.000000	98.147425
2450.000000	98.154358
2449.000000	98.157232
2448.000000	98.154853
2447.000000	98.148193
2446.000000	98.140172
2445.000000	98.135141
2444.000000	98.137300
2443.000000	98.146469
2442.000000	98.156128
2441.000000	98.158960
2440.000000	98.154026
2439.000000	98.145904
2438.000000	98.138559
2437.000000	98.133815
2436.000000	98.133885
2435.000000	98.140090
2434.000000	98.149307
2433.000000	98.156286
2432.000000	98.159586
2431.000000	98.161662
2430.000000	98.163813
2429.000000	98.165180
2428.000000	98.166207
2427.000000	98.168835
2426.000000	98.173110
2425.000000	98.176759
2424.000000	98.177648
2423.000000	98.174208
2422.000000	98.165750
2421.000000	98.155831
2420.000000	98.152345
2419.000000	98.159152
2418.000000	98.169813
2417.000000	98.175033
2416.000000	98.174465
2415.000000	98.175431
2414.000000	98.181619
2413.000000	98.189339
2412.000000	98.194409
2411.000000	98.196673
2410.000000	98.197488
2409.000000	98.198113
2408.000000	98.200830
2407.000000	98.207000
2406.000000	98.214086
2405.000000	98.218601
2404.000000	98.220962
2403.000000	98.223122
2402.000000	98.223384
2401.000000	98.219083
2400.000000	98.212847
2399.000000	98.210199
2398.000000	98.211840
2397.000000	98.214022
2396.000000	98.215538
2395.000000	98.218142
2394.000000	98.220556
2393.000000	98.218686
2392.000000	98.212162
2391.000000	98.205218
2390.000000	98.200455
2389.000000	98.196898
2388.000000	98.194723
2387.000000	98.195848
2386.000000	98.200405
2385.000000	98.207010
2384.000000	98.216988
2383.000000	98.233924
2382.000000	98.256986
2381.000000	98.280517
2380.000000	98.299103
2379.000000	98.308706
2378.000000	98.304537
2377.000000	98.283775
2376.000000	98.251966
2375.000000	98.220812
2374.000000	98.199729
2373.000000	98.192768
2372.000000	98.200855
2371.000000	98.218860
2370.000000	98.234150
2369.000000	98.237783
2368.000000	98.232897
2367.000000	98.227409
2366.000000	98.222389
2365.000000	98.215085
2364.000000	98.208003
2363.000000	98.204033
2362.000000	98.199598
2361.000000	98.190118
2360.000000	98.177058
2359.000000	98.165413
2358.000000	98.159253
2357.000000	98.162279
2356.000000	98.169799
2355.000000	98.170807
2354.000000	98.169826
2353.000000	98.183051
2352.000000	98.206592
2351.000000	98.215387
2350.000000	98.197289
2349.000000	98.162954
2348.000000	98.134221
2347.000000	98.130713
2346.000000	98.148021
2345.000000	98.154407
2344.000000	98.131984
2343.000000	98.101070
2342.000000	98.087710
2341.000000	98.095212
2340.000000	98.108323
2339.000000	98.113796
2338.000000	98.112793
2337.000000	98.111976
2336.000000	98.112504
2335.000000	98.113036
2334.000000	98.118440
2333.000000	98.134983
2332.000000	98.156898
2331.000000	98.169615
2330.000000	98.163794
2329.000000	98.139605
2328.000000	98.101671
2327.000000	98.056716
2326.000000	98.015227
2325.000000	97.988537
2324.000000	97.983170
2323.000000	97.997233
2322.000000	98.018500
2321.000000	98.030871
2320.000000	98.027478
2319.000000	98.015800
2318.000000	98.007567
2317.000000	98.008184
2316.000000	98.018264
2315.000000	98.037846
2314.000000	98.063477
2313.000000	98.087385
2312.000000	98.105170
2311.000000	98.121015
2310.000000	98.139726
2309.000000	98.157530
2308.000000	98.166955
2307.000000	98.166448
2306.000000	98.159932
2305.000000	98.151184
2304.000000	98.143787
2303.000000	98.142433
2302.000000	98.148198
2301.000000	98.155244
2300.000000	98.157811
2299.000000	98.157185
2298.000000	98.157433
2297.000000	98.158466
2296.000000	98.157190
2295.000000	98.152763
2294.000000	98.145855
2293.000000	98.135908
2292.000000	98.123290
2291.000000	98.111428
2290.000000	98.103205
2289.000000	98.098231
2288.000000	98.097164
2287.000000	98.104352
2286.000000	98.121584
2285.000000	98.142623
2284.000000	98.159255
2283.000000	98.169750
2282.000000	98.178126
2281.000000	98.188893
2280.000000	98.206077
2279.000000	98.231803
2278.000000	98.260548
2277.000000	98.279510
2276.000000	98.279806
2275.000000	98.264866
2274.000000	98.245514
2273.000000	98.231288
2272.000000	98.228134
2271.000000	98.237158
2270.000000	98.251472
2269.000000	98.260487
2268.000000	98.261683
2267.000000	98.263116
2266.000000	98.271397
2265.000000	98.283947
2264.000000	98.296618
2263.000000	98.311159
2262.000000	98.330102
2261.000000	98.350123
2260.000000	98.364633
2259.000000	98.368701
2258.000000	98.360245
2257.000000	98.343242
2256.000000	98.329996
2255.000000	98.330814
2254.000000	98.340458
2253.000000	98.345091
2252.000000	98.343397
2251.000000	98.348442
2250.000000	98.366556
2249.000000	98.388484
2248.000000	98.404585
2247.000000	98.415497
2246.000000	98.422110
2245.000000	98.417476
2244.000000	98.397195
2243.000000	98.367908
2242.000000	98.339578
2241.000000	98.317962
2240.000000	98.307720
2239.000000	98.311964
2238.000000	98.324862
2237.000000	98.335198
2236.000000	98.340227
2235.000000	98.345484
2234.000000	98.350598
2233.000000	98.349601
2232.000000	98.345364
2231.000000	98.346323
2230.000000	98.347098
2229.000000	98.332879
2228.000000	98.308353
2227.000000	98.301048
2226.000000	98.326486
2225.000000	98.367679
2224.000000	98.398117
2223.000000	98.407642
2222.000000	98.397630
2221.000000	98.371478
2220.000000	98.342608
2219.000000	98.333025
2218.000000	98.348922
2217.000000	98.370339
2216.000000	98.375532
2215.000000	98.362535
2214.000000	98.338307
2213.000000	98.304973
2212.000000	98.269881
2211.000000	98.253078
2210.000000	98.268846
2209.000000	98.308006
2208.000000	98.347939
2207.000000	98.372149
2206.000000	98.375834
2205.000000	98.366040
2204.000000	98.361637
2203.000000	98.377079
2202.000000	98.399754
2201.000000	98.400144
2200.000000	98.371944
2199.000000	98.344462
2198.000000	98.346701
2197.000000	98.375630
2196.000000	98.408068
2195.000000	98.428136
2194.000000	98.434190
2193.000000	98.433139
2192.000000	98.435285
2191.000000	98.442447
2190.000000	98.440630
2189.000000	98.421062
2188.000000	98.405513
2187.000000	98.426084
2186.000000	98.479738
2185.000000	98.530293
2184.000000	98.558345
2183.000000	98.579476
2182.000000	98.605982
2181.000000	98.624743
2180.000000	98.624552
2179.000000	98.612595
2178.000000	98.592967
2177.000000	98.560933
2176.000000	98.528081
2175.000000	98.520513
2174.000000	98.541652
2173.000000	98.567070
2172.000000	98.583982
2171.000000	98.601501
2170.000000	98.614845
2169.000000	98.597455
2168.000000	98.544265
2167.000000	98.489099
2166.000000	98.461293
2165.000000	98.454919
2164.000000	98.455605
2163.000000	98.467438
2162.000000	98.497392
2161.000000	98.546459
2160.000000	98.630708
2159.000000	98.766990
2158.000000	98.916809
2157.000000	99.006159
2156.000000	99.020283
2155.000000	99.010131
2154.000000	99.005769
2153.000000	98.987477
2152.000000	98.938733
2151.000000	98.874508
2150.000000	98.810147
2149.000000	98.745393
2148.000000	98.690706
2147.000000	98.670597
2146.000000	98.687126
2145.000000	98.711131
2144.000000	98.721303
2143.000000	98.722830
2142.000000	98.719209
2141.000000	98.698533
2140.000000	98.660366
2139.000000	98.628296
2138.000000	98.621743
2137.000000	98.635820
2136.000000	98.656512
2135.000000	98.675716
2134.000000	98.685586
2133.000000	98.680361
2132.000000	98.670316
2131.000000	98.672827
2130.000000	98.684615
2129.000000	98.681464
2128.000000	98.649319
2127.000000	98.599095
2126.000000	98.548245
2125.000000	98.505052
2124.000000	98.474556
2123.000000	98.461726
2122.000000	98.461923
2121.000000	98.461556
2120.000000	98.454063
2119.000000	98.444156
2118.000000	98.433896
2117.000000	98.418172
2116.000000	98.396901
2115.000000	98.378519
2114.000000	98.368139
2113.000000	98.364442
2112.000000	98.369248
2111.000000	98.385594
2110.000000	98.404826
2109.000000	98.411745
2108.000000	98.405427
2107.000000	98.399082
2106.000000	98.396649
2105.000000	98.387568
2104.000000	98.368325
2103.000000	98.350657
2102.000000	98.343354
2101.000000	98.343031
2100.000000	98.347528
2099.000000	98.361398
2098.000000	98.382957
2097.000000	98.402006
2096.000000	98.415826
2095.000000	98.431010
2094.000000	98.446166
2093.000000	98.451069
2092.000000	98.445367
2091.000000	98.439068
2090.000000	98.432720
2089.000000	98.417149
2088.000000	98.395771
2087.000000	98.385958
2086.000000	98.393060
2085.000000	98.402857
2084.000000	98.404436
2083.000000	98.401248
2082.000000	98.394888
2081.000000	98.380014
2080.000000	98.362246
2079.000000	98.358859
2078.000000	98.372766
2077.000000	98.386351
2076.000000	98.390089
2075.000000	98.395831
2074.000000	98.413425
2073.000000	98.436451
2072.000000	98.459850
2071.000000	98.488766
2070.000000	98.518694
2069.000000	98.530522
2068.000000	98.518909
2067.000000	98.504447
2066.000000	98.506455
2065.000000	98.522584
2064.000000	98.542655
2063.000000	98.560255
2062.000000	98.563189
2061.000000	98.539741
2060.000000	98.504108
2059.000000	98.487974
2058.000000	98.497504
2057.000000	98.506650
2056.000000	98.500711
2055.000000	98.495291
2054.000000	98.500418
2053.000000	98.500026
2052.000000	98.485416
2051.000000	98.477685
2050.000000	98.495886
2049.000000	98.527006
2048.000000	98.550575
2047.000000	98.570907
2046.000000	98.597632
2045.000000	98.621154
2044.000000	98.635495
2043.000000	98.655996
2042.000000	98.689366
2041.000000	98.715157
2040.000000	98.721480
2039.000000	98.728256
2038.000000	98.752284
2037.000000	98.782022
2036.000000	98.806372
2035.000000	98.835194
2034.000000	98.870042
2033.000000	98.890407
2032.000000	98.890860
2031.000000	98.892139
2030.000000	98.900753
2029.000000	98.901861
2028.000000	98.901228
2027.000000	98.924188
2026.000000	98.962668
2025.000000	98.977211
2024.000000	98.962316
2023.000000	98.952835
2022.000000	98.953113
2021.000000	98.922410
2020.000000	98.850085
2019.000000	98.785034
2018.000000	98.768468
2017.000000	98.787567
2016.000000	98.815574
2015.000000	98.846214
2014.000000	98.868069
2013.000000	98.860754
2012.000000	98.836254
2011.000000	98.833417
2010.000000	98.857019
2009.000000	98.871246
2008.000000	98.865720
2007.000000	98.870564
2006.000000	98.889671
2005.000000	98.885290
2004.000000	98.846875
2003.000000	98.812424
2002.000000	98.805272
2001.000000	98.805360
2000.000000	98.795449
1999.000000	98.784278
1998.000000	98.773711
1997.000000	98.750392
1996.000000	98.723390
1995.000000	98.723978
1994.000000	98.753427
1993.000000	98.770905
1992.000000	98.754402
1991.000000	98.735146
1990.000000	98.743196
1989.000000	98.766157
1988.000000	98.783630
1987.000000	98.795751
1986.000000	98.801559
1985.000000	98.791105
1984.000000	98.774410
1983.000000	98.777351
1982.000000	98.793653
1981.000000	98.783997
1980.000000	98.738217
1979.000000	98.693256
1978.000000	98.674391
1977.000000	98.668061
1976.000000	98.674690
1975.000000	98.725019
1974.000000	98.814697
1973.000000	98.886579
1972.000000	98.902886
1971.000000	98.880995
1970.000000	98.845358
1969.000000	98.802156
1968.000000	98.772903
1967.000000	98.791283
1966.000000	98.844674
1965.000000	98.879387
1964.000000	98.881642
1963.000000	98.892149
1962.000000	98.931960
1961.000000	98.968972
1960.000000	98.973446
1959.000000	98.959208
1958.000000	98.948453
1957.000000	98.941056
1956.000000	98.935010
1955.000000	98.934214
1954.000000	98.925451
1953.000000	98.886196
1952.000000	98.825996
1951.000000	98.785700
1950.000000	98.784105
1949.000000	98.800006
1948.000000	98.814062
1947.000000	98.830469
1946.000000	98.850210
1945.000000	98.860199
1944.000000	98.859917
1943.000000	98.865404
1942.000000	98.874030
1941.000000	98.863010
1940.000000	98.831920
1939.000000	98.805378
1938.000000	98.793825
1937.000000	98.785955
1936.000000	98.780200
1935.000000	98.791269
1934.000000	98.817712
1933.000000	98.834298
1932.000000	98.829375
1931.000000	98.821771
1930.000000	98.824415
1929.000000	98.826784
1928.000000	98.822171
1927.000000	98.819197
1926.000000	98.819486
1925.000000	98.808175
1924.000000	98.782227
1923.000000	98.760627
1922.000000	98.752367
1921.000000	98.746795
1920.000000	98.743627
1919.000000	98.760371
1918.000000	98.795492
1917.000000	98.814903
1916.000000	98.800621
1915.000000	98.773880
1914.000000	98.757306
1913.000000	98.750790
1912.000000	98.746941
1911.000000	98.746988
1910.000000	98.748404
1909.000000	98.742745
1908.000000	98.735781
1907.000000	98.743927
1906.000000	98.766027
1905.000000	98.779137
1904.000000	98.773263
1903.000000	98.763189
1902.000000	98.757712
1901.000000	98.748997
1900.000000	98.735802
1899.000000	98.731655
1898.000000	98.743068
1897.000000	98.757765
1896.000000	98.766594
1895.000000	98.776920
1894.000000	98.792721
1893.000000	98.806015
1892.000000	98.814103
1891.000000	98.823027
1890.000000	98.829078
1889.000000	98.819055
1888.000000	98.796015
1887.000000	98.777340
1886.000000	98.767513
1885.000000	98.758711
1884.000000	98.754634
1883.000000	98.769971
1882.000000	98.801537
1881.000000	98.827363
1880.000000	98.837943
1879.000000	98.843664
1878.000000	98.850306
1877.000000	98.848103
1876.000000	98.833589
1875.000000	98.821669
1874.000000	98.823301
1873.000000	98.831697
1872.000000	98.838742
1871.000000	98.844991
1870.000000	98.847930
1869.000000	98.840114
1868.000000	98.830161
1867.000000	98.833686
1866.000000	98.840077
1865.000000	98.827960
1864.000000	98.799999
1863.000000	98.778849
1862.000000	98.776970
1861.000000	98.785756
1860.000000	98.795751
1859.000000	98.807474
1858.000000	98.818171
1857.000000	98.821446
1856.000000	98.823014
1855.000000	98.835810
1854.000000	98.856658
1853.000000	98.870091
1852.000000	98.873168
1851.000000	98.872392
1850.000000	98.868544
1849.000000	98.860669
1848.000000	98.862214
1847.000000	98.888482
1846.000000	98.926660
1845.000000	98.939745
1844.000000	98.915463
1843.000000	98.887548
1842.000000	98.877522
1841.000000	98.873436
1840.000000	98.866545
1839.000000	98.861359
1838.000000	98.859079
1837.000000	98.852026
1836.000000	98.843792
1835.000000	98.849973
1834.000000	98.872527
1833.000000	98.897314
1832.000000	98.912038
1831.000000	98.915051
1830.000000	98.912467
1829.000000	98.907641
1828.000000	98.901087
1827.000000	98.895971
1826.000000	98.891966
1825.000000	98.883627
1824.000000	98.874052
1823.000000	98.872736
1822.000000	98.876017
1821.000000	98.873317
1820.000000	98.867239
1819.000000	98.872664
1818.000000	98.891753
1817.000000	98.904680
1816.000000	98.902061
1815.000000	98.895947
1814.000000	98.892970
1813.000000	98.885746
1812.000000	98.871687
1811.000000	98.866244
1810.000000	98.874485
1809.000000	98.875652
1808.000000	98.862598
1807.000000	98.854291
1806.000000	98.860147
1805.000000	98.865454
1804.000000	98.861900
1803.000000	98.862220
1802.000000	98.874727
1801.000000	98.885128
1800.000000	98.879228
1799.000000	98.868439
1798.000000	98.865328
1797.000000	98.867091
1796.000000	98.875962
1795.000000	98.899915
1794.000000	98.932602
1793.000000	98.945560
1792.000000	98.922860
1791.000000	98.891654
1790.000000	98.873873
1789.000000	98.860753
1788.000000	98.849578
1787.000000	98.850702
1786.000000	98.866146
1785.000000	98.881184
1784.000000	98.887474
1783.000000	98.888218
1782.000000	98.881696
1781.000000	98.867387
1780.000000	98.856152
1779.000000	98.864533
1778.000000	98.889222
1777.000000	98.911492
1776.000000	98.924806
1775.000000	98.934174
1774.000000	98.943713
1773.000000	98.947403
1772.000000	98.946665
1771.000000	98.957393
1770.000000	98.971440
1769.000000	98.962089
1768.000000	98.932271
1767.000000	98.913296
1766.000000	98.921091
1765.000000	98.939850
1764.000000	98.952208
1763.000000	98.955449
1762.000000	98.952303
1761.000000	98.943831
1760.000000	98.932034
1759.000000	98.924975
1758.000000	98.920564
1757.000000	98.910353
1756.000000	98.897833
1755.000000	98.891514
1754.000000	98.888535
1753.000000	98.880821
1752.000000	98.870432
1751.000000	98.865811
1750.000000	98.863030
1749.000000	98.840440
1748.000000	98.798251
1747.000000	98.762735
1746.000000	98.745280
1745.000000	98.731720
1744.000000	98.710622
1743.000000	98.695952
1742.000000	98.696975
1741.000000	98.688970
1740.000000	98.653929
1739.000000	98.625032
1738.000000	98.633311
1737.000000	98.656588
1736.000000	98.667094
1735.000000	98.666615
1734.000000	98.665719
1733.000000	98.666451
1732.000000	98.667366
1731.000000	98.670720
1730.000000	98.672741
1729.000000	98.667119
1728.000000	98.656732
1727.000000	98.648739
1726.000000	98.646697
1725.000000	98.642386
1724.000000	98.627437
1723.000000	98.617948
1722.000000	98.628765
1721.000000	98.642445
1720.000000	98.627384
1719.000000	98.577253
1718.000000	98.521688
1717.000000	98.472734
1716.000000	98.422453
1715.000000	98.377874
1714.000000	98.327952
1713.000000	98.250506
1712.000000	98.154473
1711.000000	98.068025
1710.000000	98.001973
1709.000000	97.943889
1708.000000	97.875804
1707.000000	97.784957
1706.000000	97.668491
1705.000000	97.540974
1704.000000	97.442083
1703.000000	97.385719
1702.000000	97.342391
1701.000000	97.206976
1700.000000	96.929532
1699.000000	96.655100
1698.000000	96.447432
1697.000000	96.214824
1696.000000	95.938322
1695.000000	95.719150
1694.000000	95.599789
1693.000000	95.500870
1692.000000	95.363627
1691.000000	95.198402
1690.000000	95.036466
1689.000000	94.883912
1688.000000	94.736638
1687.000000	94.591380
1686.000000	94.443023
1685.000000	94.208551
1684.000000	93.867133
1683.000000	93.588691
1682.000000	93.391954
1681.000000	93.155742
1680.000000	92.869935
1679.000000	92.600708
1678.000000	92.380741
1677.000000	92.151800
1676.000000	91.829390
1675.000000	91.427713
1674.000000	91.058719
1673.000000	90.760501
1672.000000	90.470839
1671.000000	90.131336
1670.000000	89.715310
1669.000000	89.254647
1668.000000	88.828061
1667.000000	88.484742
1666.000000	88.211132
1665.000000	87.945929
1664.000000	87.621328
1663.000000	87.230089
1662.000000	86.839793
1661.000000	86.500394
1660.000000	86.198563
1659.000000	85.928731
1658.000000	85.704623
1657.000000	85.528313
1656.000000	85.362765
1655.000000	85.176429
1654.000000	84.899744
1653.000000	84.538877
1652.000000	84.293296
1651.000000	84.220292
1650.000000	84.217442
1649.000000	84.186024
1648.000000	84.065629
1647.000000	83.894008
1646.000000	83.760590
1645.000000	83.676200
1644.000000	83.597586
1643.000000	83.521174
1642.000000	83.449076
1641.000000	83.374591
1640.000000	83.296007
1639.000000	83.221389
1638.000000	83.150614
1637.000000	83.047121
1636.000000	82.872321
1635.000000	82.680513
1634.000000	82.540959
1633.000000	82.426502
1632.000000	82.309921
1631.000000	82.206526
1630.000000	82.135186
1629.000000	82.093917
1628.000000	82.073861
1627.000000	82.086486
1626.000000	82.144795
1625.000000	82.247653
1624.000000	82.391658
1623.000000	82.583793
1622.000000	82.810531
1621.000000	83.034273
1620.000000	83.236834
1619.000000	83.438291
1618.000000	83.693812
1617.000000	84.051377
1616.000000	84.472929
1615.000000	84.866208
1614.000000	85.200612
1613.000000	85.507055
1612.000000	85.823294
1611.000000	86.165232
1610.000000	86.519765
1609.000000	86.871816
1608.000000	87.219226
1607.000000	87.558380
1606.000000	87.880615
1605.000000	88.189608
1604.000000	88.493520
1603.000000	88.788388
1602.000000	89.065906
1601.000000	89.328185
1600.000000	89.581300
1599.000000	89.819450
1598.000000	90.034630
1597.000000	90.232189
1596.000000	90.421885
1595.000000	90.598958
1594.000000	90.751078
1593.000000	90.881089
1592.000000	91.000326
1591.000000	91.105623
1590.000000	91.185170
1589.000000	91.243178
1588.000000	91.292051
1587.000000	91.327882
1586.000000	91.337103
1585.000000	91.323149
1584.000000	91.297771
1583.000000	91.249861
1582.000000	91.166264
1581.000000	91.066308
1580.000000	90.974938
1579.000000	90.875449
1578.000000	90.727958
1577.000000	90.517425
1576.000000	90.293158
1575.000000	90.124529
1574.000000	90.010641
1573.000000	89.909556
1572.000000	89.788911
1571.000000	89.612819
1570.000000	89.346960
1569.000000	89.041093
1568.000000	88.781106
1567.000000	88.560396
1566.000000	88.323451
1565.000000	88.058596
1564.000000	87.799206
1563.000000	87.590152
1562.000000	87.427821
1561.000000	87.297204
1560.000000	87.070276
1559.000000	86.610121
1558.000000	86.184445
1557.000000	85.964921
1556.000000	85.788012
1555.000000	85.583210
1554.000000	85.367557
1553.000000	85.179019
1552.000000	85.026269
1551.000000	84.884510
1550.000000	84.751683
1549.000000	84.645793
1548.000000	84.580356
1547.000000	84.542945
1546.000000	84.515639
1545.000000	84.489296
1544.000000	84.469430
1543.000000	84.463158
1542.000000	84.462830
1541.000000	84.447112
1540.000000	84.454475
1539.000000	84.549655
1538.000000	84.699491
1537.000000	84.851846
1536.000000	85.000415
1535.000000	85.157922
1534.000000	85.344004
1533.000000	85.544572
1532.000000	85.719461
1531.000000	85.869288
1530.000000	86.026482
1529.000000	86.202891
1528.000000	86.391737
1527.000000	86.594108
1526.000000	86.809622
1525.000000	87.012695
1524.000000	87.180127
1523.000000	87.332991
1522.000000	87.519327
1521.000000	87.736766
1520.000000	87.936406
1519.000000	88.108986
1518.000000	88.278556
1517.000000	88.454682
1516.000000	88.628899
1515.000000	88.794811
1514.000000	88.961317
1513.000000	89.138151
1512.000000	89.325444
1511.000000	89.522980
1510.000000	89.726387
1509.000000	89.930443
1508.000000	90.140682
1507.000000	90.398363
1506.000000	90.695488
1505.000000	90.924107
1504.000000	91.066099
1503.000000	91.196257
1502.000000	91.352794
1501.000000	91.538351
1500.000000	91.732139
1499.000000	91.915690
1498.000000	92.097920
1497.000000	92.282489
1496.000000	92.456049
1495.000000	92.624516
1494.000000	92.797892
1493.000000	92.965042
1492.000000	93.116422
1491.000000	93.263166
1490.000000	93.415067
1489.000000	93.541557
1488.000000	93.616839
1487.000000	93.669818
1486.000000	93.719608
1485.000000	93.752742
1484.000000	93.764042
1483.000000	93.762460
1482.000000	93.754956
1481.000000	93.731817
1480.000000	93.690477
1479.000000	93.646277
1478.000000	93.602941
1477.000000	93.537899
1476.000000	93.438877
1475.000000	93.326208
1474.000000	93.202385
1473.000000	93.023754
1472.000000	92.791199
1471.000000	92.580741
1470.000000	92.418103
1469.000000	92.272050
1468.000000	92.128878
1467.000000	91.993555
1466.000000	91.854351
1465.000000	91.683496
1464.000000	91.491225
1463.000000	91.326951
1462.000000	91.211898
1461.000000	91.125657
1460.000000	91.037067
1459.000000	90.923463
1458.000000	90.756614
1457.000000	90.517075
1456.000000	90.278363
1455.000000	90.122556
1454.000000	90.032106
1453.000000	89.962463
1452.000000	89.906945
1451.000000	89.885436
1450.000000	89.902480
1449.000000	89.937248
1448.000000	89.979923
1447.000000	90.041678
1446.000000	90.125268
1445.000000	90.221140
1444.000000	90.323614
1443.000000	90.437949
1442.000000	90.568652
1441.000000	90.710895
1440.000000	90.859958
1439.000000	91.022616
1438.000000	91.212414
1437.000000	91.418302
1436.000000	91.597800
1435.000000	91.728468
1434.000000	91.832128
1433.000000	91.929750
1432.000000	92.022788
1431.000000	92.106074
1430.000000	92.178279
1429.000000	92.236910
1428.000000	92.277689
1427.000000	92.304484
1426.000000	92.322447
1425.000000	92.334590
1424.000000	92.343197
1423.000000	92.359182
1422.000000	92.393923
1421.000000	92.444121
1420.000000	92.489363
1419.000000	92.511999
1418.000000	92.527409
1417.000000	92.547119
1416.000000	92.560789
1415.000000	92.569120
1414.000000	92.579319
1413.000000	92.585511
1412.000000	92.572595
1411.000000	92.537446
1410.000000	92.494178
1409.000000	92.450733
1408.000000	92.403511
1407.000000	92.352757
1406.000000	92.301982
1405.000000	92.252516
1404.000000	92.206527
1403.000000	92.174812
1402.000000	92.165132
1401.000000	92.166813
1400.000000	92.162276
1399.000000	92.151330
1398.000000	92.149653
1397.000000	92.156875
1396.000000	92.155694
1395.000000	92.137233
1394.000000	92.111225
1393.000000	92.089384
1392.000000	92.072169
1391.000000	92.061206
1390.000000	92.056880
1389.000000	92.048419
1388.000000	92.023343
1387.000000	91.986901
1386.000000	91.955704
1385.000000	91.932696
1384.000000	91.911926
1383.000000	91.897087
1382.000000	91.893998
1381.000000	91.895186
1380.000000	91.891856
1379.000000	91.890831
1378.000000	91.904787
1377.000000	91.934499
1376.000000	91.974493
1375.000000	92.027624
1374.000000	92.100463
1373.000000	92.186824
1372.000000	92.274309
1371.000000	92.363078
1370.000000	92.460485
1369.000000	92.571979
1368.000000	92.698742
1367.000000	92.838198
1366.000000	92.983918
1365.000000	93.126984
1364.000000	93.264201
1363.000000	93.398337
1362.000000	93.523440
1361.000000	93.624633
1360.000000	93.699085
1359.000000	93.757799
1358.000000	93.806190
1357.000000	93.837622
1356.000000	93.846059
1355.000000	93.834776
1354.000000	93.807535
1353.000000	93.758732
1352.000000	93.684343
1351.000000	93.591376
1350.000000	93.486771
1349.000000	93.372652
1348.000000	93.251527
1347.000000	93.129453
1346.000000	93.008568
1345.000000	92.885113
1344.000000	92.760286
1343.000000	92.642844
1342.000000	92.535815
1341.000000	92.431461
1340.000000	92.327320
1339.000000	92.237936
1338.000000	92.180549
1337.000000	92.157049
1336.000000	92.163134
1335.000000	92.200513
1334.000000	92.267924
1333.000000	92.354367
1332.000000	92.449944
1331.000000	92.553739
1330.000000	92.664982
1329.000000	92.776066
1328.000000	92.880442
1327.000000	92.976577
1326.000000	93.059567
1325.000000	93.121530
1324.000000	93.162182
1323.000000	93.191080
1322.000000	93.214904
1321.000000	93.230431
1320.000000	93.235524
1319.000000	93.238388
1318.000000	93.248055
1317.000000	93.263988
1316.000000	93.284773
1315.000000	93.317146
1314.000000	93.366838
1313.000000	93.428282
1312.000000	93.492780
1311.000000	93.559179
1310.000000	93.627832
1309.000000	93.691698
1308.000000	93.743439
1307.000000	93.784742
1306.000000	93.820257
1305.000000	93.850587
1304.000000	93.876691
1303.000000	93.904676
1302.000000	93.937490
1301.000000	93.968143
1300.000000	93.989094
1299.000000	94.002159
1298.000000	94.011396
1297.000000	94.013478
1296.000000	94.003965
1295.000000	93.984871
1294.000000	93.957950
1293.000000	93.916946
1292.000000	93.855688
1291.000000	93.778313
1290.000000	93.692600
1289.000000	93.600495
1288.000000	93.503528
1287.000000	93.409572
1286.000000	93.324872
1285.000000	93.246723
1284.000000	93.172726
1283.000000	93.108932
1282.000000	93.060105
1281.000000	93.021380
1280.000000	92.989780
1279.000000	92.972974
1278.000000	92.976429
1277.000000	92.991045
1276.000000	93.003880
1275.000000	93.013188
1274.000000	93.023133
1273.000000	93.032328
1272.000000	93.036761
1271.000000	93.036320
1270.000000	93.029474
1269.000000	93.009878
1268.000000	92.976618
1267.000000	92.939094
1266.000000	92.904195
1265.000000	92.866590
1264.000000	92.819806
1263.000000	92.767389
1262.000000	92.713713
1261.000000	92.654704
1260.000000	92.587238
1259.000000	92.516521
1258.000000	92.445036
1257.000000	92.365093
1256.000000	92.272638
1255.000000	92.176105
1254.000000	92.081856
1253.000000	91.982792
1252.000000	91.871135
1251.000000	91.750789
1250.000000	91.626416
1249.000000	91.493172
1248.000000	91.349142
1247.000000	91.205765
1246.000000	91.073707
1245.000000	90.948750
1244.000000	90.823519
1243.000000	90.702402
1242.000000	90.593358
1241.000000	90.496076
1240.000000	90.410371
1239.000000	90.344811
1238.000000	90.304178
1237.000000	90.281079
1236.000000	90.270796
1235.000000	90.283167
1234.000000	90.329508
1233.000000	90.407560
1232.000000	90.510785
1231.000000	90.638946
1230.000000	90.789881
1229.000000	90.954846
1228.000000	91.130920
1227.000000	91.326895
1226.000000	91.546042
1225.000000	91.775020
1224.000000	91.999908
1223.000000	92.220257
1222.000000	92.437698
1221.000000	92.643266
1220.000000	92.827012
1219.000000	92.988732
1218.000000	93.129691
1217.000000	93.243259
1216.000000	93.324721
1215.000000	93.381588
1214.000000	93.421809
1213.000000	93.441928
1212.000000	93.436005
1211.000000	93.407592
1210.000000	93.363187
1209.000000	93.302223
1208.000000	93.226435
1207.000000	93.149552
1206.000000	93.085873
1205.000000	93.037793
1204.000000	93.005848
1203.000000	93.000498
1202.000000	93.031801
1201.000000	93.097079
1200.000000	93.188632
1199.000000	93.304871
1198.000000	93.442265
1197.000000	93.587387
1196.000000	93.729650
1195.000000	93.872152
1194.000000	94.019680
1193.000000	94.164716
1192.000000	94.296591
1191.000000	94.416438
1190.000000	94.532084
1189.000000	94.644601
1188.000000	94.749816
1187.000000	94.846374
1186.000000	94.932688
1185.000000	95.003554
1184.000000	95.058034
1183.000000	95.104057
1182.000000	95.147409
1181.000000	95.183499
1180.000000	95.208950
1179.000000	95.231348
1178.000000	95.257888
1177.000000	95.284306
1176.000000	95.304444
1175.000000	95.321264
1174.000000	95.338766
1173.000000	95.353139
1172.000000	95.361438
1171.000000	95.368538
1170.000000	95.376007
1169.000000	95.374546
1168.000000	95.358040
1167.000000	95.334986
1166.000000	95.315311
1165.000000	95.296823
1164.000000	95.275954
1163.000000	95.260724
1162.000000	95.260043
1161.000000	95.270687
1160.000000	95.287233
1159.000000	95.314871
1158.000000	95.360466
1157.000000	95.419987
1156.000000	95.486960
1155.000000	95.563039
1154.000000	95.649226
1153.000000	95.737539
1152.000000	95.822120
1151.000000	95.908201
1150.000000	95.998399
1149.000000	96.081335
1148.000000	96.145982
1147.000000	96.197125
1146.000000	96.244861
1145.000000	96.289483
1144.000000	96.328234
1143.000000	96.364854
1142.000000	96.400677
1141.000000	96.426922
1140.000000	96.438344
1139.000000	96.444284
1138.000000	96.454187
1137.000000	96.463474
1136.000000	96.464868
1135.000000	96.461702
1134.000000	96.457775
1133.000000	96.446069
1132.000000	96.421427
1131.000000	96.392871
1130.000000	96.369805
1129.000000	96.347531
1128.000000	96.319294
1127.000000	96.290799
1126.000000	96.268875
1125.000000	96.247995
1124.000000	96.222327
1123.000000	96.198671
1122.000000	96.182668
1121.000000	96.164158
1120.000000	96.131577
1119.000000	96.089873
1118.000000	96.049528
1117.000000	96.009073
1116.000000	95.963052
1115.000000	95.915320
1114.000000	95.869753
1113.000000	95.818940
1112.000000	95.757062
1111.000000	95.692561
1110.000000	95.634177
1109.000000	95.576744
1108.000000	95.513930
1107.000000	95.452576
1106.000000	95.399584
1105.000000	95.348533
1104.000000	95.294574
1103.000000	95.247902
1102.000000	95.216625
1101.000000	95.188653
1100.000000	95.147681
1099.000000	95.096134
1098.000000	95.044608
1097.000000	94.994519
1096.000000	94.944141
1095.000000	94.898247
1094.000000	94.855523
1093.000000	94.799506
1092.000000	94.717135
1091.000000	94.614238
1090.000000	94.499732
1089.000000	94.370396
1088.000000	94.225248
1087.000000	94.078236
1086.000000	93.940943
1085.000000	93.808561
1084.000000	93.678878
1083.000000	93.568379
1082.000000	93.493518
1081.000000	93.451923
1080.000000	93.439470
1079.000000	93.466808
1078.000000	93.539845
1077.000000	93.641596
1076.000000	93.749683
1075.000000	93.858077
1074.000000	93.966377
1073.000000	94.064794
1072.000000	94.145993
1071.000000	94.215571
1070.000000	94.275558
1069.000000	94.313145
1068.000000	94.321302
1067.000000	94.314215
1066.000000	94.308063
1065.000000	94.301027
1064.000000	94.286930
1063.000000	94.272620
1062.000000	94.266964
1061.000000	94.268196
1060.000000	94.275564
1059.000000	94.297711
1058.000000	94.336881
1057.000000	94.381812
1056.000000	94.426896
1055.000000	94.479759
1054.000000	94.539150
1053.000000	94.587273
1052.000000	94.617766
1051.000000	94.648893
1050.000000	94.692807
1049.000000	94.735636
1048.000000	94.765366
1047.000000	94.794466
1046.000000	94.836118
1045.000000	94.881316
1044.000000	94.917126
1043.000000	94.945737
1042.000000	94.968521
1041.000000	94.972165
1040.000000	94.947705
1039.000000	94.902857
1038.000000	94.841144
1037.000000	94.750211
1036.000000	94.629384
1035.000000	94.507082
1034.000000	94.412191
1033.000000	94.348303
1032.000000	94.312881
1031.000000	94.317402
1030.000000	94.366138
1029.000000	94.438174
1028.000000	94.511855
1027.000000	94.589990
1026.000000	94.681776
1025.000000	94.779541
1024.000000	94.872859
1023.000000	94.964984
1022.000000	95.056058
1021.000000	95.130019
1020.000000	95.178242
1019.000000	95.217218
1018.000000	95.264234
1017.000000	95.314816
1016.000000	95.363536
1015.000000	95.425449
1014.000000	95.515374
1013.000000	95.623456
1012.000000	95.732098
1011.000000	95.840317
1010.000000	95.952745
1009.000000	96.062702
1008.000000	96.164848
1007.000000	96.268431
1006.000000	96.380310
1005.000000	96.490769
1004.000000	96.592088
1003.000000	96.694496
1002.000000	96.807480
1001.000000	96.922609
1000.000000	97.030163
999.000000	97.135462
998.000000	97.243173
997.000000	97.343939
996.000000	97.432447
995.000000	97.520462
994.000000	97.615285
993.000000	97.703612
992.000000	97.773928
991.000000	97.835918
990.000000	97.901199
989.000000	97.962536
988.000000	98.010005
987.000000	98.049460
986.000000	98.086613
985.000000	98.110959
984.000000	98.113817
983.000000	98.104874
982.000000	98.093288
981.000000	98.069460
980.000000	98.023969
979.000000	97.966870
978.000000	97.909566
977.000000	97.846470
976.000000	97.773308
975.000000	97.706214
974.000000	97.662493
973.000000	97.640102
972.000000	97.633947
971.000000	97.653324
970.000000	97.702106
969.000000	97.760302
968.000000	97.807966
967.000000	97.850534
966.000000	97.901215
965.000000	97.954419
964.000000	97.998155
963.000000	98.036524
962.000000	98.078777
961.000000	98.119950
960.000000	98.152420
959.000000	98.182789
958.000000	98.218316
957.000000	98.250774
956.000000	98.271551
955.000000	98.288461
954.000000	98.310055
953.000000	98.328300
952.000000	98.333808
951.000000	98.333052
950.000000	98.333178
949.000000	98.326039
948.000000	98.303871
947.000000	98.275413
946.000000	98.250019
945.000000	98.222505
944.000000	98.189616
943.000000	98.163153
942.000000	98.150219
941.000000	98.138792
940.000000	98.120402
939.000000	98.107770
938.000000	98.113694
937.000000	98.131576
936.000000	98.154601
935.000000	98.192712
934.000000	98.251012
933.000000	98.311967
932.000000	98.359739
931.000000	98.402752
930.000000	98.451970
929.000000	98.497050
928.000000	98.524805
927.000000	98.542611
926.000000	98.561755
925.000000	98.575956
924.000000	98.577663
923.000000	98.578413
922.000000	98.591251
921.000000	98.609458
920.000000	98.622584
919.000000	98.636650
918.000000	98.659055
917.000000	98.681494
916.000000	98.698325
915.000000	98.723631
914.000000	98.769309
913.000000	98.822654
912.000000	98.865917
911.000000	98.900390
910.000000	98.932126
909.000000	98.952565
908.000000	98.954699
907.000000	98.950650
906.000000	98.952430
905.000000	98.952146
904.000000	98.940691
903.000000	98.927891
902.000000	98.924412
901.000000	98.923222
900.000000	98.918137
899.000000	98.920773
898.000000	98.937887
897.000000	98.952971
896.000000	98.951122
895.000000	98.943071
894.000000	98.944024
893.000000	98.949128
892.000000	98.950361
891.000000	98.955552
890.000000	98.969036
889.000000	98.974799
888.000000	98.961490
887.000000	98.942204
886.000000	98.928047
885.000000	98.904572
884.000000	98.858986
883.000000	98.807424
882.000000	98.769574
881.000000	98.737957
880.000000	98.697988
879.000000	98.656871
878.000000	98.625830
877.000000	98.596662
876.000000	98.562974
875.000000	98.543034
874.000000	98.553314
873.000000	98.580798
872.000000	98.607191
871.000000	98.638310
870.000000	98.684014
869.000000	98.732400
868.000000	98.769845
867.000000	98.804490
866.000000	98.845094
865.000000	98.878465
864.000000	98.892352
863.000000	98.898172
862.000000	98.907374
861.000000	98.908008
860.000000	98.889600
859.000000	98.866893
858.000000	98.853992
857.000000	98.838271
856.000000	98.806386
855.000000	98.772855
854.000000	98.755783
853.000000	98.746833
852.000000	98.731469
851.000000	98.717630
850.000000	98.717683
849.000000	98.723834
848.000000	98.726581
847.000000	98.736629
846.000000	98.763994
845.000000	98.796970
844.000000	98.824077
843.000000	98.853306
842.000000	98.887948
841.000000	98.909633
840.000000	98.909231
839.000000	98.908329
838.000000	98.926005
837.000000	98.949508
836.000000	98.961560
835.000000	98.968612
834.000000	98.977940
833.000000	98.975984
832.000000	98.956829
831.000000	98.943638
830.000000	98.953131
829.000000	98.965946
828.000000	98.961283
827.000000	98.952783
826.000000	98.958504
825.000000	98.965324
824.000000	98.956518
823.000000	98.944706
822.000000	98.943124
821.000000	98.936752
820.000000	98.914817
819.000000	98.898528
818.000000	98.904130
817.000000	98.910052
816.000000	98.892835
815.000000	98.867426
814.000000	98.861168
813.000000	98.873132
812.000000	98.888346
811.000000	98.905850
810.000000	98.924944
809.000000	98.930508
808.000000	98.919522
807.000000	98.915469
806.000000	98.931098
805.000000	98.945653
804.000000	98.943259
803.000000	98.941023
802.000000	98.953252
801.000000	98.962511
800.000000	98.954428
799.000000	98.946650
798.000000	98.953543
797.000000	98.957497
796.000000	98.945337
795.000000	98.937158
794.000000	98.947381
793.000000	98.952808
792.000000	98.931560
791.000000	98.899954
790.000000	98.880569
789.000000	98.868202
788.000000	98.857436
787.000000	98.866964
786.000000	98.902913
785.000000	98.932717
784.000000	98.929717
783.000000	98.912247
782.000000	98.907037
781.000000	98.907110
780.000000	98.898690
779.000000	98.896069
778.000000	98.913426
777.000000	98.932055
776.000000	98.931335
775.000000	98.924653
774.000000	98.931428
773.000000	98.941453
772.000000	98.939738
771.000000	98.938067
770.000000	98.948776
769.000000	98.955159
768.000000	98.941811
767.000000	98.927636
766.000000	98.935244
765.000000	98.952740
764.000000	98.957406
763.000000	98.952759
762.000000	98.951621
761.000000	98.947887
760.000000	98.934275
759.000000	98.923085
758.000000	98.921890
757.000000	98.915030
756.000000	98.894527
755.000000	98.880528
754.000000	98.885694
753.000000	98.889896
752.000000	98.876104
751.000000	98.858950
750.000000	98.852034
749.000000	98.841778
748.000000	98.822250
747.000000	98.818677
746.000000	98.844458
745.000000	98.868869
744.000000	98.861151
743.000000	98.834261
742.000000	98.812840
741.000000	98.791685
740.000000	98.759154
739.000000	98.729287
738.000000	98.716016
737.000000	98.706039
736.000000	98.687595
735.000000	98.674879
734.000000	98.673351
733.000000	98.655597
732.000000	98.604378
731.000000	98.546807
730.000000	98.511029
729.000000	98.479773
728.000000	98.424965
727.000000	98.355671
726.000000	98.293936
725.000000	98.237164
724.000000	98.180400
723.000000	98.141053
722.000000	98.126222
721.000000	98.108455
720.000000	98.070273
719.000000	98.037908
718.000000	98.035188
717.000000	98.040084
716.000000	98.021113
715.000000	97.983843
714.000000	97.948510
713.000000	97.914076
712.000000	97.877247
711.000000	97.853639
710.000000	97.844989
709.000000	97.818797
708.000000	97.754781
707.000000	97.681648
706.000000	97.631280
705.000000	97.594101
704.000000	97.554452
703.000000	97.525555
702.000000	97.516987
701.000000	97.506315
700.000000	97.476710
699.000000	97.449440
698.000000	97.441921
697.000000	97.433045
696.000000	97.408094
695.000000	97.390626
694.000000	97.399691
693.000000	97.413069
692.000000	97.405728
691.000000	97.392255
690.000000	97.388167
689.000000	97.373442
688.000000	97.333750
687.000000	97.293150
686.000000	97.269657
685.000000	97.239870
684.000000	97.184454
683.000000	97.131488
682.000000	97.111643
681.000000	97.108276
680.000000	97.088057
679.000000	97.049311
678.000000	97.004796
677.000000	96.944023
676.000000	96.866714
675.000000	96.809058
674.000000	96.791191
673.000000	96.784256
672.000000	96.770428
671.000000	96.787412
670.000000	96.866234
669.000000	96.958726
668.000000	96.920995
667.000000	96.732934
666.000000	96.604479
665.000000	96.541878
664.000000	96.460949
663.000000	96.385540
662.000000	96.357726
661.000000	96.360638
660.000000	96.354485
659.000000	96.347731
658.000000	96.354239
657.000000	96.339458
656.000000	96.290469
655.000000	96.265366
654.000000	96.295637
653.000000	96.318343
652.000000	96.280349
651.000000	96.222791
650.000000	96.200281
649.000000	96.192972
648.000000	96.172137
647.000000	96.165685
646.000000	96.187433
645.000000	96.188901
644.000000	96.144798
643.000000	96.105146
642.000000	96.109360
641.000000	96.121425
640.000000	96.108693
639.000000	96.107690
638.000000	96.142583
637.000000	96.162948
636.000000	96.130517
635.000000	96.086984
634.000000	96.071878
633.000000	96.054238
632.000000	96.007628
631.000000	95.973658
630.000000	95.982980
629.000000	95.991884
628.000000	95.966080
627.000000	95.946985
626.000000	95.965841
625.000000	95.974539
624.000000	95.934329
623.000000	95.889356
622.000000	95.884159
621.000000	95.885715
620.000000	95.856625
619.000000	95.828016
618.000000	95.832636
617.000000	95.840421
616.000000	95.830088
615.000000	95.846161
614.000000	95.909418
613.000000	95.956451
612.000000	95.941037
611.000000	95.914212
610.000000	95.928443
609.000000	95.949458
608.000000	95.938736
607.000000	95.937522
606.000000	95.982212
605.000000	96.024887
604.000000	96.023501
603.000000	96.024983
602.000000	96.074347
601.000000	96.124737
600.000000	96.125640
599.000000	96.114515
598.000000	96.139112
597.000000	96.169061
596.000000	96.171766
595.000000	96.190221
594.000000	96.261712
593.000000	96.334404
592.000000	96.348462
591.000000	96.330502
590.000000	96.325397
589.000000	96.317606
588.000000	96.298685
587.000000	96.321116
586.000000	96.404550
585.000000	96.474186
584.000000	96.474777
583.000000	96.459309
582.000000	96.482164
581.000000	96.502598
580.000000	96.479780
579.000000	96.461871
578.000000	96.488182
577.000000	96.505145
576.000000	96.472859
575.000000	96.455070
574.000000	96.498838
573.000000	96.531680
572.000000	96.485785
571.000000	96.411380
570.000000	96.373723
569.000000	96.333100
568.000000	96.239678
567.000000	96.148097
566.000000	96.113795
565.000000	96.078114
564.000000	95.978149
563.000000	95.868667
562.000000	95.821325
561.000000	95.799658
560.000000	95.749039
559.000000	95.714693
558.000000	95.745201
557.000000	95.777311
556.000000	95.740319
555.000000	95.683461
554.000000	95.678078
553.000000	95.689482
552.000000	95.668610
551.000000	95.667119
550.000000	95.737979
549.000000	95.821487
548.000000	95.859460
547.000000	95.915051
546.000000	96.052314
545.000000	96.199123
544.000000	96.265654
543.000000	96.286563
542.000000	96.318371
541.000000	96.311601
540.000000	96.214351
539.000000	96.094315
538.000000	96.028012
537.000000	95.970124
536.000000	95.858107
535.000000	95.741718
534.000000	95.675311
533.000000	95.594135
532.000000	95.438330
531.000000	95.285993
530.000000	95.222580
529.000000	95.193358
528.000000	95.124676
527.000000	95.075097
526.000000	95.122370
525.000000	95.198240
524.000000	95.212517
523.000000	95.219649
522.000000	95.296898
521.000000	95.400539
520.000000	95.472631
519.000000	95.570288
518.000000	95.740905
517.000000	95.879907
516.000000	95.902546
515.000000	95.909688
514.000000	96.006003
513.000000	96.126368
512.000000	96.182987
511.000000	96.237047
510.000000	96.372264
509.000000	96.522080
508.000000	96.585626
507.000000	96.600166
506.000000	96.643172
505.000000	96.684366
504.000000	96.691081
503.000000	96.740780
502.000000	96.867071
501.000000	96.937921
500.000000	96.882105
499.000000	96.841064
498.000000	96.931027
497.000000	97.047743
496.000000	97.058865
495.000000	97.032860
494.000000	97.089626
493.000000	97.166012
492.000000	97.136730
491.000000	97.047734
490.000000	97.019396
489.000000	97.040072
488.000000	97.059196
487.000000	97.139229
486.000000	97.329024
485.000000	97.514251
484.000000	97.584922
483.000000	97.627815
482.000000	97.736550
481.000000	97.811968
480.000000	97.757513
479.000000	97.685656
478.000000	97.731683
477.000000	97.813170
476.000000	97.790221
475.000000	97.722757
474.000000	97.748642
473.000000	97.830003
472.000000	97.859113
471.000000	97.904830
470.000000	98.061067
469.000000	98.219080
468.000000	98.239116
467.000000	98.179531
466.000000	98.163481
465.000000	98.155416
464.000000	98.096692
463.000000	98.091141
462.000000	98.219455
461.000000	98.334306
460.000000	98.291746
459.000000	98.220988
458.000000	98.315325
457.000000	98.461383
456.000000	98.457069
455.000000	98.414902
454.000000	98.505497
453.000000	98.657805
452.000000	98.738033
451.000000	98.821303
450.000000	99.000793
