PE IR       SUBTECH     SPECTRUM    ASCII       PEDS        4.00        
   -1
Chevre-PC2-C001_1.ASC
23/09/14
13:47:20.00
23/09/14
14:07:37.00
uco
Sample 001 By uco Date Thursday, September 14 2023
450.000000
#HDR
-1
-1
#GR
cm-1
%T
1.0
0.0
4000.000000
-1.000000
3551
8
99.110923
89.340177
#DATA
4000.000000	98.921071
3999.000000	98.923307
3998.000000	98.924160
3997.000000	98.923009
3996.000000	98.919139
3995.000000	98.912469
3994.000000	98.904542
3993.000000	98.898307
3992.000000	98.896210
3991.000000	98.898288
3990.000000	98.902266
3989.000000	98.905687
3988.000000	98.907531
3987.000000	98.907846
3986.000000	98.906560
3985.000000	98.903579
3984.000000	98.900059
3983.000000	98.898513
3982.000000	98.900555
3981.000000	98.904574
3980.000000	98.906511
3979.000000	98.903447
3978.000000	98.896297
3977.000000	98.888987
3976.000000	98.885110
3975.000000	98.885247
3974.000000	98.887128
3973.000000	98.887936
3972.000000	98.886623
3971.000000	98.884529
3970.000000	98.884036
3969.000000	98.886468
3968.000000	98.890853
3967.000000	98.894635
3966.000000	98.895682
3965.000000	98.893701
3964.000000	98.890160
3963.000000	98.887062
3962.000000	98.885574
3961.000000	98.885462
3960.000000	98.885651
3959.000000	98.885472
3958.000000	98.885453
3957.000000	98.886612
3956.000000	98.888874
3955.000000	98.890530
3954.000000	98.889575
3953.000000	98.885491
3952.000000	98.879518
3951.000000	98.873473
3950.000000	98.868542
3949.000000	98.864972
3948.000000	98.862359
3947.000000	98.859961
3946.000000	98.857073
3945.000000	98.853827
3944.000000	98.851616
3943.000000	98.852235
3942.000000	98.856194
3941.000000	98.862120
3940.000000	98.868007
3939.000000	98.872857
3938.000000	98.877063
3937.000000	98.881295
3936.000000	98.885346
3935.000000	98.888165
3934.000000	98.888988
3933.000000	98.888340
3932.000000	98.887911
3931.000000	98.889190
3930.000000	98.891796
3929.000000	98.893397
3928.000000	98.891519
3927.000000	98.885319
3926.000000	98.876341
3925.000000	98.867936
3924.000000	98.863126
3923.000000	98.862172
3922.000000	98.862588
3921.000000	98.861918
3920.000000	98.860239
3919.000000	98.859697
3918.000000	98.861795
3917.000000	98.865717
3916.000000	98.869669
3915.000000	98.873114
3914.000000	98.876929
3913.000000	98.882013
3912.000000	98.887969
3911.000000	98.892566
3910.000000	98.892475
3909.000000	98.885044
3908.000000	98.870289
3907.000000	98.851927
3906.000000	98.836165
3905.000000	98.828245
3904.000000	98.828738
3903.000000	98.833911
3902.000000	98.840588
3901.000000	98.849059
3900.000000	98.860740
3899.000000	98.874679
3898.000000	98.887151
3897.000000	98.894423
3896.000000	98.895036
3895.000000	98.890207
3894.000000	98.883054
3893.000000	98.876744
3892.000000	98.872415
3891.000000	98.869246
3890.000000	98.866567
3889.000000	98.864864
3888.000000	98.865662
3887.000000	98.870227
3886.000000	98.877231
3885.000000	98.883463
3884.000000	98.886817
3883.000000	98.887148
3882.000000	98.885640
3881.000000	98.884158
3880.000000	98.884626
3879.000000	98.887962
3878.000000	98.892936
3877.000000	98.897230
3876.000000	98.898921
3875.000000	98.896142
3874.000000	98.887699
3873.000000	98.874975
3872.000000	98.862259
3871.000000	98.854452
3870.000000	98.854120
3869.000000	98.860203
3868.000000	98.868897
3867.000000	98.876089
3866.000000	98.879466
3865.000000	98.879160
3864.000000	98.877146
3863.000000	98.875838
3862.000000	98.875969
3861.000000	98.876329
3860.000000	98.875378
3859.000000	98.872222
3858.000000	98.866931
3857.000000	98.861566
3856.000000	98.860096
3855.000000	98.863788
3854.000000	98.865834
3853.000000	98.861453
3852.000000	98.858577
3851.000000	98.862866
3850.000000	98.870207
3849.000000	98.875499
3848.000000	98.877539
3847.000000	98.878035
3846.000000	98.879379
3845.000000	98.882581
3844.000000	98.886229
3843.000000	98.887946
3842.000000	98.886913
3841.000000	98.884711
3840.000000	98.884483
3839.000000	98.888542
3838.000000	98.895829
3837.000000	98.902089
3836.000000	98.903069
3835.000000	98.897814
3834.000000	98.889202
3833.000000	98.881765
3832.000000	98.878791
3831.000000	98.880480
3830.000000	98.884725
3829.000000	98.889276
3828.000000	98.892501
3827.000000	98.893045
3826.000000	98.890613
3825.000000	98.886782
3824.000000	98.884267
3823.000000	98.884311
3822.000000	98.883847
3821.000000	98.878890
3820.000000	98.871483
3819.000000	98.867566
3818.000000	98.870830
3817.000000	98.880473
3816.000000	98.891159
3815.000000	98.897720
3814.000000	98.899176
3813.000000	98.896909
3812.000000	98.892748
3811.000000	98.888983
3810.000000	98.887997
3809.000000	98.890233
3808.000000	98.891986
3807.000000	98.888235
3806.000000	98.879507
3805.000000	98.871677
3804.000000	98.869840
3803.000000	98.874307
3802.000000	98.879763
3801.000000	98.881099
3800.000000	98.880334
3799.000000	98.881304
3798.000000	98.883462
3797.000000	98.883351
3796.000000	98.879175
3795.000000	98.873809
3794.000000	98.872406
3793.000000	98.877882
3792.000000	98.888840
3791.000000	98.900439
3790.000000	98.907456
3789.000000	98.908185
3788.000000	98.905370
3787.000000	98.903140
3786.000000	98.903064
3785.000000	98.903656
3784.000000	98.903417
3783.000000	98.903059
3782.000000	98.904138
3781.000000	98.906722
3780.000000	98.909230
3779.000000	98.910641
3778.000000	98.911956
3777.000000	98.914186
3776.000000	98.916209
3775.000000	98.915568
3774.000000	98.911143
3773.000000	98.904857
3772.000000	98.900594
3771.000000	98.901198
3770.000000	98.906254
3769.000000	98.912941
3768.000000	98.918815
3767.000000	98.922807
3766.000000	98.924209
3765.000000	98.922828
3764.000000	98.920095
3763.000000	98.918540
3762.000000	98.919760
3761.000000	98.923410
3760.000000	98.927471
3759.000000	98.928951
3758.000000	98.925269
3757.000000	98.915336
3756.000000	98.899953
3755.000000	98.882099
3754.000000	98.866802
3753.000000	98.859715
3752.000000	98.863604
3751.000000	98.874258
3750.000000	98.883081
3749.000000	98.885903
3748.000000	98.885929
3747.000000	98.889997
3746.000000	98.902856
3745.000000	98.919098
3744.000000	98.927714
3743.000000	98.928767
3742.000000	98.928384
3741.000000	98.926785
3740.000000	98.921673
3739.000000	98.913575
3738.000000	98.906064
3737.000000	98.902653
3736.000000	98.903335
3735.000000	98.905211
3734.000000	98.905833
3733.000000	98.904318
3732.000000	98.901133
3731.000000	98.898072
3730.000000	98.896810
3729.000000	98.896893
3728.000000	98.895494
3727.000000	98.889483
3726.000000	98.879549
3725.000000	98.872057
3724.000000	98.873816
3723.000000	98.885469
3722.000000	98.901005
3721.000000	98.913624
3720.000000	98.921228
3719.000000	98.925260
3718.000000	98.926377
3717.000000	98.923330
3716.000000	98.915586
3715.000000	98.905624
3714.000000	98.897982
3713.000000	98.896369
3712.000000	98.901851
3711.000000	98.912582
3710.000000	98.924542
3709.000000	98.933074
3708.000000	98.935464
3707.000000	98.931896
3706.000000	98.924450
3705.000000	98.916050
3704.000000	98.909541
3703.000000	98.906713
3702.000000	98.907006
3701.000000	98.908329
3700.000000	98.909763
3699.000000	98.912363
3698.000000	98.916742
3697.000000	98.921236
3696.000000	98.922587
3695.000000	98.918527
3694.000000	98.909769
3693.000000	98.900078
3692.000000	98.895058
3691.000000	98.898942
3690.000000	98.910063
3689.000000	98.920428
3688.000000	98.924576
3687.000000	98.924512
3686.000000	98.923172
3685.000000	98.920280
3684.000000	98.914957
3683.000000	98.908126
3682.000000	98.901265
3681.000000	98.894044
3680.000000	98.884558
3679.000000	98.872759
3678.000000	98.861428
3677.000000	98.852482
3676.000000	98.844117
3675.000000	98.836662
3674.000000	98.834949
3673.000000	98.840427
3672.000000	98.850341
3671.000000	98.860405
3670.000000	98.865851
3669.000000	98.865969
3668.000000	98.864749
3667.000000	98.865210
3666.000000	98.867633
3665.000000	98.870770
3664.000000	98.872423
3663.000000	98.870226
3662.000000	98.863023
3661.000000	98.851335
3660.000000	98.836764
3659.000000	98.821647
3658.000000	98.808569
3657.000000	98.798774
3656.000000	98.790933
3655.000000	98.782483
3654.000000	98.772012
3653.000000	98.760766
3652.000000	98.752178
3651.000000	98.748124
3650.000000	98.744734
3649.000000	98.736183
3648.000000	98.724490
3647.000000	98.717423
3646.000000	98.717739
3645.000000	98.721799
3644.000000	98.725015
3643.000000	98.724991
3642.000000	98.721645
3641.000000	98.715663
3640.000000	98.707144
3639.000000	98.696189
3638.000000	98.684803
3637.000000	98.676986
3636.000000	98.675577
3635.000000	98.679147
3634.000000	98.682776
3633.000000	98.682451
3632.000000	98.677797
3631.000000	98.669664
3630.000000	98.655105
3629.000000	98.630244
3628.000000	98.603108
3627.000000	98.587203
3626.000000	98.582906
3625.000000	98.581068
3624.000000	98.574159
3623.000000	98.560760
3622.000000	98.544836
3621.000000	98.532148
3620.000000	98.525700
3619.000000	98.523008
3618.000000	98.518725
3617.000000	98.509809
3616.000000	98.496960
3615.000000	98.483261
3614.000000	98.472151
3613.000000	98.465090
3612.000000	98.460217
3611.000000	98.453511
3610.000000	98.441658
3609.000000	98.424811
3608.000000	98.407600
3607.000000	98.395878
3606.000000	98.391665
3605.000000	98.392695
3604.000000	98.395592
3603.000000	98.397719
3602.000000	98.396893
3601.000000	98.391975
3600.000000	98.384121
3599.000000	98.375644
3598.000000	98.366798
3597.000000	98.354967
3596.000000	98.337731
3595.000000	98.316750
3594.000000	98.297653
3593.000000	98.284934
3592.000000	98.278004
3591.000000	98.272796
3590.000000	98.265824
3589.000000	98.255668
3588.000000	98.242313
3587.000000	98.226959
3586.000000	98.211920
3585.000000	98.198505
3584.000000	98.186277
3583.000000	98.174571
3582.000000	98.163312
3581.000000	98.153032
3580.000000	98.144466
3579.000000	98.137845
3578.000000	98.132069
3577.000000	98.125009
3576.000000	98.114911
3575.000000	98.101352
3574.000000	98.085179
3573.000000	98.067707
3572.000000	98.050058
3571.000000	98.032600
3570.000000	98.014495
3569.000000	97.993717
3568.000000	97.968700
3567.000000	97.942164
3566.000000	97.921706
3565.000000	97.912580
3564.000000	97.912163
3563.000000	97.913455
3562.000000	97.910566
3561.000000	97.901231
3560.000000	97.886705
3559.000000	97.870055
3558.000000	97.854068
3557.000000	97.840174
3556.000000	97.828552
3555.000000	97.818599
3554.000000	97.809434
3553.000000	97.800377
3552.000000	97.790814
3551.000000	97.779351
3550.000000	97.763755
3549.000000	97.742745
3548.000000	97.717982
3547.000000	97.693669
3546.000000	97.673726
3545.000000	97.659472
3544.000000	97.649782
3543.000000	97.642262
3542.000000	97.634063
3541.000000	97.623068
3540.000000	97.609517
3539.000000	97.595971
3538.000000	97.584619
3537.000000	97.574673
3536.000000	97.563274
3535.000000	97.549227
3534.000000	97.534566
3533.000000	97.522301
3532.000000	97.513408
3531.000000	97.506025
3530.000000	97.496751
3529.000000	97.482981
3528.000000	97.464913
3527.000000	97.445875
3526.000000	97.430068
3525.000000	97.419297
3524.000000	97.411576
3523.000000	97.402841
3522.000000	97.390320
3521.000000	97.374336
3520.000000	97.357264
3519.000000	97.341213
3518.000000	97.326590
3517.000000	97.312332
3516.000000	97.297342
3515.000000	97.281753
3514.000000	97.266914
3513.000000	97.254141
3512.000000	97.243492
3511.000000	97.233695
3510.000000	97.223296
3509.000000	97.212043
3508.000000	97.201084
3507.000000	97.191704
3506.000000	97.183886
3505.000000	97.176129
3504.000000	97.166483
3503.000000	97.154235
3502.000000	97.140658
3501.000000	97.127677
3500.000000	97.115888
3499.000000	97.104431
3498.000000	97.092638
3497.000000	97.081135
3496.000000	97.070997
3495.000000	97.062150
3494.000000	97.053346
3493.000000	97.043549
3492.000000	97.032556
3491.000000	97.020258
3490.000000	97.006347
3489.000000	96.991364
3488.000000	96.977305
3487.000000	96.966177
3486.000000	96.958088
3485.000000	96.951506
3484.000000	96.945173
3483.000000	96.939041
3482.000000	96.933383
3481.000000	96.927755
3480.000000	96.921220
3479.000000	96.913282
3478.000000	96.904382
3477.000000	96.895694
3476.000000	96.888338
3475.000000	96.882198
3474.000000	96.875372
3473.000000	96.865378
3472.000000	96.851362
3471.000000	96.835195
3470.000000	96.820160
3469.000000	96.808439
3468.000000	96.799633
3467.000000	96.791443
3466.000000	96.781720
3465.000000	96.769933
3464.000000	96.757193
3463.000000	96.745546
3462.000000	96.737297
3461.000000	96.734030
3460.000000	96.735068
3459.000000	96.736701
3458.000000	96.734101
3457.000000	96.724900
3456.000000	96.710913
3455.000000	96.696054
3454.000000	96.682742
3453.000000	96.670832
3452.000000	96.659538
3451.000000	96.649348
3450.000000	96.641547
3449.000000	96.636206
3448.000000	96.631153
3447.000000	96.623402
3446.000000	96.611908
3445.000000	96.598455
3444.000000	96.585623
3443.000000	96.574582
3442.000000	96.565150
3441.000000	96.557125
3440.000000	96.550324
3439.000000	96.543546
3438.000000	96.535111
3437.000000	96.525238
3436.000000	96.516683
3435.000000	96.511866
3434.000000	96.509750
3433.000000	96.506485
3432.000000	96.498842
3431.000000	96.486324
3430.000000	96.470727
3429.000000	96.454959
3428.000000	96.442027
3427.000000	96.433550
3426.000000	96.428609
3425.000000	96.424725
3424.000000	96.420222
3423.000000	96.415013
3422.000000	96.409029
3421.000000	96.401175
3420.000000	96.390612
3419.000000	96.378333
3418.000000	96.366376
3417.000000	96.355726
3416.000000	96.345751
3415.000000	96.335571
3414.000000	96.325422
3413.000000	96.316560
3412.000000	96.310094
3411.000000	96.306006
3410.000000	96.303066
3409.000000	96.299503
3408.000000	96.293888
3407.000000	96.285752
3406.000000	96.275750
3405.000000	96.265279
3404.000000	96.255588
3403.000000	96.246863
3402.000000	96.238156
3401.000000	96.228359
3400.000000	96.217163
3399.000000	96.205033
3398.000000	96.192558
3397.000000	96.180203
3396.000000	96.168575
3395.000000	96.158553
3394.000000	96.150891
3393.000000	96.145684
3392.000000	96.142237
3391.000000	96.139519
3390.000000	96.136817
3389.000000	96.133874
3388.000000	96.130147
3387.000000	96.124147
3386.000000	96.114283
3385.000000	96.101000
3384.000000	96.087571
3383.000000	96.077774
3382.000000	96.072293
3381.000000	96.067782
3380.000000	96.059853
3379.000000	96.047041
3378.000000	96.031862
3377.000000	96.018037
3376.000000	96.006781
3375.000000	95.995892
3374.000000	95.982427
3373.000000	95.966015
3372.000000	95.949247
3371.000000	95.934907
3370.000000	95.923262
3369.000000	95.912069
3368.000000	95.898715
3367.000000	95.882118
3366.000000	95.863047
3365.000000	95.843293
3364.000000	95.824492
3363.000000	95.807240
3362.000000	95.790931
3361.000000	95.774372
3360.000000	95.756651
3359.000000	95.737607
3358.000000	95.717684
3357.000000	95.697394
3356.000000	95.676836
3355.000000	95.655775
3354.000000	95.634217
3353.000000	95.612600
3352.000000	95.591183
3351.000000	95.569622
3350.000000	95.547712
3349.000000	95.526233
3348.000000	95.506259
3347.000000	95.487548
3346.000000	95.468383
3345.000000	95.447323
3344.000000	95.424756
3343.000000	95.402629
3342.000000	95.382975
3341.000000	95.366406
3340.000000	95.351128
3339.000000	95.333532
3338.000000	95.311063
3337.000000	95.285092
3336.000000	95.260014
3335.000000	95.238826
3334.000000	95.220393
3333.000000	95.201711
3332.000000	95.181920
3331.000000	95.163253
3330.000000	95.148790
3329.000000	95.139991
3328.000000	95.135519
3327.000000	95.131366
3326.000000	95.122712
3325.000000	95.107060
3324.000000	95.085891
3323.000000	95.062943
3322.000000	95.041382
3321.000000	95.022989
3320.000000	95.008824
3319.000000	94.999042
3318.000000	94.992129
3317.000000	94.985538
3316.000000	94.977546
3315.000000	94.968162
3314.000000	94.958580
3313.000000	94.950496
3312.000000	94.945386
3311.000000	94.943257
3310.000000	94.942031
3309.000000	94.939002
3308.000000	94.933151
3307.000000	94.925456
3306.000000	94.917241
3305.000000	94.909140
3304.000000	94.901358
3303.000000	94.893725
3302.000000	94.885462
3301.000000	94.876232
3300.000000	94.867867
3299.000000	94.863628
3298.000000	94.864700
3297.000000	94.868152
3296.000000	94.869477
3295.000000	94.866953
3294.000000	94.862520
3293.000000	94.858539
3292.000000	94.854958
3291.000000	94.850258
3290.000000	94.844349
3289.000000	94.839379
3288.000000	94.837567
3287.000000	94.839114
3286.000000	94.842594
3285.000000	94.846515
3284.000000	94.849710
3283.000000	94.850915
3282.000000	94.849494
3281.000000	94.846901
3280.000000	94.846268
3279.000000	94.849739
3278.000000	94.856639
3277.000000	94.864528
3276.000000	94.871581
3275.000000	94.877626
3274.000000	94.883555
3273.000000	94.890305
3272.000000	94.897918
3271.000000	94.905122
3270.000000	94.910373
3269.000000	94.913703
3268.000000	94.916888
3267.000000	94.921413
3266.000000	94.927163
3265.000000	94.933814
3264.000000	94.942387
3263.000000	94.953955
3262.000000	94.967421
3261.000000	94.980114
3260.000000	94.990613
3259.000000	94.999700
3258.000000	95.008430
3257.000000	95.016619
3256.000000	95.023513
3255.000000	95.028857
3254.000000	95.032863
3253.000000	95.036158
3252.000000	95.040409
3251.000000	95.048130
3250.000000	95.060857
3249.000000	95.077572
3248.000000	95.095308
3247.000000	95.111022
3246.000000	95.122776
3245.000000	95.129811
3244.000000	95.132373
3243.000000	95.131690
3242.000000	95.129809
3241.000000	95.129148
3240.000000	95.131826
3239.000000	95.139025
3238.000000	95.150867
3237.000000	95.166808
3236.000000	95.185601
3235.000000	95.204563
3234.000000	95.219646
3233.000000	95.227586
3232.000000	95.228511
3231.000000	95.225878
3230.000000	95.223494
3229.000000	95.223112
3228.000000	95.224901
3227.000000	95.229047
3226.000000	95.235784
3225.000000	95.244296
3224.000000	95.252875
3223.000000	95.260521
3222.000000	95.267749
3221.000000	95.275435
3220.000000	95.283602
3219.000000	95.291895
3218.000000	95.300609
3217.000000	95.310136
3216.000000	95.319527
3215.000000	95.326930
3214.000000	95.332060
3213.000000	95.336983
3212.000000	95.343270
3211.000000	95.349242
3210.000000	95.351971
3209.000000	95.352172
3208.000000	95.355217
3207.000000	95.366127
3206.000000	95.384309
3205.000000	95.404266
3204.000000	95.420808
3203.000000	95.432870
3202.000000	95.442744
3201.000000	95.452835
3200.000000	95.463387
3199.000000	95.472743
3198.000000	95.479669
3197.000000	95.485476
3196.000000	95.493487
3195.000000	95.505794
3194.000000	95.520973
3193.000000	95.535706
3192.000000	95.548583
3191.000000	95.561589
3190.000000	95.577525
3189.000000	95.596453
3188.000000	95.614972
3187.000000	95.628997
3186.000000	95.637328
3185.000000	95.642895
3184.000000	95.650394
3183.000000	95.662497
3182.000000	95.678124
3181.000000	95.694288
3180.000000	95.709254
3179.000000	95.723613
3178.000000	95.738600
3177.000000	95.753750
3176.000000	95.766540
3175.000000	95.774612
3174.000000	95.778701
3173.000000	95.783251
3172.000000	95.793404
3171.000000	95.810694
3170.000000	95.831981
3169.000000	95.852634
3168.000000	95.870309
3167.000000	95.885487
3166.000000	95.899519
3165.000000	95.913274
3164.000000	95.927147
3163.000000	95.941002
3162.000000	95.953867
3161.000000	95.964612
3160.000000	95.973456
3159.000000	95.982556
3158.000000	95.994841
3157.000000	96.012064
3156.000000	96.033132
3155.000000	96.053787
3154.000000	96.068788
3153.000000	96.076085
3152.000000	96.079230
3151.000000	96.084578
3150.000000	96.095605
3149.000000	96.110471
3148.000000	96.125287
3147.000000	96.138550
3146.000000	96.151707
3145.000000	96.166304
3144.000000	96.181912
3143.000000	96.196800
3142.000000	96.209713
3141.000000	96.220595
3140.000000	96.229978
3139.000000	96.238025
3138.000000	96.244288
3137.000000	96.248678
3136.000000	96.252667
3135.000000	96.259006
3134.000000	96.269512
3133.000000	96.283135
3132.000000	96.296677
3131.000000	96.307452
3130.000000	96.314818
3129.000000	96.319440
3128.000000	96.322174
3127.000000	96.324150
3126.000000	96.326817
3125.000000	96.330647
3124.000000	96.334180
3123.000000	96.335797
3122.000000	96.336778
3121.000000	96.341246
3120.000000	96.352034
3119.000000	96.367259
3118.000000	96.381688
3117.000000	96.390825
3116.000000	96.392860
3115.000000	96.387807
3114.000000	96.376980
3113.000000	96.363701
3112.000000	96.352613
3111.000000	96.346720
3110.000000	96.345338
3109.000000	96.345563
3108.000000	96.345195
3107.000000	96.343826
3106.000000	96.341796
3105.000000	96.339190
3104.000000	96.335871
3103.000000	96.331957
3102.000000	96.328021
3101.000000	96.324761
3100.000000	96.322147
3099.000000	96.318906
3098.000000	96.313252
3097.000000	96.304350
3096.000000	96.292947
3095.000000	96.280894
3094.000000	96.270561
3093.000000	96.264200
3092.000000	96.262475
3091.000000	96.263315
3090.000000	96.263385
3089.000000	96.261151
3088.000000	96.257416
3087.000000	96.252459
3086.000000	96.244497
3085.000000	96.232461
3084.000000	96.218973
3083.000000	96.208379
3082.000000	96.202064
3081.000000	96.197507
3080.000000	96.192143
3079.000000	96.186552
3078.000000	96.183300
3077.000000	96.183935
3076.000000	96.187917
3075.000000	96.193549
3074.000000	96.198944
3073.000000	96.202655
3072.000000	96.204423
3071.000000	96.205435
3070.000000	96.207308
3069.000000	96.210405
3068.000000	96.213283
3067.000000	96.214197
3066.000000	96.213398
3065.000000	96.213702
3064.000000	96.218162
3063.000000	96.227242
3062.000000	96.238846
3061.000000	96.251007
3060.000000	96.263613
3059.000000	96.277317
3058.000000	96.291933
3057.000000	96.306653
3056.000000	96.320880
3055.000000	96.333904
3054.000000	96.344590
3053.000000	96.352861
3052.000000	96.361179
3051.000000	96.373105
3050.000000	96.390133
3049.000000	96.410735
3048.000000	96.432451
3047.000000	96.453721
3046.000000	96.473445
3045.000000	96.490237
3044.000000	96.503237
3043.000000	96.513301
3042.000000	96.522624
3041.000000	96.533155
3040.000000	96.545519
3039.000000	96.559151
3038.000000	96.573153
3037.000000	96.587089
3036.000000	96.601050
3035.000000	96.615009
3034.000000	96.628405
3033.000000	96.640743
3032.000000	96.652306
3031.000000	96.663752
3030.000000	96.675271
3029.000000	96.686924
3028.000000	96.699670
3027.000000	96.714950
3026.000000	96.732830
3025.000000	96.751202
3024.000000	96.767194
3023.000000	96.779030
3022.000000	96.786478
3021.000000	96.790471
3020.000000	96.792964
3019.000000	96.796559
3018.000000	96.803339
3017.000000	96.813720
3016.000000	96.826611
3015.000000	96.840510
3014.000000	96.854065
3013.000000	96.865743
3012.000000	96.873660
3011.000000	96.876556
3010.000000	96.875120
3009.000000	96.871841
3008.000000	96.869023
3007.000000	96.866901
3006.000000	96.864178
3005.000000	96.860293
3004.000000	96.856396
3003.000000	96.853887
3002.000000	96.852945
3001.000000	96.853200
3000.000000	96.854916
2999.000000	96.858271
2998.000000	96.861806
2997.000000	96.862907
2996.000000	96.859978
2995.000000	96.853289
2994.000000	96.843668
2993.000000	96.831572
2992.000000	96.817935
2991.000000	96.804791
2990.000000	96.793910
2989.000000	96.784732
2988.000000	96.774233
2987.000000	96.759157
2986.000000	96.738715
2985.000000	96.715489
2984.000000	96.693605
2983.000000	96.675531
2982.000000	96.660422
2981.000000	96.645609
2980.000000	96.629589
2979.000000	96.613136
2978.000000	96.597752
2977.000000	96.583749
2976.000000	96.569924
2975.000000	96.554525
2974.000000	96.536378
2973.000000	96.515752
2972.000000	96.494508
2971.000000	96.474756
2970.000000	96.456699
2969.000000	96.437931
2968.000000	96.415444
2967.000000	96.388546
2966.000000	96.359758
2965.000000	96.332783
2964.000000	96.309426
2963.000000	96.288372
2962.000000	96.266825
2961.000000	96.243391
2960.000000	96.219244
2959.000000	96.196613
2958.000000	96.176625
2957.000000	96.158871
2956.000000	96.142797
2955.000000	96.129028
2954.000000	96.119294
2953.000000	96.114982
2952.000000	96.115399
2951.000000	96.117501
2950.000000	96.117837
2949.000000	96.114981
2948.000000	96.109317
2947.000000	96.100469
2946.000000	96.086354
2945.000000	96.065794
2944.000000	96.040781
2943.000000	96.014041
2942.000000	95.984922
2941.000000	95.949923
2940.000000	95.907880
2939.000000	95.862398
2938.000000	95.817646
2937.000000	95.773189
2936.000000	95.724801
2935.000000	95.669984
2934.000000	95.610826
2933.000000	95.551243
2932.000000	95.493060
2931.000000	95.435827
2930.000000	95.379416
2929.000000	95.325039
2928.000000	95.273527
2927.000000	95.223799
2926.000000	95.173965
2925.000000	95.123734
2924.000000	95.075223
2923.000000	95.032081
2922.000000	94.998659
2921.000000	94.979557
2920.000000	94.978521
2919.000000	94.996854
2918.000000	95.033836
2917.000000	95.089203
2916.000000	95.164234
2915.000000	95.259084
2914.000000	95.368770
2913.000000	95.482822
2912.000000	95.589595
2911.000000	95.681910
2910.000000	95.759395
2909.000000	95.826319
2908.000000	95.887274
2907.000000	95.944059
2906.000000	95.996152
2905.000000	96.043352
2904.000000	96.087207
2903.000000	96.129498
2902.000000	96.169836
2901.000000	96.205842
2900.000000	96.235425
2899.000000	96.258613
2898.000000	96.277568
2897.000000	96.295655
2896.000000	96.316260
2895.000000	96.341218
2894.000000	96.369570
2893.000000	96.398205
2892.000000	96.424182
2891.000000	96.446492
2890.000000	96.465858
2889.000000	96.483439
2888.000000	96.499892
2887.000000	96.515054
2886.000000	96.527995
2885.000000	96.537434
2884.000000	96.542586
2883.000000	96.543920
2882.000000	96.543233
2881.000000	96.542776
2880.000000	96.543675
2879.000000	96.544957
2878.000000	96.544447
2877.000000	96.540999
2876.000000	96.535604
2875.000000	96.530116
2874.000000	96.525642
2873.000000	96.522701
2872.000000	96.522295
2871.000000	96.525633
2870.000000	96.532790
2869.000000	96.542505
2868.000000	96.553392
2867.000000	96.564502
2866.000000	96.574463
2865.000000	96.580807
2864.000000	96.580553
2863.000000	96.571329
2862.000000	96.551981
2861.000000	96.522838
2860.000000	96.485527
2859.000000	96.441959
2858.000000	96.393296
2857.000000	96.340207
2856.000000	96.283906
2855.000000	96.226281
2854.000000	96.169748
2853.000000	96.118257
2852.000000	96.078875
2851.000000	96.061099
2850.000000	96.072906
2849.000000	96.116969
2848.000000	96.189855
2847.000000	96.283732
2846.000000	96.388689
2845.000000	96.495041
2844.000000	96.595259
2843.000000	96.685049
2842.000000	96.762975
2841.000000	96.829354
2840.000000	96.885490
2839.000000	96.932669
2838.000000	96.971297
2837.000000	97.001451
2836.000000	97.024617
2835.000000	97.044132
2834.000000	97.063067
2833.000000	97.081975
2832.000000	97.099382
2831.000000	97.114302
2830.000000	97.127492
2829.000000	97.140500
2828.000000	97.154241
2827.000000	97.168640
2826.000000	97.183102
2825.000000	97.196929
2824.000000	97.209533
2823.000000	97.220459
2822.000000	97.229312
2821.000000	97.235866
2820.000000	97.240536
2819.000000	97.244776
2818.000000	97.250638
2817.000000	97.259495
2816.000000	97.270820
2815.000000	97.282150
2814.000000	97.290672
2813.000000	97.295492
2812.000000	97.298595
2811.000000	97.303285
2810.000000	97.311403
2809.000000	97.321971
2808.000000	97.332462
2807.000000	97.340997
2806.000000	97.347169
2805.000000	97.351344
2804.000000	97.353951
2803.000000	97.355724
2802.000000	97.358110
2801.000000	97.362629
2800.000000	97.369344
2799.000000	97.376196
2798.000000	97.380665
2797.000000	97.382456
2796.000000	97.384039
2795.000000	97.387881
2794.000000	97.393568
2793.000000	97.398637
2792.000000	97.402145
2791.000000	97.406112
2790.000000	97.412779
2789.000000	97.421300
2788.000000	97.428398
2787.000000	97.432158
2786.000000	97.434208
2785.000000	97.437883
2784.000000	97.444899
2783.000000	97.454327
2782.000000	97.464315
2781.000000	97.473899
2780.000000	97.482868
2779.000000	97.490628
2778.000000	97.496166
2777.000000	97.499336
2776.000000	97.501538
2775.000000	97.504610
2774.000000	97.509225
2773.000000	97.514729
2772.000000	97.520395
2771.000000	97.526459
2770.000000	97.533867
2769.000000	97.543117
2768.000000	97.553187
2767.000000	97.561565
2766.000000	97.565842
2765.000000	97.565802
2764.000000	97.563724
2763.000000	97.562295
2762.000000	97.562545
2761.000000	97.564258
2760.000000	97.567794
2759.000000	97.574274
2758.000000	97.583798
2757.000000	97.594420
2756.000000	97.603461
2755.000000	97.609541
2754.000000	97.613170
2753.000000	97.615909
2752.000000	97.619264
2751.000000	97.623844
2750.000000	97.629012
2749.000000	97.633516
2748.000000	97.636828
2747.000000	97.639810
2746.000000	97.643791
2745.000000	97.649083
2744.000000	97.654604
2743.000000	97.659029
2742.000000	97.662253
2741.000000	97.665669
2740.000000	97.670821
2739.000000	97.677682
2738.000000	97.684343
2737.000000	97.688549
2736.000000	97.689423
2735.000000	97.687671
2734.000000	97.684677
2733.000000	97.681977
2732.000000	97.681266
2731.000000	97.683920
2730.000000	97.690047
2729.000000	97.698274
2728.000000	97.706636
2727.000000	97.713502
2726.000000	97.717894
2725.000000	97.719679
2724.000000	97.719856
2723.000000	97.720252
2722.000000	97.722465
2721.000000	97.726932
2720.000000	97.732791
2719.000000	97.738355
2718.000000	97.742064
2717.000000	97.743740
2716.000000	97.745039
2715.000000	97.747986
2714.000000	97.752707
2713.000000	97.757154
2712.000000	97.759434
2711.000000	97.759921
2710.000000	97.760562
2709.000000	97.762589
2708.000000	97.765712
2707.000000	97.769409
2706.000000	97.773945
2705.000000	97.779464
2704.000000	97.784588
2703.000000	97.786981
2702.000000	97.785818
2701.000000	97.783319
2700.000000	97.783099
2699.000000	97.786693
2698.000000	97.792019
2697.000000	97.795529
2696.000000	97.795702
2695.000000	97.794181
2694.000000	97.793655
2693.000000	97.795193
2692.000000	97.797804
2691.000000	97.800159
2690.000000	97.802118
2689.000000	97.804511
2688.000000	97.807939
2687.000000	97.812340
2686.000000	97.817564
2685.000000	97.823506
2684.000000	97.829237
2683.000000	97.832681
2682.000000	97.832156
2681.000000	97.828254
2680.000000	97.823577
2679.000000	97.820506
2678.000000	97.819714
2677.000000	97.820696
2676.000000	97.822823
2675.000000	97.825690
2674.000000	97.829163
2673.000000	97.833366
2672.000000	97.838012
2671.000000	97.841847
2670.000000	97.843817
2669.000000	97.844980
2668.000000	97.847776
2667.000000	97.852533
2666.000000	97.856013
2665.000000	97.854828
2664.000000	97.849519
2663.000000	97.843816
2662.000000	97.840445
2661.000000	97.839199
2660.000000	97.838797
2659.000000	97.838871
2658.000000	97.839609
2657.000000	97.840688
2656.000000	97.841330
2655.000000	97.840960
2654.000000	97.839719
2653.000000	97.838949
2652.000000	97.840909
2651.000000	97.846945
2650.000000	97.855788
2649.000000	97.864647
2648.000000	97.872099
2647.000000	97.878701
2646.000000	97.884611
2645.000000	97.888337
2644.000000	97.888945
2643.000000	97.888217
2642.000000	97.888983
2641.000000	97.891755
2640.000000	97.894461
2639.000000	97.895593
2638.000000	97.896231
2637.000000	97.898352
2636.000000	97.902091
2635.000000	97.905831
2634.000000	97.908902
2633.000000	97.913102
2632.000000	97.920839
2631.000000	97.932203
2630.000000	97.944687
2629.000000	97.955647
2628.000000	97.964206
2627.000000	97.970762
2626.000000	97.975863
2625.000000	97.980270
2624.000000	97.985196
2623.000000	97.991352
2622.000000	97.998053
2621.000000	98.003969
2620.000000	98.008398
2619.000000	98.011313
2618.000000	98.012811
2617.000000	98.013360
2616.000000	98.014115
2615.000000	98.016114
2614.000000	98.019583
2613.000000	98.024485
2612.000000	98.030842
2611.000000	98.037712
2610.000000	98.043109
2609.000000	98.046379
2608.000000	98.049781
2607.000000	98.056078
2606.000000	98.065121
2605.000000	98.074266
2604.000000	98.081217
2603.000000	98.084594
2602.000000	98.082788
2601.000000	98.075358
2600.000000	98.065741
2599.000000	98.059805
2598.000000	98.060550
2597.000000	98.065792
2596.000000	98.071746
2595.000000	98.077228
2594.000000	98.083672
2593.000000	98.092612
2592.000000	98.104030
2591.000000	98.116047
2590.000000	98.125665
2589.000000	98.130831
2588.000000	98.132081
2587.000000	98.131155
2586.000000	98.128375
2585.000000	98.123022
2584.000000	98.116149
2583.000000	98.110768
2582.000000	98.108754
2581.000000	98.109725
2580.000000	98.113506
2579.000000	98.121246
2578.000000	98.132801
2577.000000	98.145110
2576.000000	98.154764
2575.000000	98.160744
2574.000000	98.163264
2573.000000	98.161625
2572.000000	98.155328
2571.000000	98.146515
2570.000000	98.139470
2569.000000	98.137706
2568.000000	98.142160
2567.000000	98.151349
2566.000000	98.162246
2565.000000	98.171716
2564.000000	98.178291
2563.000000	98.182395
2562.000000	98.184569
2561.000000	98.184428
2560.000000	98.181852
2559.000000	98.178017
2558.000000	98.174373
2557.000000	98.171582
2556.000000	98.170169
2555.000000	98.170824
2554.000000	98.172862
2553.000000	98.173870
2552.000000	98.172789
2551.000000	98.172483
2550.000000	98.177149
2549.000000	98.187287
2548.000000	98.198979
2547.000000	98.208058
2546.000000	98.213086
2545.000000	98.213889
2544.000000	98.209732
2543.000000	98.201110
2542.000000	98.192371
2541.000000	98.190071
2540.000000	98.197542
2539.000000	98.211664
2538.000000	98.225339
2537.000000	98.232844
2536.000000	98.233108
2535.000000	98.229126
2534.000000	98.224910
2533.000000	98.222146
2532.000000	98.218686
2531.000000	98.210778
2530.000000	98.197831
2529.000000	98.184342
2528.000000	98.175877
2527.000000	98.173502
2526.000000	98.173679
2525.000000	98.173275
2524.000000	98.172586
2523.000000	98.173401
2522.000000	98.176544
2521.000000	98.182265
2520.000000	98.190610
2519.000000	98.199762
2518.000000	98.205829
2517.000000	98.206360
2516.000000	98.203195
2515.000000	98.200173
2514.000000	98.198981
2513.000000	98.198858
2512.000000	98.199384
2511.000000	98.201476
2510.000000	98.205790
2509.000000	98.211741
2508.000000	98.218299
2507.000000	98.224962
2506.000000	98.231989
2505.000000	98.239797
2504.000000	98.247494
2503.000000	98.252206
2502.000000	98.251514
2501.000000	98.246795
2500.000000	98.242107
2499.000000	98.239300
2498.000000	98.237037
2497.000000	98.235680
2496.000000	98.239118
2495.000000	98.248669
2494.000000	98.258272
2493.000000	98.260509
2492.000000	98.256283
2491.000000	98.254229
2490.000000	98.260657
2489.000000	98.273227
2488.000000	98.284703
2487.000000	98.289839
2486.000000	98.288168
2485.000000	98.282953
2484.000000	98.278101
2483.000000	98.274603
2482.000000	98.270396
2481.000000	98.265208
2480.000000	98.263853
2479.000000	98.271153
2478.000000	98.284277
2477.000000	98.294152
2476.000000	98.294942
2475.000000	98.289205
2474.000000	98.283427
2473.000000	98.282048
2472.000000	98.286642
2471.000000	98.296785
2470.000000	98.309121
2469.000000	98.317950
2468.000000	98.319472
2467.000000	98.315055
2466.000000	98.309493
2465.000000	98.307105
2464.000000	98.309348
2463.000000	98.314065
2462.000000	98.316619
2461.000000	98.313958
2460.000000	98.308526
2459.000000	98.305887
2458.000000	98.307577
2457.000000	98.308858
2456.000000	98.305152
2455.000000	98.298505
2454.000000	98.295346
2453.000000	98.299276
2452.000000	98.308136
2451.000000	98.317353
2450.000000	98.324106
2449.000000	98.328085
2448.000000	98.329976
2447.000000	98.330320
2446.000000	98.329795
2445.000000	98.330148
2444.000000	98.333708
2443.000000	98.340684
2442.000000	98.347322
2441.000000	98.348364
2440.000000	98.342122
2439.000000	98.332314
2438.000000	98.324546
2437.000000	98.321618
2436.000000	98.322236
2435.000000	98.323367
2434.000000	98.323497
2433.000000	98.324127
2432.000000	98.327974
2431.000000	98.335206
2430.000000	98.342245
2429.000000	98.345340
2428.000000	98.344848
2427.000000	98.344790
2426.000000	98.348495
2425.000000	98.355811
2424.000000	98.363813
2423.000000	98.368587
2422.000000	98.367023
2421.000000	98.359220
2420.000000	98.349635
2419.000000	98.344234
2418.000000	98.345585
2417.000000	98.351164
2416.000000	98.356345
2415.000000	98.358270
2414.000000	98.357257
2413.000000	98.355720
2412.000000	98.355863
2411.000000	98.357912
2410.000000	98.360755
2409.000000	98.364019
2408.000000	98.367879
2407.000000	98.370473
2406.000000	98.368361
2405.000000	98.361700
2404.000000	98.356642
2403.000000	98.359249
2402.000000	98.368056
2401.000000	98.375685
2400.000000	98.377064
2399.000000	98.373225
2398.000000	98.367520
2397.000000	98.361597
2396.000000	98.355640
2395.000000	98.349633
2394.000000	98.343493
2393.000000	98.337996
2392.000000	98.335827
2391.000000	98.339243
2390.000000	98.346191
2389.000000	98.351292
2388.000000	98.351831
2387.000000	98.350604
2386.000000	98.351733
2385.000000	98.355596
2384.000000	98.359431
2383.000000	98.361486
2382.000000	98.362548
2381.000000	98.363989
2380.000000	98.365735
2379.000000	98.366403
2378.000000	98.364956
2377.000000	98.361946
2376.000000	98.359054
2375.000000	98.357410
2374.000000	98.357124
2373.000000	98.358661
2372.000000	98.363127
2371.000000	98.369965
2370.000000	98.376376
2369.000000	98.381144
2368.000000	98.386445
2367.000000	98.392891
2366.000000	98.395143
2365.000000	98.386668
2364.000000	98.367690
2363.000000	98.345553
2362.000000	98.328916
2361.000000	98.322530
2360.000000	98.326662
2359.000000	98.337657
2358.000000	98.347083
2357.000000	98.349766
2356.000000	98.345892
2355.000000	98.338582
2354.000000	98.333622
2353.000000	98.336847
2352.000000	98.348097
2351.000000	98.357286
2350.000000	98.356342
2349.000000	98.346779
2348.000000	98.335878
2347.000000	98.331231
2346.000000	98.332440
2345.000000	98.330336
2344.000000	98.317326
2343.000000	98.301739
2342.000000	98.297290
2341.000000	98.303799
2340.000000	98.311504
2339.000000	98.313496
2338.000000	98.312319
2337.000000	98.313221
2336.000000	98.317316
2335.000000	98.320082
2334.000000	98.318687
2333.000000	98.315107
2332.000000	98.314769
2331.000000	98.318035
2330.000000	98.320356
2329.000000	98.314789
2328.000000	98.297111
2327.000000	98.269921
2326.000000	98.240779
2325.000000	98.221171
2324.000000	98.219112
2323.000000	98.234181
2322.000000	98.256770
2321.000000	98.274119
2320.000000	98.280712
2319.000000	98.278419
2318.000000	98.273301
2317.000000	98.270342
2316.000000	98.273717
2315.000000	98.284919
2314.000000	98.301607
2313.000000	98.319115
2312.000000	98.334258
2311.000000	98.346059
2310.000000	98.353404
2309.000000	98.354915
2308.000000	98.351275
2307.000000	98.346488
2306.000000	98.344711
2305.000000	98.347550
2304.000000	98.353603
2303.000000	98.359223
2302.000000	98.360708
2301.000000	98.356766
2300.000000	98.350522
2299.000000	98.346603
2298.000000	98.347445
2297.000000	98.352581
2296.000000	98.359776
2295.000000	98.364888
2294.000000	98.362625
2293.000000	98.352499
2292.000000	98.341708
2291.000000	98.338585
2290.000000	98.342194
2289.000000	98.343831
2288.000000	98.338379
2287.000000	98.330471
2286.000000	98.327693
2285.000000	98.332185
2284.000000	98.340381
2283.000000	98.347957
2282.000000	98.353706
2281.000000	98.361015
2280.000000	98.375312
2279.000000	98.395835
2278.000000	98.411170
2277.000000	98.409016
2276.000000	98.391632
2275.000000	98.374488
2274.000000	98.368331
2273.000000	98.369144
2272.000000	98.367923
2271.000000	98.362723
2270.000000	98.357096
2269.000000	98.354225
2268.000000	98.358185
2267.000000	98.374427
2266.000000	98.401920
2265.000000	98.429179
2264.000000	98.445364
2263.000000	98.452990
2262.000000	98.462819
2261.000000	98.478482
2260.000000	98.491650
2259.000000	98.491932
2258.000000	98.477162
2257.000000	98.455010
2256.000000	98.438380
2255.000000	98.437153
2254.000000	98.450300
2253.000000	98.465734
2252.000000	98.470624
2251.000000	98.461152
2250.000000	98.441591
2249.000000	98.418007
2248.000000	98.396327
2247.000000	98.383543
2246.000000	98.385183
2245.000000	98.400438
2244.000000	98.421601
2243.000000	98.438861
2242.000000	98.445545
2241.000000	98.441515
2240.000000	98.434018
2239.000000	98.432781
2238.000000	98.440363
2237.000000	98.447715
2236.000000	98.442661
2235.000000	98.424035
2234.000000	98.405330
2233.000000	98.402463
2232.000000	98.418217
2231.000000	98.440369
2230.000000	98.455605
2229.000000	98.462556
2228.000000	98.468437
2227.000000	98.475503
2226.000000	98.477530
2225.000000	98.471631
2224.000000	98.466361
2223.000000	98.471646
2222.000000	98.484409
2221.000000	98.490792
2220.000000	98.481796
2219.000000	98.461808
2218.000000	98.442910
2217.000000	98.436085
2216.000000	98.446637
2215.000000	98.472713
2214.000000	98.506408
2213.000000	98.537050
2212.000000	98.553846
2211.000000	98.548927
2210.000000	98.525543
2209.000000	98.504293
2208.000000	98.509126
2207.000000	98.538592
2206.000000	98.560682
2205.000000	98.548130
2204.000000	98.512671
2203.000000	98.491642
2202.000000	98.505479
2201.000000	98.541744
2200.000000	98.577318
2199.000000	98.600361
2198.000000	98.609673
2197.000000	98.608275
2196.000000	98.603121
2195.000000	98.599376
2194.000000	98.589833
2193.000000	98.559730
2192.000000	98.507300
2191.000000	98.452126
2190.000000	98.419475
2189.000000	98.422425
2188.000000	98.458676
2187.000000	98.514935
2186.000000	98.569507
2185.000000	98.598116
2184.000000	98.586808
2183.000000	98.540571
2182.000000	98.479851
2181.000000	98.430772
2180.000000	98.413301
2179.000000	98.430973
2178.000000	98.471511
2177.000000	98.517779
2176.000000	98.555381
2175.000000	98.572597
2174.000000	98.564963
2173.000000	98.546418
2172.000000	98.543322
2171.000000	98.565727
2170.000000	98.593338
2169.000000	98.598600
2168.000000	98.574743
2167.000000	98.530422
2166.000000	98.471433
2165.000000	98.409347
2164.000000	98.377474
2163.000000	98.409419
2162.000000	98.503016
2161.000000	98.626495
2160.000000	98.755853
2159.000000	98.881493
2158.000000	98.978922
2157.000000	99.015134
2156.000000	98.992513
2155.000000	98.947205
2154.000000	98.903645
2153.000000	98.857583
2152.000000	98.797744
2151.000000	98.722789
2150.000000	98.640372
2149.000000	98.569866
2148.000000	98.544398
2147.000000	98.587283
2146.000000	98.678968
2145.000000	98.761565
2144.000000	98.787781
2143.000000	98.760183
2142.000000	98.719139
2141.000000	98.701888
2140.000000	98.714249
2139.000000	98.733252
2138.000000	98.733962
2137.000000	98.715513
2136.000000	98.699542
2135.000000	98.700795
2134.000000	98.708051
2133.000000	98.701502
2132.000000	98.678099
2131.000000	98.648582
2130.000000	98.619240
2129.000000	98.591822
2128.000000	98.575401
2127.000000	98.581610
2126.000000	98.606818
2125.000000	98.630916
2124.000000	98.637441
2123.000000	98.626502
2122.000000	98.606568
2121.000000	98.582795
2120.000000	98.556760
2119.000000	98.530375
2118.000000	98.505960
2117.000000	98.486343
2116.000000	98.475594
2115.000000	98.475063
2114.000000	98.478806
2113.000000	98.478344
2112.000000	98.472292
2111.000000	98.466145
2110.000000	98.463556
2109.000000	98.464200
2108.000000	98.468594
2107.000000	98.477280
2106.000000	98.485687
2105.000000	98.488045
2104.000000	98.486559
2103.000000	98.488263
2102.000000	98.492667
2101.000000	98.492385
2100.000000	98.487454
2099.000000	98.488857
2098.000000	98.504035
2097.000000	98.526818
2096.000000	98.545716
2095.000000	98.554768
2094.000000	98.553454
2093.000000	98.544638
2092.000000	98.536591
2091.000000	98.538639
2090.000000	98.549029
2089.000000	98.552636
2088.000000	98.537072
2087.000000	98.508708
2086.000000	98.487949
2085.000000	98.489993
2084.000000	98.511199
2083.000000	98.532556
2082.000000	98.536847
2081.000000	98.524210
2080.000000	98.510954
2079.000000	98.511949
2078.000000	98.526863
2077.000000	98.545974
2076.000000	98.563428
2075.000000	98.578255
2074.000000	98.588140
2073.000000	98.592262
2072.000000	98.597734
2071.000000	98.612674
2070.000000	98.633128
2069.000000	98.646003
2068.000000	98.644671
2067.000000	98.633571
2066.000000	98.619704
2065.000000	98.609676
2064.000000	98.612310
2063.000000	98.632028
2062.000000	98.659779
2061.000000	98.679673
2060.000000	98.684134
2059.000000	98.675990
2058.000000	98.660631
2057.000000	98.647114
2056.000000	98.650066
2055.000000	98.673449
2054.000000	98.695357
2053.000000	98.687444
2052.000000	98.650478
2051.000000	98.614560
2050.000000	98.603897
2049.000000	98.614336
2048.000000	98.626198
2047.000000	98.626192
2046.000000	98.613182
2045.000000	98.598945
2044.000000	98.607083
2043.000000	98.652293
2042.000000	98.716137
2041.000000	98.759547
2040.000000	98.763151
2039.000000	98.736764
2038.000000	98.691040
2037.000000	98.629935
2036.000000	98.572108
2035.000000	98.546487
2034.000000	98.558095
2033.000000	98.585986
2032.000000	98.623180
2031.000000	98.687732
2030.000000	98.782180
2029.000000	98.872763
2028.000000	98.926307
2027.000000	98.943174
2026.000000	98.939227
2025.000000	98.921827
2024.000000	98.897167
2023.000000	98.874996
2022.000000	98.851954
2021.000000	98.812310
2020.000000	98.757612
2019.000000	98.716065
2018.000000	98.713099
2017.000000	98.747375
2016.000000	98.799940
2015.000000	98.849940
2014.000000	98.874581
2013.000000	98.856328
2012.000000	98.804783
2011.000000	98.754895
2010.000000	98.735510
2009.000000	98.753447
2008.000000	98.805217
2007.000000	98.879753
2006.000000	98.945901
2005.000000	98.965240
2004.000000	98.931136
2003.000000	98.876034
2002.000000	98.833859
2001.000000	98.813475
2000.000000	98.806710
1999.000000	98.802050
1998.000000	98.788304
1997.000000	98.762921
1996.000000	98.743653
1995.000000	98.755813
1994.000000	98.801837
1993.000000	98.854558
1992.000000	98.887052
1991.000000	98.897551
1990.000000	98.895336
1989.000000	98.880696
1988.000000	98.852561
1987.000000	98.819240
1986.000000	98.787660
1985.000000	98.751927
1984.000000	98.703058
1983.000000	98.643528
1982.000000	98.585487
1981.000000	98.543314
1980.000000	98.532332
1979.000000	98.565059
1978.000000	98.639098
1977.000000	98.728513
1976.000000	98.796786
1975.000000	98.821934
1974.000000	98.809579
1973.000000	98.788134
1972.000000	98.786552
1971.000000	98.807824
1970.000000	98.832010
1969.000000	98.849533
1968.000000	98.875370
1967.000000	98.917971
1966.000000	98.953987
1965.000000	98.958817
1964.000000	98.943325
1963.000000	98.932470
1962.000000	98.925571
1961.000000	98.906197
1960.000000	98.880346
1959.000000	98.872933
1958.000000	98.888542
1957.000000	98.905303
1956.000000	98.908218
1955.000000	98.903842
1954.000000	98.901463
1953.000000	98.900558
1952.000000	98.899819
1951.000000	98.901178
1950.000000	98.900399
1949.000000	98.888403
1948.000000	98.864184
1947.000000	98.836363
1946.000000	98.814562
1945.000000	98.807568
1944.000000	98.822251
1943.000000	98.850394
1942.000000	98.865376
1941.000000	98.853389
1940.000000	98.834904
1939.000000	98.833963
1938.000000	98.843943
1937.000000	98.842491
1936.000000	98.828627
1935.000000	98.820297
1934.000000	98.819064
1933.000000	98.806687
1932.000000	98.781151
1931.000000	98.767788
1930.000000	98.782893
1929.000000	98.810792
1928.000000	98.825901
1927.000000	98.821879
1926.000000	98.808679
1925.000000	98.795312
1924.000000	98.788635
1923.000000	98.793937
1922.000000	98.806539
1921.000000	98.814534
1920.000000	98.815106
1919.000000	98.817495
1918.000000	98.825735
1917.000000	98.828726
1916.000000	98.817458
1915.000000	98.799576
1914.000000	98.788614
1913.000000	98.789205
1912.000000	98.796065
1911.000000	98.800536
1910.000000	98.794953
1909.000000	98.779161
1908.000000	98.763274
1907.000000	98.757990
1906.000000	98.761764
1905.000000	98.763274
1904.000000	98.758000
1903.000000	98.752297
1902.000000	98.752357
1901.000000	98.758859
1900.000000	98.770299
1899.000000	98.783666
1898.000000	98.791349
1897.000000	98.786217
1896.000000	98.773946
1895.000000	98.769415
1894.000000	98.777719
1893.000000	98.789574
1892.000000	98.797225
1891.000000	98.803718
1890.000000	98.814407
1889.000000	98.827030
1888.000000	98.834493
1887.000000	98.831986
1886.000000	98.817475
1885.000000	98.793501
1884.000000	98.771950
1883.000000	98.766959
1882.000000	98.780155
1881.000000	98.800610
1880.000000	98.818006
1879.000000	98.829632
1878.000000	98.835690
1877.000000	98.835677
1876.000000	98.833210
1875.000000	98.835305
1874.000000	98.841851
1873.000000	98.844069
1872.000000	98.836392
1871.000000	98.823448
1870.000000	98.814994
1869.000000	98.818441
1868.000000	98.832100
1867.000000	98.843841
1866.000000	98.842113
1865.000000	98.828149
1864.000000	98.815865
1863.000000	98.818571
1862.000000	98.834237
1861.000000	98.847122
1860.000000	98.845281
1859.000000	98.831603
1858.000000	98.817156
1857.000000	98.810711
1856.000000	98.814342
1855.000000	98.823563
1854.000000	98.830254
1853.000000	98.832212
1852.000000	98.836334
1851.000000	98.847833
1850.000000	98.862605
1849.000000	98.872325
1848.000000	98.876977
1847.000000	98.883803
1846.000000	98.895009
1845.000000	98.903830
1844.000000	98.904084
1843.000000	98.896771
1842.000000	98.885027
1841.000000	98.873705
1840.000000	98.870525
1839.000000	98.879589
1838.000000	98.893224
1837.000000	98.897898
1836.000000	98.891436
1835.000000	98.883755
1834.000000	98.881740
1833.000000	98.884030
1832.000000	98.887760
1831.000000	98.894293
1830.000000	98.905867
1829.000000	98.916447
1828.000000	98.918766
1827.000000	98.915131
1826.000000	98.911195
1825.000000	98.908123
1824.000000	98.904664
1823.000000	98.900321
1822.000000	98.894088
1821.000000	98.885476
1820.000000	98.877477
1819.000000	98.875041
1818.000000	98.877401
1817.000000	98.877501
1816.000000	98.873059
1815.000000	98.868046
1814.000000	98.865919
1813.000000	98.867578
1812.000000	98.874188
1811.000000	98.885657
1810.000000	98.892374
1809.000000	98.883130
1808.000000	98.862596
1807.000000	98.846770
1806.000000	98.844125
1805.000000	98.849768
1804.000000	98.856719
1803.000000	98.861742
1802.000000	98.862452
1801.000000	98.856419
1800.000000	98.845439
1799.000000	98.835304
1798.000000	98.826933
1797.000000	98.818462
1796.000000	98.813613
1795.000000	98.818928
1794.000000	98.835590
1793.000000	98.857100
1792.000000	98.875599
1791.000000	98.885797
1790.000000	98.882817
1789.000000	98.867949
1788.000000	98.851827
1787.000000	98.846471
1786.000000	98.855019
1785.000000	98.869026
1784.000000	98.878444
1783.000000	98.878084
1782.000000	98.869251
1781.000000	98.859210
1780.000000	98.856277
1779.000000	98.864324
1778.000000	98.877742
1777.000000	98.889885
1776.000000	98.900502
1775.000000	98.912925
1774.000000	98.928469
1773.000000	98.942557
1772.000000	98.949091
1771.000000	98.945886
1770.000000	98.933243
1769.000000	98.915494
1768.000000	98.903536
1767.000000	98.903644
1766.000000	98.909318
1765.000000	98.911605
1764.000000	98.910831
1763.000000	98.911958
1762.000000	98.914056
1761.000000	98.909569
1760.000000	98.897571
1759.000000	98.887192
1758.000000	98.882974
1757.000000	98.883406
1756.000000	98.885362
1755.000000	98.886905
1754.000000	98.885999
1753.000000	98.881089
1752.000000	98.873675
1751.000000	98.867344
1750.000000	98.858083
1749.000000	98.835386
1748.000000	98.803208
1747.000000	98.775124
1746.000000	98.754807
1745.000000	98.734566
1744.000000	98.712186
1743.000000	98.697241
1742.000000	98.693245
1741.000000	98.689907
1740.000000	98.682680
1739.000000	98.680874
1738.000000	98.686156
1737.000000	98.691041
1736.000000	98.697635
1735.000000	98.720145
1734.000000	98.759201
1733.000000	98.783472
1732.000000	98.777308
1731.000000	98.762544
1730.000000	98.754871
1729.000000	98.751281
1728.000000	98.746713
1727.000000	98.744068
1726.000000	98.746075
1725.000000	98.745423
1724.000000	98.737121
1723.000000	98.731219
1722.000000	98.735739
1721.000000	98.744856
1720.000000	98.750237
1719.000000	98.753599
1718.000000	98.757983
1717.000000	98.748930
1716.000000	98.716634
1715.000000	98.675129
1714.000000	98.632205
1713.000000	98.582347
1712.000000	98.528178
1711.000000	98.480852
1710.000000	98.443533
1709.000000	98.408201
1708.000000	98.366146
1707.000000	98.314141
1706.000000	98.250215
1705.000000	98.175531
1704.000000	98.107775
1703.000000	98.061570
1702.000000	98.026240
1701.000000	97.948248
1700.000000	97.800792
1699.000000	97.646889
1698.000000	97.519405
1697.000000	97.385335
1696.000000	97.234471
1695.000000	97.099496
1694.000000	96.998254
1693.000000	96.907232
1692.000000	96.806956
1691.000000	96.699848
1690.000000	96.592993
1689.000000	96.490519
1688.000000	96.399972
1687.000000	96.325530
1686.000000	96.250923
1685.000000	96.112418
1684.000000	95.893426
1683.000000	95.688137
1682.000000	95.530619
1681.000000	95.376107
1680.000000	95.214048
1679.000000	95.069551
1678.000000	94.953230
1677.000000	94.828846
1676.000000	94.642829
1675.000000	94.401838
1674.000000	94.180582
1673.000000	94.011998
1672.000000	93.858726
1671.000000	93.674328
1670.000000	93.432663
1669.000000	93.157022
1668.000000	92.906864
1667.000000	92.718857
1666.000000	92.581630
1665.000000	92.450301
1664.000000	92.275895
1663.000000	92.048142
1662.000000	91.813062
1661.000000	91.615212
1660.000000	91.451878
1659.000000	91.316384
1658.000000	91.215888
1657.000000	91.164309
1656.000000	91.148528
1655.000000	91.132602
1654.000000	91.002429
1653.000000	90.702170
1652.000000	90.448113
1651.000000	90.372853
1650.000000	90.386999
1649.000000	90.398760
1648.000000	90.344356
1647.000000	90.215813
1646.000000	90.081168
1645.000000	89.993115
1644.000000	89.943302
1643.000000	89.911664
1642.000000	89.887014
1641.000000	89.863397
1640.000000	89.844913
1639.000000	89.840940
1638.000000	89.843084
1637.000000	89.804777
1636.000000	89.677692
1635.000000	89.511260
1634.000000	89.401186
1633.000000	89.355330
1632.000000	89.340358
1631.000000	89.340177
1630.000000	89.346383
1629.000000	89.351479
1628.000000	89.358761
1627.000000	89.389225
1626.000000	89.457453
1625.000000	89.554105
1624.000000	89.657837
1623.000000	89.763327
1622.000000	89.884221
1621.000000	90.029307
1620.000000	90.192727
1619.000000	90.366471
1618.000000	90.546157
1617.000000	90.729054
1616.000000	90.911529
1615.000000	91.089070
1614.000000	91.262693
1613.000000	91.437729
1612.000000	91.616179
1611.000000	91.792499
1610.000000	91.961511
1609.000000	92.126645
1608.000000	92.292573
1607.000000	92.455071
1606.000000	92.607809
1605.000000	92.752480
1604.000000	92.892052
1603.000000	93.025154
1602.000000	93.150596
1601.000000	93.270535
1600.000000	93.384086
1599.000000	93.484494
1598.000000	93.569205
1597.000000	93.645021
1596.000000	93.717714
1595.000000	93.782711
1594.000000	93.834723
1593.000000	93.879268
1592.000000	93.923304
1591.000000	93.962288
1590.000000	93.987299
1589.000000	93.999432
1588.000000	94.005037
1587.000000	94.003784
1586.000000	93.991850
1585.000000	93.972277
1584.000000	93.947413
1583.000000	93.908990
1582.000000	93.853784
1581.000000	93.796692
1580.000000	93.753566
1579.000000	93.717241
1578.000000	93.662747
1577.000000	93.566312
1576.000000	93.438427
1575.000000	93.325269
1574.000000	93.253391
1573.000000	93.212616
1572.000000	93.177365
1571.000000	93.108275
1570.000000	92.971972
1569.000000	92.800423
1568.000000	92.655418
1567.000000	92.543271
1566.000000	92.430313
1565.000000	92.304141
1564.000000	92.183443
1563.000000	92.105483
1562.000000	92.076500
1561.000000	92.071444
1560.000000	91.965211
1559.000000	91.645154
1558.000000	91.320304
1557.000000	91.161151
1556.000000	91.070886
1555.000000	90.971462
1554.000000	90.859979
1553.000000	90.761501
1552.000000	90.685759
1551.000000	90.609367
1550.000000	90.521349
1549.000000	90.441439
1548.000000	90.396583
1547.000000	90.380792
1546.000000	90.367040
1545.000000	90.338513
1544.000000	90.309682
1543.000000	90.302121
1542.000000	90.303876
1541.000000	90.267543
1540.000000	90.188043
1539.000000	90.139466
1538.000000	90.166724
1537.000000	90.248483
1536.000000	90.354530
1535.000000	90.458299
1534.000000	90.535577
1533.000000	90.588185
1532.000000	90.644819
1531.000000	90.723601
1530.000000	90.818479
1529.000000	90.914356
1528.000000	91.001711
1527.000000	91.085402
1526.000000	91.176380
1525.000000	91.277688
1524.000000	91.381649
1523.000000	91.476842
1522.000000	91.551759
1521.000000	91.610532
1520.000000	91.675309
1519.000000	91.753903
1518.000000	91.832180
1517.000000	91.897788
1516.000000	91.960112
1515.000000	92.037294
1514.000000	92.132008
1513.000000	92.235279
1512.000000	92.342465
1511.000000	92.459067
1510.000000	92.586374
1509.000000	92.713257
1508.000000	92.821652
1507.000000	92.917319
1506.000000	93.008615
1505.000000	93.079743
1504.000000	93.140347
1503.000000	93.213839
1502.000000	93.307001
1501.000000	93.411517
1500.000000	93.514434
1499.000000	93.609682
1498.000000	93.696424
1497.000000	93.767258
1496.000000	93.822136
1495.000000	93.877966
1494.000000	93.944495
1493.000000	94.015034
1492.000000	94.081029
1491.000000	94.140448
1490.000000	94.192750
1489.000000	94.229998
1488.000000	94.248478
1487.000000	94.258578
1486.000000	94.264341
1485.000000	94.262114
1484.000000	94.252179
1483.000000	94.236641
1482.000000	94.212602
1481.000000	94.175080
1480.000000	94.131900
1479.000000	94.095296
1478.000000	94.061192
1477.000000	94.011797
1476.000000	93.943640
1475.000000	93.868539
1474.000000	93.778306
1473.000000	93.644351
1472.000000	93.477936
1471.000000	93.331754
1470.000000	93.223816
1469.000000	93.137444
1468.000000	93.061506
1467.000000	92.990148
1466.000000	92.906914
1465.000000	92.795503
1464.000000	92.671252
1463.000000	92.570106
1462.000000	92.503550
1461.000000	92.459369
1460.000000	92.420747
1459.000000	92.366111
1458.000000	92.252872
1457.000000	92.059885
1456.000000	91.864876
1455.000000	91.743033
1454.000000	91.676710
1453.000000	91.627581
1452.000000	91.585524
1451.000000	91.557420
1450.000000	91.541072
1449.000000	91.520755
1448.000000	91.494473
1447.000000	91.478364
1446.000000	91.480813
1445.000000	91.494555
1444.000000	91.511382
1443.000000	91.532074
1442.000000	91.559559
1441.000000	91.596319
1440.000000	91.646720
1439.000000	91.712816
1438.000000	91.782716
1437.000000	91.831666
1436.000000	91.855257
1435.000000	91.877709
1434.000000	91.914661
1433.000000	91.961162
1432.000000	92.007663
1431.000000	92.046913
1430.000000	92.074687
1429.000000	92.088889
1428.000000	92.095591
1427.000000	92.104209
1426.000000	92.113916
1425.000000	92.114776
1424.000000	92.104223
1423.000000	92.099237
1422.000000	92.113126
1421.000000	92.134244
1420.000000	92.133282
1419.000000	92.099433
1418.000000	92.061475
1417.000000	92.042754
1416.000000	92.040373
1415.000000	92.047380
1414.000000	92.057929
1413.000000	92.064124
1412.000000	92.060750
1411.000000	92.051171
1410.000000	92.042853
1409.000000	92.037809
1408.000000	92.034651
1407.000000	92.031871
1406.000000	92.025685
1405.000000	92.013776
1404.000000	92.002550
1403.000000	92.004865
1402.000000	92.024429
1401.000000	92.050621
1400.000000	92.070395
1399.000000	92.083452
1398.000000	92.100696
1397.000000	92.127444
1396.000000	92.160546
1395.000000	92.194501
1394.000000	92.225056
1393.000000	92.252479
1392.000000	92.283050
1391.000000	92.324175
1390.000000	92.375084
1389.000000	92.425635
1388.000000	92.465833
1387.000000	92.496116
1386.000000	92.523572
1385.000000	92.551728
1384.000000	92.580263
1383.000000	92.609482
1382.000000	92.639412
1381.000000	92.668590
1380.000000	92.697828
1379.000000	92.732270
1378.000000	92.777492
1377.000000	92.833843
1376.000000	92.896738
1375.000000	92.961377
1374.000000	93.027244
1373.000000	93.096773
1372.000000	93.171494
1371.000000	93.250457
1370.000000	93.330583
1369.000000	93.411158
1368.000000	93.495949
1367.000000	93.589455
1366.000000	93.690809
1365.000000	93.793785
1364.000000	93.891731
1363.000000	93.981575
1362.000000	94.063041
1361.000000	94.135459
1360.000000	94.198246
1359.000000	94.251701
1358.000000	94.295912
1357.000000	94.330588
1356.000000	94.355034
1355.000000	94.368391
1354.000000	94.370488
1353.000000	94.361532
1352.000000	94.342302
1351.000000	94.314178
1350.000000	94.279509
1349.000000	94.241621
1348.000000	94.200845
1347.000000	94.154499
1346.000000	94.101484
1345.000000	94.045905
1344.000000	93.993629
1343.000000	93.945675
1342.000000	93.896944
1341.000000	93.842824
1340.000000	93.786862
1339.000000	93.740275
1338.000000	93.712554
1337.000000	93.705096
1336.000000	93.714415
1335.000000	93.736515
1334.000000	93.768385
1333.000000	93.809400
1332.000000	93.860795
1331.000000	93.922041
1330.000000	93.988498
1329.000000	94.054030
1328.000000	94.115441
1327.000000	94.172495
1326.000000	94.224901
1325.000000	94.271185
1324.000000	94.309019
1323.000000	94.336345
1322.000000	94.352632
1321.000000	94.360152
1320.000000	94.364246
1319.000000	94.371700
1318.000000	94.386995
1317.000000	94.409804
1316.000000	94.436857
1315.000000	94.465714
1314.000000	94.496709
1313.000000	94.532087
1312.000000	94.573674
1311.000000	94.621232
1310.000000	94.672821
1309.000000	94.725762
1308.000000	94.777110
1307.000000	94.823717
1306.000000	94.863064
1305.000000	94.894853
1304.000000	94.921089
1303.000000	94.944947
1302.000000	94.969107
1301.000000	94.994848
1300.000000	95.022015
1299.000000	95.049599
1298.000000	95.075486
1297.000000	95.095960
1296.000000	95.106837
1295.000000	95.105834
1294.000000	95.093889
1293.000000	95.072968
1292.000000	95.043401
1291.000000	95.004697
1290.000000	94.957996
1289.000000	94.906620
1288.000000	94.854180
1287.000000	94.803242
1286.000000	94.755919
1285.000000	94.714401
1284.000000	94.680035
1283.000000	94.652112
1282.000000	94.628446
1281.000000	94.607998
1280.000000	94.592930
1279.000000	94.586718
1278.000000	94.590601
1277.000000	94.602748
1276.000000	94.620161
1275.000000	94.639847
1274.000000	94.658307
1273.000000	94.672269
1272.000000	94.681019
1271.000000	94.686288
1270.000000	94.688374
1269.000000	94.683955
1268.000000	94.669837
1267.000000	94.648377
1266.000000	94.627209
1265.000000	94.612127
1264.000000	94.601408
1263.000000	94.587743
1262.000000	94.564710
1261.000000	94.531229
1260.000000	94.490307
1259.000000	94.444976
1258.000000	94.396365
1257.000000	94.344800
1256.000000	94.291488
1255.000000	94.237405
1254.000000	94.181118
1253.000000	94.119713
1252.000000	94.051997
1251.000000	93.979336
1250.000000	93.902984
1249.000000	93.822789
1248.000000	93.739323
1247.000000	93.654403
1246.000000	93.568275
1245.000000	93.478747
1244.000000	93.385286
1243.000000	93.291943
1242.000000	93.204358
1241.000000	93.125983
1240.000000	93.058841
1239.000000	93.004705
1238.000000	92.962571
1237.000000	92.928704
1236.000000	92.901816
1235.000000	92.886013
1234.000000	92.886578
1233.000000	92.904203
1232.000000	92.936457
1231.000000	92.981835
1230.000000	93.040233
1229.000000	93.112406
1228.000000	93.200075
1227.000000	93.305462
1226.000000	93.428083
1225.000000	93.563086
1224.000000	93.704157
1223.000000	93.846060
1222.000000	93.984404
1221.000000	94.115064
1220.000000	94.235389
1219.000000	94.344859
1218.000000	94.443392
1217.000000	94.528567
1216.000000	94.595568
1215.000000	94.640901
1214.000000	94.664928
1213.000000	94.671210
1212.000000	94.663265
1211.000000	94.643023
1210.000000	94.612525
1209.000000	94.574852
1208.000000	94.533505
1207.000000	94.491074
1206.000000	94.449181
1205.000000	94.410014
1204.000000	94.377557
1203.000000	94.356948
1202.000000	94.353026
1201.000000	94.369831
1200.000000	94.409293
1199.000000	94.469320
1198.000000	94.543474
1197.000000	94.624842
1196.000000	94.710283
1195.000000	94.798980
1194.000000	94.889062
1193.000000	94.977689
1192.000000	95.063574
1191.000000	95.147044
1190.000000	95.227682
1189.000000	95.303631
1188.000000	95.372972
1187.000000	95.434521
1186.000000	95.487967
1185.000000	95.535567
1184.000000	95.582753
1183.000000	95.634172
1182.000000	95.687938
1181.000000	95.735277
1180.000000	95.768257
1179.000000	95.787055
1178.000000	95.798713
1177.000000	95.810076
1176.000000	95.823175
1175.000000	95.836364
1174.000000	95.847049
1173.000000	95.853433
1172.000000	95.855777
1171.000000	95.856623
1170.000000	95.858901
1169.000000	95.862960
1168.000000	95.866084
1167.000000	95.865570
1166.000000	95.861656
1165.000000	95.856953
1164.000000	95.853378
1163.000000	95.850532
1162.000000	95.847371
1161.000000	95.845250
1160.000000	95.848495
1159.000000	95.861406
1158.000000	95.885294
1157.000000	95.918905
1156.000000	95.961552
1155.000000	96.013714
1154.000000	96.074229
1153.000000	96.138916
1152.000000	96.202860
1151.000000	96.263748
1150.000000	96.322160
1149.000000	96.379217
1148.000000	96.434789
1147.000000	96.487857
1146.000000	96.537597
1145.000000	96.583494
1144.000000	96.624594
1143.000000	96.659069
1142.000000	96.685739
1141.000000	96.706517
1140.000000	96.727033
1139.000000	96.753398
1138.000000	96.786730
1137.000000	96.821281
1136.000000	96.848725
1135.000000	96.864641
1134.000000	96.871109
1133.000000	96.873812
1132.000000	96.877756
1131.000000	96.884816
1130.000000	96.893241
1129.000000	96.899607
1128.000000	96.902906
1127.000000	96.906905
1126.000000	96.916403
1125.000000	96.930704
1124.000000	96.942912
1123.000000	96.946454
1122.000000	96.940840
1121.000000	96.930319
1120.000000	96.919317
1119.000000	96.911030
1118.000000	96.908140
1117.000000	96.911741
1116.000000	96.919476
1115.000000	96.926422
1114.000000	96.928281
1113.000000	96.923342
1112.000000	96.912423
1111.000000	96.898465
1110.000000	96.885912
1109.000000	96.878746
1108.000000	96.877980
1107.000000	96.880803
1106.000000	96.882103
1105.000000	96.877795
1104.000000	96.867948
1103.000000	96.856642
1102.000000	96.847749
1101.000000	96.840898
1100.000000	96.832641
1099.000000	96.821141
1098.000000	96.807427
1097.000000	96.792289
1096.000000	96.774390
1095.000000	96.751914
1094.000000	96.723999
1093.000000	96.689356
1092.000000	96.645336
1091.000000	96.590026
1090.000000	96.523495
1089.000000	96.446879
1088.000000	96.362228
1087.000000	96.274048
1086.000000	96.188706
1085.000000	96.111064
1084.000000	96.043481
1083.000000	95.988288
1082.000000	95.948938
1081.000000	95.927537
1080.000000	95.924641
1079.000000	95.941895
1078.000000	95.981835
1077.000000	96.043536
1076.000000	96.119071
1075.000000	96.196842
1074.000000	96.268036
1073.000000	96.328985
1072.000000	96.378183
1071.000000	96.413393
1070.000000	96.432703
1069.000000	96.437229
1068.000000	96.431989
1067.000000	96.423876
1066.000000	96.418654
1065.000000	96.418643
1064.000000	96.422946
1063.000000	96.429919
1062.000000	96.439078
1061.000000	96.450818
1060.000000	96.464921
1059.000000	96.479941
1058.000000	96.494074
1057.000000	96.507045
1056.000000	96.521309
1055.000000	96.540652
1054.000000	96.566469
1053.000000	96.595572
1052.000000	96.622599
1051.000000	96.644401
1050.000000	96.660804
1049.000000	96.671463
1048.000000	96.674825
1047.000000	96.671344
1046.000000	96.665574
1045.000000	96.662726
1044.000000	96.663590
1043.000000	96.664276
1042.000000	96.660051
1041.000000	96.648468
1040.000000	96.628792
1039.000000	96.599259
1038.000000	96.556490
1037.000000	96.498453
1036.000000	96.428926
1035.000000	96.358094
1034.000000	96.297151
1033.000000	96.252467
1032.000000	96.226178
1031.000000	96.220223
1030.000000	96.235469
1029.000000	96.267690
1028.000000	96.308257
1027.000000	96.351489
1026.000000	96.398749
1025.000000	96.452717
1024.000000	96.510218
1023.000000	96.563605
1022.000000	96.608807
1021.000000	96.648167
1020.000000	96.684464
1019.000000	96.715360
1018.000000	96.736304
1017.000000	96.747463
1016.000000	96.755406
1015.000000	96.768639
1014.000000	96.792937
1013.000000	96.830127
1012.000000	96.878733
1011.000000	96.934313
1010.000000	96.990459
1009.000000	97.042081
1008.000000	97.088863
1007.000000	97.135331
1006.000000	97.187058
1005.000000	97.245974
1004.000000	97.308841
1003.000000	97.370101
1002.000000	97.426363
1001.000000	97.478213
1000.000000	97.528123
999.000000	97.577475
998.000000	97.626087
997.000000	97.674011
996.000000	97.722447
995.000000	97.772288
994.000000	97.821932
993.000000	97.867244
992.000000	97.904571
991.000000	97.934153
990.000000	97.960573
989.000000	97.989129
988.000000	98.021239
987.000000	98.053258
986.000000	98.079162
985.000000	98.094960
984.000000	98.101315
983.000000	98.102361
982.000000	98.101882
981.000000	98.099916
980.000000	98.093256
979.000000	98.078957
978.000000	98.056710
977.000000	98.028941
976.000000	98.000572
975.000000	97.978443
974.000000	97.967942
973.000000	97.968930
972.000000	97.976652
971.000000	97.987791
970.000000	98.003705
969.000000	98.026352
968.000000	98.053406
967.000000	98.079448
966.000000	98.101389
965.000000	98.120811
964.000000	98.141304
963.000000	98.165201
962.000000	98.192491
961.000000	98.221588
960.000000	98.250855
959.000000	98.279404
958.000000	98.305659
957.000000	98.325777
956.000000	98.336040
955.000000	98.337812
954.000000	98.337397
953.000000	98.339120
952.000000	98.341186
951.000000	98.340508
950.000000	98.338440
949.000000	98.338321
948.000000	98.340014
947.000000	98.341006
946.000000	98.340944
945.000000	98.340482
944.000000	98.337368
943.000000	98.329169
942.000000	98.319586
941.000000	98.315964
940.000000	98.319240
939.000000	98.321764
938.000000	98.317420
937.000000	98.310164
936.000000	98.309949
935.000000	98.323678
934.000000	98.351792
933.000000	98.389497
932.000000	98.427813
931.000000	98.456680
930.000000	98.471647
929.000000	98.476809
928.000000	98.478775
927.000000	98.479567
926.000000	98.478343
925.000000	98.477313
924.000000	98.481448
923.000000	98.492509
922.000000	98.507381
921.000000	98.523091
920.000000	98.540259
919.000000	98.560606
918.000000	98.583793
917.000000	98.608327
916.000000	98.633557
915.000000	98.658927
914.000000	98.682489
913.000000	98.702029
912.000000	98.717497
911.000000	98.731144
910.000000	98.745128
909.000000	98.759580
908.000000	98.773362
907.000000	98.786450
906.000000	98.800836
905.000000	98.818203
904.000000	98.836463
903.000000	98.849696
902.000000	98.853189
901.000000	98.848990
900.000000	98.845459
899.000000	98.850103
898.000000	98.862960
897.000000	98.878040
896.000000	98.890980
895.000000	98.903497
894.000000	98.919066
893.000000	98.936024
892.000000	98.948020
891.000000	98.951410
890.000000	98.949358
889.000000	98.946932
888.000000	98.944474
887.000000	98.937396
886.000000	98.920360
885.000000	98.888615
884.000000	98.836677
883.000000	98.759776
882.000000	98.655809
881.000000	98.523468
880.000000	98.358284
879.000000	98.154417
878.000000	97.912088
877.000000	97.641589
876.000000	97.362023
875.000000	97.100159
874.000000	96.892265
873.000000	96.780678
872.000000	96.800564
871.000000	96.958613
870.000000	97.220347
869.000000	97.522104
868.000000	97.800027
867.000000	98.016309
866.000000	98.166927
865.000000	98.270393
864.000000	98.348641
863.000000	98.414124
862.000000	98.468107
861.000000	98.506854
860.000000	98.528729
859.000000	98.536986
858.000000	98.538137
857.000000	98.537611
856.000000	98.537457
855.000000	98.538689
854.000000	98.544347
853.000000	98.557703
852.000000	98.576763
851.000000	98.593477
850.000000	98.601324
849.000000	98.603279
848.000000	98.610104
847.000000	98.630394
846.000000	98.663301
845.000000	98.700846
844.000000	98.735345
843.000000	98.763886
842.000000	98.787332
841.000000	98.806875
840.000000	98.822281
839.000000	98.833279
838.000000	98.841643
837.000000	98.850286
836.000000	98.860106
835.000000	98.869836
834.000000	98.880350
833.000000	98.896537
832.000000	98.920941
831.000000	98.946402
830.000000	98.959913
829.000000	98.955898
828.000000	98.942853
827.000000	98.934090
826.000000	98.934287
825.000000	98.937642
824.000000	98.936732
823.000000	98.929933
822.000000	98.921011
821.000000	98.914528
820.000000	98.911572
819.000000	98.907800
818.000000	98.896823
817.000000	98.877780
816.000000	98.858495
815.000000	98.849063
814.000000	98.853137
813.000000	98.867030
812.000000	98.884788
811.000000	98.900353
810.000000	98.907429
809.000000	98.903766
808.000000	98.896175
807.000000	98.895958
806.000000	98.907352
805.000000	98.923752
804.000000	98.936336
803.000000	98.942343
802.000000	98.943471
801.000000	98.940280
800.000000	98.931368
799.000000	98.916553
798.000000	98.898985
797.000000	98.884994
796.000000	98.881749
795.000000	98.892115
794.000000	98.911072
793.000000	98.929436
792.000000	98.941156
791.000000	98.945002
790.000000	98.941082
789.000000	98.930442
788.000000	98.917664
787.000000	98.908449
786.000000	98.903125
785.000000	98.896814
784.000000	98.887274
783.000000	98.878263
782.000000	98.873958
781.000000	98.874461
780.000000	98.878138
779.000000	98.884078
778.000000	98.890533
777.000000	98.894956
776.000000	98.896902
775.000000	98.897235
774.000000	98.894641
773.000000	98.888245
772.000000	98.883342
771.000000	98.886920
770.000000	98.895937
769.000000	98.898304
768.000000	98.888805
767.000000	98.876031
766.000000	98.869330
765.000000	98.867446
764.000000	98.866352
763.000000	98.869910
762.000000	98.883001
761.000000	98.899135
760.000000	98.904728
759.000000	98.894061
758.000000	98.873000
757.000000	98.850493
756.000000	98.833582
755.000000	98.828255
754.000000	98.836560
753.000000	98.852026
752.000000	98.864001
751.000000	98.867182
750.000000	98.863312
749.000000	98.855135
748.000000	98.843655
747.000000	98.830297
746.000000	98.817141
745.000000	98.805588
744.000000	98.798312
743.000000	98.800195
742.000000	98.812140
741.000000	98.825302
740.000000	98.826828
739.000000	98.811665
738.000000	98.785331
737.000000	98.756332
736.000000	98.729866
735.000000	98.707891
734.000000	98.690602
733.000000	98.676951
732.000000	98.665839
731.000000	98.655962
730.000000	98.642942
729.000000	98.619151
728.000000	98.580200
727.000000	98.530694
726.000000	98.480995
725.000000	98.440104
724.000000	98.412456
723.000000	98.396540
722.000000	98.383399
721.000000	98.361447
720.000000	98.328155
719.000000	98.292746
718.000000	98.261690
717.000000	98.225499
716.000000	98.166934
715.000000	98.082228
714.000000	97.990363
713.000000	97.921114
712.000000	97.893784
711.000000	97.903384
710.000000	97.925252
709.000000	97.936077
708.000000	97.932620
707.000000	97.927844
706.000000	97.928906
705.000000	97.927812
704.000000	97.917110
703.000000	97.904012
702.000000	97.900382
701.000000	97.904709
700.000000	97.902661
699.000000	97.882818
698.000000	97.845871
697.000000	97.802152
696.000000	97.766674
695.000000	97.751821
694.000000	97.758018
693.000000	97.772595
692.000000	97.781474
691.000000	97.780567
690.000000	97.772207
689.000000	97.756937
688.000000	97.735501
687.000000	97.713212
686.000000	97.695087
685.000000	97.680261
684.000000	97.666245
683.000000	97.654558
682.000000	97.646145
681.000000	97.635489
680.000000	97.615815
679.000000	97.587597
678.000000	97.556947
677.000000	97.527569
676.000000	97.499983
675.000000	97.474245
674.000000	97.449915
673.000000	97.428181
672.000000	97.414785
671.000000	97.413522
670.000000	97.413043
669.000000	97.387333
668.000000	97.318134
667.000000	97.239182
666.000000	97.213035
665.000000	97.235420
664.000000	97.261484
663.000000	97.269210
662.000000	97.255722
661.000000	97.226541
660.000000	97.189550
659.000000	97.156542
658.000000	97.135294
657.000000	97.122216
656.000000	97.112888
655.000000	97.112137
654.000000	97.121492
653.000000	97.127334
652.000000	97.117016
651.000000	97.098574
650.000000	97.090471
649.000000	97.095478
648.000000	97.099306
647.000000	97.091771
646.000000	97.075820
645.000000	97.058436
644.000000	97.044351
643.000000	97.038543
642.000000	97.045378
641.000000	97.063117
640.000000	97.083615
639.000000	97.096984
638.000000	97.095050
637.000000	97.076606
636.000000	97.053840
635.000000	97.046072
634.000000	97.059489
633.000000	97.078586
632.000000	97.082644
631.000000	97.065012
630.000000	97.033607
629.000000	97.000981
628.000000	96.979637
627.000000	96.978347
626.000000	96.993243
625.000000	97.008738
624.000000	97.014519
623.000000	97.014710
622.000000	97.016221
621.000000	97.017112
620.000000	97.013267
619.000000	97.007498
618.000000	97.003628
617.000000	96.998217
616.000000	96.987222
615.000000	96.975698
614.000000	96.972924
613.000000	96.982491
612.000000	97.000882
611.000000	97.020056
610.000000	97.029585
609.000000	97.024348
608.000000	97.012850
607.000000	97.009650
606.000000	97.017051
605.000000	97.025715
604.000000	97.032790
603.000000	97.042333
602.000000	97.046497
601.000000	97.028396
600.000000	96.991957
599.000000	96.969323
598.000000	96.986235
597.000000	97.034136
596.000000	97.087027
595.000000	97.127373
594.000000	97.144905
593.000000	97.129876
592.000000	97.087508
591.000000	97.048593
590.000000	97.045092
589.000000	97.079714
588.000000	97.130788
587.000000	97.176239
586.000000	97.202949
585.000000	97.205806
584.000000	97.189765
583.000000	97.165480
582.000000	97.136311
581.000000	97.099842
580.000000	97.066422
579.000000	97.057454
578.000000	97.074767
577.000000	97.090709
576.000000	97.083249
575.000000	97.066216
574.000000	97.067038
573.000000	97.086616
572.000000	97.101949
571.000000	97.094767
570.000000	97.061774
569.000000	97.006030
568.000000	96.934262
567.000000	96.860609
566.000000	96.800491
565.000000	96.762640
564.000000	96.750119
563.000000	96.756349
562.000000	96.757125
561.000000	96.726805
560.000000	96.670491
559.000000	96.621520
558.000000	96.599010
557.000000	96.589623
556.000000	96.579433
555.000000	96.576639
554.000000	96.589360
553.000000	96.608042
552.000000	96.627223
551.000000	96.658430
550.000000	96.702996
549.000000	96.739563
548.000000	96.757182
547.000000	96.771545
546.000000	96.791674
545.000000	96.800154
544.000000	96.789988
543.000000	96.789042
542.000000	96.822303
541.000000	96.876905
540.000000	96.926109
539.000000	96.957609
538.000000	96.957028
537.000000	96.900191
536.000000	96.792426
535.000000	96.685410
534.000000	96.618566
533.000000	96.571633
532.000000	96.510965
531.000000	96.450596
530.000000	96.425419
529.000000	96.433230
528.000000	96.449272
527.000000	96.473636
526.000000	96.522311
525.000000	96.585771
524.000000	96.643275
523.000000	96.700612
522.000000	96.769148
521.000000	96.832085
520.000000	96.870538
519.000000	96.904013
518.000000	96.963696
517.000000	97.037985
516.000000	97.089786
515.000000	97.109890
514.000000	97.111276
513.000000	97.098518
512.000000	97.083913
511.000000	97.107247
510.000000	97.192211
509.000000	97.302768
508.000000	97.385688
507.000000	97.438208
506.000000	97.491526
505.000000	97.546801
504.000000	97.578139
503.000000	97.583304
502.000000	97.587545
501.000000	97.601616
500.000000	97.615985
499.000000	97.631825
498.000000	97.656919
497.000000	97.683384
496.000000	97.706074
495.000000	97.745437
494.000000	97.813313
493.000000	97.875994
492.000000	97.896601
491.000000	97.896983
490.000000	97.926003
489.000000	97.982230
488.000000	98.027143
487.000000	98.056002
486.000000	98.097461
485.000000	98.151197
484.000000	98.180007
483.000000	98.175471
482.000000	98.177157
481.000000	98.215272
480.000000	98.283798
479.000000	98.368744
478.000000	98.457476
477.000000	98.524299
476.000000	98.548628
475.000000	98.545770
474.000000	98.544952
473.000000	98.543854
472.000000	98.526553
471.000000	98.514537
470.000000	98.538321
469.000000	98.577633
468.000000	98.589437
467.000000	98.584967
466.000000	98.624206
465.000000	98.723862
464.000000	98.830323
463.000000	98.890452
462.000000	98.902943
461.000000	98.897189
460.000000	98.896640
459.000000	98.913825
458.000000	98.942599
457.000000	98.948748
456.000000	98.914246
455.000000	98.880166
454.000000	98.894380
453.000000	98.948930
452.000000	98.999407
451.000000	99.040799
450.000000	99.110923
