PE IR       SUBTECH     SPECTRUM    ASCII       PEDS        4.00        
   -1
Histo1-Veau-S1_002_1.ASC
23/09/14
10:19:33.00
23/09/14
11:18:22.00
uco
Sample 002 By uco Date Thursday, September 14 2023
450.000000
#HDR
-1
-1
#GR
cm-1
%T
1.0
0.0
4000.000000
-1.000000
3551
8
98.969684
86.478047
#DATA
4000.000000	98.879392
3999.000000	98.878987
3998.000000	98.882263
3997.000000	98.887464
3996.000000	98.892369
3995.000000	98.895027
3994.000000	98.894558
3993.000000	98.891377
3992.000000	98.886569
3991.000000	98.880912
3990.000000	98.874753
3989.000000	98.869069
3988.000000	98.866275
3987.000000	98.868921
3986.000000	98.876861
3985.000000	98.886002
3984.000000	98.890664
3983.000000	98.888014
3982.000000	98.880118
3981.000000	98.871609
3980.000000	98.865722
3979.000000	98.862442
3978.000000	98.860015
3977.000000	98.857247
3976.000000	98.854137
3975.000000	98.851049
3974.000000	98.848041
3973.000000	98.845310
3972.000000	98.843831
3971.000000	98.844923
3970.000000	98.848800
3969.000000	98.853728
3968.000000	98.857150
3967.000000	98.857852
3966.000000	98.856896
3965.000000	98.856248
3964.000000	98.856543
3963.000000	98.856506
3962.000000	98.854607
3961.000000	98.850959
3960.000000	98.847362
3959.000000	98.845714
3958.000000	98.846631
3957.000000	98.849399
3956.000000	98.852707
3955.000000	98.855170
3954.000000	98.855644
3953.000000	98.853664
3952.000000	98.849935
3951.000000	98.846130
3950.000000	98.843630
3949.000000	98.842301
3948.000000	98.840815
3947.000000	98.838422
3946.000000	98.836130
3945.000000	98.835765
3944.000000	98.838016
3943.000000	98.841506
3942.000000	98.843867
3941.000000	98.843558
3940.000000	98.840604
3939.000000	98.836049
3938.000000	98.831243
3937.000000	98.827594
3936.000000	98.826267
3935.000000	98.827706
3934.000000	98.831386
3933.000000	98.836097
3932.000000	98.840731
3931.000000	98.844444
3930.000000	98.846124
3929.000000	98.844702
3928.000000	98.840241
3927.000000	98.834264
3926.000000	98.828874
3925.000000	98.825253
3924.000000	98.822677
3923.000000	98.819348
3922.000000	98.814630
3921.000000	98.810030
3920.000000	98.807814
3919.000000	98.808765
3918.000000	98.811463
3917.000000	98.813889
3916.000000	98.815474
3915.000000	98.817043
3914.000000	98.819277
3913.000000	98.821654
3912.000000	98.822571
3911.000000	98.820442
3910.000000	98.814985
3909.000000	98.807824
3908.000000	98.802143
3907.000000	98.801189
3906.000000	98.806270
3905.000000	98.815362
3904.000000	98.824016
3903.000000	98.828780
3902.000000	98.829421
3901.000000	98.827376
3900.000000	98.823227
3899.000000	98.816862
3898.000000	98.809176
3897.000000	98.802369
3896.000000	98.798719
3895.000000	98.799529
3894.000000	98.804519
3893.000000	98.811472
3892.000000	98.817185
3891.000000	98.819293
3890.000000	98.817582
3889.000000	98.814003
3888.000000	98.811650
3887.000000	98.812591
3886.000000	98.816384
3885.000000	98.820801
3884.000000	98.823875
3883.000000	98.825713
3882.000000	98.828108
3881.000000	98.832596
3880.000000	98.838755
3879.000000	98.844268
3878.000000	98.847404
3877.000000	98.848384
3876.000000	98.847685
3875.000000	98.844983
3874.000000	98.840653
3873.000000	98.836660
3872.000000	98.834669
3871.000000	98.833719
3870.000000	98.831121
3869.000000	98.826122
3868.000000	98.821194
3867.000000	98.819524
3866.000000	98.822505
3865.000000	98.828839
3864.000000	98.835370
3863.000000	98.839203
3862.000000	98.839565
3861.000000	98.837577
3860.000000	98.834260
3859.000000	98.829157
3858.000000	98.821329
3857.000000	98.812312
3856.000000	98.806861
3855.000000	98.807088
3854.000000	98.809938
3853.000000	98.812354
3852.000000	98.813769
3851.000000	98.814882
3850.000000	98.816507
3849.000000	98.818935
3848.000000	98.821511
3847.000000	98.822953
3846.000000	98.822432
3845.000000	98.820438
3844.000000	98.819049
3843.000000	98.820583
3842.000000	98.825382
3841.000000	98.831528
3840.000000	98.837003
3839.000000	98.841588
3838.000000	98.846137
3837.000000	98.850479
3836.000000	98.853371
3835.000000	98.853978
3834.000000	98.851988
3833.000000	98.847265
3832.000000	98.840652
3831.000000	98.834848
3830.000000	98.833220
3829.000000	98.836971
3828.000000	98.843621
3827.000000	98.848623
3826.000000	98.848972
3825.000000	98.845533
3824.000000	98.841481
3823.000000	98.837555
3822.000000	98.831429
3821.000000	98.823432
3820.000000	98.817246
3819.000000	98.814616
3818.000000	98.814209
3817.000000	98.814348
3816.000000	98.815682
3815.000000	98.820722
3814.000000	98.830202
3813.000000	98.841277
3812.000000	98.849599
3811.000000	98.852124
3810.000000	98.848593
3809.000000	98.840513
3808.000000	98.829929
3807.000000	98.820094
3806.000000	98.815109
3805.000000	98.817654
3804.000000	98.827378
3803.000000	98.840115
3802.000000	98.849676
3801.000000	98.852676
3800.000000	98.850973
3799.000000	98.847922
3798.000000	98.844639
3797.000000	98.840898
3796.000000	98.837100
3795.000000	98.834066
3794.000000	98.831787
3793.000000	98.829714
3792.000000	98.827711
3791.000000	98.826084
3790.000000	98.825028
3789.000000	98.824504
3788.000000	98.824523
3787.000000	98.824878
3786.000000	98.824703
3785.000000	98.823224
3784.000000	98.821179
3783.000000	98.820761
3782.000000	98.823386
3781.000000	98.827700
3780.000000	98.830748
3779.000000	98.831289
3778.000000	98.830846
3777.000000	98.831062
3776.000000	98.831652
3775.000000	98.831383
3774.000000	98.830099
3773.000000	98.829000
3772.000000	98.829033
3771.000000	98.829964
3770.000000	98.831596
3769.000000	98.834895
3768.000000	98.840559
3767.000000	98.847038
3766.000000	98.851078
3765.000000	98.850826
3764.000000	98.848233
3763.000000	98.847518
3762.000000	98.851470
3761.000000	98.859210
3760.000000	98.866679
3759.000000	98.869727
3758.000000	98.867166
3757.000000	98.860512
3756.000000	98.851838
3755.000000	98.842852
3754.000000	98.835416
3753.000000	98.831446
3752.000000	98.832329
3751.000000	98.837956
3750.000000	98.844756
3749.000000	98.848016
3748.000000	98.846905
3747.000000	98.844424
3746.000000	98.842865
3745.000000	98.841131
3744.000000	98.839903
3743.000000	98.843384
3742.000000	98.851703
3741.000000	98.860868
3740.000000	98.867983
3739.000000	98.872819
3738.000000	98.876119
3737.000000	98.877301
3736.000000	98.875630
3735.000000	98.872870
3734.000000	98.871631
3733.000000	98.872469
3732.000000	98.874328
3731.000000	98.875482
3730.000000	98.873925
3729.000000	98.868848
3728.000000	98.862358
3727.000000	98.858750
3726.000000	98.861041
3725.000000	98.867657
3724.000000	98.874095
3723.000000	98.877796
3722.000000	98.879742
3721.000000	98.881842
3720.000000	98.884127
3719.000000	98.885177
3718.000000	98.884369
3717.000000	98.882775
3716.000000	98.882642
3715.000000	98.885807
3714.000000	98.891681
3713.000000	98.896048
3712.000000	98.894248
3711.000000	98.885821
3710.000000	98.873510
3709.000000	98.859497
3708.000000	98.844970
3707.000000	98.831788
3706.000000	98.822250
3705.000000	98.817602
3704.000000	98.815920
3703.000000	98.811818
3702.000000	98.799544
3701.000000	98.778618
3700.000000	98.754724
3699.000000	98.734447
3698.000000	98.721038
3697.000000	98.714445
3696.000000	98.713437
3695.000000	98.716851
3694.000000	98.724034
3693.000000	98.733959
3692.000000	98.744213
3691.000000	98.750880
3690.000000	98.751001
3689.000000	98.745288
3688.000000	98.737695
3687.000000	98.731957
3686.000000	98.728703
3685.000000	98.727005
3684.000000	98.726640
3683.000000	98.728432
3682.000000	98.732069
3681.000000	98.734750
3680.000000	98.733481
3679.000000	98.729069
3678.000000	98.726122
3677.000000	98.727498
3676.000000	98.731408
3675.000000	98.734054
3674.000000	98.733255
3673.000000	98.728874
3672.000000	98.719765
3671.000000	98.702791
3670.000000	98.679137
3669.000000	98.658219
3668.000000	98.648094
3667.000000	98.647190
3666.000000	98.649208
3665.000000	98.649608
3664.000000	98.647214
3663.000000	98.642686
3662.000000	98.636178
3661.000000	98.626888
3660.000000	98.614944
3659.000000	98.602524
3658.000000	98.591849
3657.000000	98.582527
3656.000000	98.572227
3655.000000	98.560137
3654.000000	98.548732
3653.000000	98.541996
3652.000000	98.541090
3651.000000	98.539946
3650.000000	98.528544
3649.000000	98.504837
3648.000000	98.478603
3647.000000	98.459266
3646.000000	98.447375
3645.000000	98.439119
3644.000000	98.432332
3643.000000	98.427645
3642.000000	98.426208
3641.000000	98.426694
3640.000000	98.424691
3639.000000	98.415874
3638.000000	98.400199
3637.000000	98.382040
3636.000000	98.365443
3635.000000	98.350001
3634.000000	98.332311
3633.000000	98.311242
3632.000000	98.290010
3631.000000	98.271419
3630.000000	98.251802
3629.000000	98.226430
3628.000000	98.199803
3627.000000	98.179151
3626.000000	98.163826
3625.000000	98.149102
3624.000000	98.132296
3623.000000	98.113586
3622.000000	98.093727
3621.000000	98.071976
3620.000000	98.047483
3619.000000	98.023245
3618.000000	98.005208
3617.000000	97.996166
3616.000000	97.993575
3615.000000	97.991772
3614.000000	97.984605
3613.000000	97.968921
3612.000000	97.946994
3611.000000	97.923418
3610.000000	97.899632
3609.000000	97.873570
3608.000000	97.844933
3607.000000	97.818110
3606.000000	97.797673
3605.000000	97.783750
3604.000000	97.772406
3603.000000	97.758436
3602.000000	97.738136
3601.000000	97.711859
3600.000000	97.684454
3599.000000	97.661698
3598.000000	97.646019
3597.000000	97.634893
3596.000000	97.622870
3595.000000	97.605117
3594.000000	97.580673
3593.000000	97.552242
3592.000000	97.523003
3591.000000	97.493920
3590.000000	97.463634
3589.000000	97.430374
3588.000000	97.395915
3587.000000	97.365942
3586.000000	97.342228
3585.000000	97.319182
3584.000000	97.290572
3583.000000	97.255222
3582.000000	97.216284
3581.000000	97.177895
3580.000000	97.142628
3579.000000	97.110679
3578.000000	97.080771
3577.000000	97.051452
3576.000000	97.021780
3575.000000	96.990990
3574.000000	96.958456
3573.000000	96.924412
3572.000000	96.890322
3571.000000	96.857093
3570.000000	96.821968
3569.000000	96.777225
3568.000000	96.715581
3567.000000	96.641542
3566.000000	96.571749
3565.000000	96.518173
3564.000000	96.478008
3563.000000	96.440454
3562.000000	96.396595
3561.000000	96.344547
3560.000000	96.289087
3559.000000	96.236230
3558.000000	96.187918
3557.000000	96.142311
3556.000000	96.097595
3555.000000	96.053322
3554.000000	96.008873
3553.000000	95.963148
3552.000000	95.916799
3551.000000	95.872544
3550.000000	95.831859
3549.000000	95.792828
3548.000000	95.751958
3547.000000	95.707469
3546.000000	95.660647
3545.000000	95.614560
3544.000000	95.572385
3543.000000	95.537013
3542.000000	95.510395
3541.000000	95.491981
3540.000000	95.478336
3539.000000	95.465263
3538.000000	95.450911
3537.000000	95.436808
3536.000000	95.425796
3535.000000	95.418976
3534.000000	95.415057
3533.000000	95.412044
3532.000000	95.408373
3531.000000	95.402633
3530.000000	95.393923
3529.000000	95.383759
3528.000000	95.376641
3527.000000	95.376669
3526.000000	95.383061
3525.000000	95.390244
3524.000000	95.392777
3523.000000	95.390107
3522.000000	95.386566
3521.000000	95.387282
3520.000000	95.394449
3519.000000	95.406676
3518.000000	95.420599
3517.000000	95.432909
3516.000000	95.441721
3515.000000	95.446925
3514.000000	95.450082
3513.000000	95.453893
3512.000000	95.460652
3511.000000	95.470127
3510.000000	95.479069
3509.000000	95.483944
3508.000000	95.484540
3507.000000	95.484251
3506.000000	95.486597
3505.000000	95.491993
3504.000000	95.497740
3503.000000	95.500753
3502.000000	95.499970
3501.000000	95.496116
3500.000000	95.490125
3499.000000	95.482876
3498.000000	95.476080
3497.000000	95.472070
3496.000000	95.471668
3495.000000	95.472555
3494.000000	95.470716
3493.000000	95.463768
3492.000000	95.452547
3491.000000	95.439615
3490.000000	95.426871
3489.000000	95.414733
3488.000000	95.403190
3487.000000	95.393179
3486.000000	95.386611
3485.000000	95.384640
3484.000000	95.385682
3483.000000	95.385518
3482.000000	95.380291
3481.000000	95.369674
3480.000000	95.356515
3479.000000	95.343625
3478.000000	95.331907
3477.000000	95.321217
3476.000000	95.311317
3475.000000	95.301620
3474.000000	95.291486
3473.000000	95.281697
3472.000000	95.274564
3471.000000	95.271392
3470.000000	95.270380
3469.000000	95.268126
3468.000000	95.263097
3467.000000	95.256854
3466.000000	95.251738
3465.000000	95.247877
3464.000000	95.242469
3463.000000	95.231830
3462.000000	95.214705
3461.000000	95.194165
3460.000000	95.175770
3459.000000	95.163145
3458.000000	95.155274
3457.000000	95.148233
3456.000000	95.139038
3455.000000	95.127595
3454.000000	95.115587
3453.000000	95.104258
3452.000000	95.093083
3451.000000	95.079879
3450.000000	95.062428
3449.000000	95.040745
3448.000000	95.017872
3447.000000	94.997633
3446.000000	94.981132
3445.000000	94.966121
3444.000000	94.949697
3443.000000	94.930578
3442.000000	94.908907
3441.000000	94.885253
3440.000000	94.860472
3439.000000	94.835948
3438.000000	94.813021
3437.000000	94.791918
3436.000000	94.771578
3435.000000	94.750674
3434.000000	94.728629
3433.000000	94.705490
3432.000000	94.681037
3431.000000	94.654596
3430.000000	94.625950
3429.000000	94.595970
3428.000000	94.565652
3427.000000	94.534563
3426.000000	94.500916
3425.000000	94.463321
3424.000000	94.422185
3423.000000	94.379480
3422.000000	94.337632
3421.000000	94.298517
3420.000000	94.262549
3419.000000	94.228394
3418.000000	94.194273
3417.000000	94.159848
3416.000000	94.126271
3415.000000	94.094146
3414.000000	94.062162
3413.000000	94.028401
3412.000000	93.992588
3411.000000	93.956372
3410.000000	93.921773
3409.000000	93.890018
3408.000000	93.861736
3407.000000	93.837458
3406.000000	93.817360
3405.000000	93.800511
3404.000000	93.784678
3403.000000	93.767515
3402.000000	93.748726
3401.000000	93.730848
3400.000000	93.717043
3399.000000	93.707840
3398.000000	93.700632
3397.000000	93.692793
3396.000000	93.684659
3395.000000	93.679046
3394.000000	93.678315
3393.000000	93.682064
3392.000000	93.687163
3391.000000	93.689983
3390.000000	93.689466
3389.000000	93.688496
3388.000000	93.691660
3387.000000	93.701057
3386.000000	93.714454
3385.000000	93.727613
3384.000000	93.737828
3383.000000	93.745008
3382.000000	93.750688
3381.000000	93.757056
3380.000000	93.766150
3379.000000	93.778658
3378.000000	93.793299
3377.000000	93.807688
3376.000000	93.819553
3375.000000	93.827183
3374.000000	93.829985
3373.000000	93.829587
3372.000000	93.829462
3371.000000	93.832129
3370.000000	93.836887
3369.000000	93.841184
3368.000000	93.843897
3367.000000	93.846270
3366.000000	93.849773
3365.000000	93.854182
3364.000000	93.857938
3363.000000	93.859639
3362.000000	93.859033
3361.000000	93.857050
3360.000000	93.854837
3359.000000	93.852465
3358.000000	93.849024
3357.000000	93.844514
3356.000000	93.840928
3355.000000	93.840231
3354.000000	93.841357
3353.000000	93.840477
3352.000000	93.834758
3351.000000	93.825242
3350.000000	93.815729
3349.000000	93.809320
3348.000000	93.806249
3347.000000	93.804505
3346.000000	93.802042
3345.000000	93.798426
3344.000000	93.794668
3343.000000	93.791827
3342.000000	93.790034
3341.000000	93.788651
3340.000000	93.786688
3339.000000	93.782861
3338.000000	93.776096
3337.000000	93.766835
3336.000000	93.757566
3335.000000	93.751142
3334.000000	93.748288
3333.000000	93.747130
3332.000000	93.745271
3331.000000	93.742027
3330.000000	93.738534
3329.000000	93.735844
3328.000000	93.733239
3327.000000	93.728935
3326.000000	93.722567
3325.000000	93.716119
3324.000000	93.711452
3323.000000	93.707478
3322.000000	93.701377
3321.000000	93.692526
3320.000000	93.683513
3319.000000	93.676853
3318.000000	93.672379
3317.000000	93.668928
3316.000000	93.667049
3315.000000	93.668206
3314.000000	93.671971
3313.000000	93.675836
3312.000000	93.677651
3311.000000	93.676977
3310.000000	93.674321
3309.000000	93.670411
3308.000000	93.666466
3307.000000	93.663909
3306.000000	93.663188
3305.000000	93.663291
3304.000000	93.662426
3303.000000	93.659006
3302.000000	93.652641
3301.000000	93.644989
3300.000000	93.639160
3299.000000	93.637101
3298.000000	93.637739
3297.000000	93.638555
3296.000000	93.638794
3295.000000	93.639911
3294.000000	93.642710
3293.000000	93.645358
3292.000000	93.644902
3291.000000	93.640100
3290.000000	93.632436
3289.000000	93.624835
3288.000000	93.619565
3287.000000	93.616675
3286.000000	93.614159
3285.000000	93.610293
3284.000000	93.606242
3283.000000	93.605830
3282.000000	93.611991
3281.000000	93.623548
3280.000000	93.636066
3279.000000	93.645578
3278.000000	93.650998
3277.000000	93.653148
3276.000000	93.652585
3275.000000	93.649594
3274.000000	93.646038
3273.000000	93.645492
3272.000000	93.650351
3271.000000	93.659226
3270.000000	93.668309
3269.000000	93.675105
3268.000000	93.679807
3267.000000	93.683525
3266.000000	93.686966
3265.000000	93.691339
3264.000000	93.698658
3263.000000	93.709728
3262.000000	93.722829
3261.000000	93.735642
3260.000000	93.747680
3259.000000	93.759499
3258.000000	93.770461
3257.000000	93.779214
3256.000000	93.786022
3255.000000	93.792684
3254.000000	93.799788
3253.000000	93.805932
3252.000000	93.810496
3251.000000	93.815703
3250.000000	93.824516
3249.000000	93.836887
3248.000000	93.849116
3247.000000	93.856887
3246.000000	93.858626
3245.000000	93.856268
3244.000000	93.853352
3243.000000	93.852695
3242.000000	93.855706
3241.000000	93.863193
3240.000000	93.875802
3239.000000	93.893087
3238.000000	93.912797
3237.000000	93.932096
3236.000000	93.949533
3235.000000	93.965178
3234.000000	93.978854
3233.000000	93.989243
3232.000000	93.995435
3231.000000	93.998995
3230.000000	94.003720
3229.000000	94.013101
3228.000000	94.027917
3227.000000	94.045888
3226.000000	94.063400
3225.000000	94.077698
3224.000000	94.088131
3223.000000	94.095959
3222.000000	94.103182
3221.000000	94.111387
3220.000000	94.121218
3219.000000	94.132535
3218.000000	94.144902
3217.000000	94.157857
3216.000000	94.170826
3215.000000	94.183109
3214.000000	94.194220
3213.000000	94.204154
3212.000000	94.213149
3211.000000	94.221439
3210.000000	94.229560
3209.000000	94.238504
3208.000000	94.248916
3207.000000	94.260246
3206.000000	94.271449
3205.000000	94.282454
3204.000000	94.294139
3203.000000	94.306684
3202.000000	94.318968
3201.000000	94.330088
3200.000000	94.340733
3199.000000	94.352389
3198.000000	94.365653
3197.000000	94.379956
3196.000000	94.394398
3195.000000	94.408195
3194.000000	94.420725
3193.000000	94.431992
3192.000000	94.442854
3191.000000	94.453973
3190.000000	94.464611
3189.000000	94.473290
3188.000000	94.480032
3187.000000	94.487348
3186.000000	94.498366
3185.000000	94.513727
3184.000000	94.530659
3183.000000	94.545539
3182.000000	94.557415
3181.000000	94.568474
3180.000000	94.580680
3179.000000	94.592892
3178.000000	94.602473
3177.000000	94.609395
3176.000000	94.616961
3175.000000	94.627960
3174.000000	94.641790
3173.000000	94.656299
3172.000000	94.671034
3171.000000	94.687155
3170.000000	94.704838
3169.000000	94.722452
3168.000000	94.738283
3167.000000	94.751977
3166.000000	94.764384
3165.000000	94.776955
3164.000000	94.791169
3163.000000	94.807407
3162.000000	94.824244
3161.000000	94.839747
3160.000000	94.853603
3159.000000	94.867254
3158.000000	94.881960
3157.000000	94.897721
3156.000000	94.914106
3155.000000	94.930907
3154.000000	94.947355
3153.000000	94.961710
3152.000000	94.972676
3151.000000	94.980997
3150.000000	94.988991
3149.000000	94.998374
3148.000000	95.008735
3147.000000	95.018109
3146.000000	95.025035
3145.000000	95.030399
3144.000000	95.037405
3143.000000	95.049308
3142.000000	95.066648
3141.000000	95.086557
3140.000000	95.104847
3139.000000	95.118969
3138.000000	95.129415
3137.000000	95.138737
3136.000000	95.149347
3135.000000	95.161854
3134.000000	95.175065
3133.000000	95.187328
3132.000000	95.197764
3131.000000	95.206326
3130.000000	95.213238
3129.000000	95.218959
3128.000000	95.224600
3127.000000	95.231809
3126.000000	95.241820
3125.000000	95.254584
3124.000000	95.268708
3123.000000	95.282033
3122.000000	95.292450
3121.000000	95.298792
3120.000000	95.301534
3119.000000	95.302749
3118.000000	95.305078
3117.000000	95.310220
3116.000000	95.318013
3115.000000	95.326988
3114.000000	95.335908
3113.000000	95.344516
3112.000000	95.352616
3111.000000	95.358974
3110.000000	95.361998
3109.000000	95.361662
3108.000000	95.360128
3107.000000	95.360068
3106.000000	95.362608
3105.000000	95.366921
3104.000000	95.371327
3103.000000	95.374670
3102.000000	95.377251
3101.000000	95.380913
3100.000000	95.387877
3099.000000	95.398929
3098.000000	95.412469
3097.000000	95.425010
3096.000000	95.432680
3095.000000	95.433325
3094.000000	95.428363
3093.000000	95.422429
3092.000000	95.420054
3091.000000	95.422368
3090.000000	95.427434
3089.000000	95.433296
3088.000000	95.439296
3087.000000	95.444476
3086.000000	95.446935
3085.000000	95.446162
3084.000000	95.444753
3083.000000	95.446029
3082.000000	95.450256
3081.000000	95.454447
3080.000000	95.455782
3079.000000	95.454359
3078.000000	95.452837
3077.000000	95.454253
3076.000000	95.459974
3075.000000	95.468867
3074.000000	95.478361
3073.000000	95.486992
3072.000000	95.495776
3071.000000	95.506476
3070.000000	95.518864
3069.000000	95.530444
3068.000000	95.538755
3067.000000	95.543259
3066.000000	95.545181
3065.000000	95.546369
3064.000000	95.548414
3063.000000	95.552247
3062.000000	95.558280
3061.000000	95.566969
3060.000000	95.578677
3059.000000	95.592529
3058.000000	95.606096
3057.000000	95.617362
3056.000000	95.626985
3055.000000	95.637630
3054.000000	95.650805
3053.000000	95.664974
3052.000000	95.676932
3051.000000	95.684613
3050.000000	95.688595
3049.000000	95.691515
3048.000000	95.696217
3047.000000	95.704125
3046.000000	95.715117
3045.000000	95.728500
3044.000000	95.743517
3043.000000	95.758763
3042.000000	95.772030
3041.000000	95.781731
3040.000000	95.788402
3039.000000	95.794400
3038.000000	95.802207
3037.000000	95.813058
3036.000000	95.826578
3035.000000	95.841085
3034.000000	95.854566
3033.000000	95.865922
3032.000000	95.875203
3031.000000	95.882741
3030.000000	95.888837
3029.000000	95.894714
3028.000000	95.902689
3027.000000	95.914168
3026.000000	95.927733
3025.000000	95.940147
3024.000000	95.949313
3023.000000	95.955841
3022.000000	95.962036
3021.000000	95.969913
3020.000000	95.979789
3019.000000	95.990156
3018.000000	95.999231
3017.000000	96.006948
3016.000000	96.014759
3015.000000	96.023094
3014.000000	96.030203
3013.000000	96.034542
3012.000000	96.037069
3011.000000	96.039601
3010.000000	96.041793
3009.000000	96.041763
3008.000000	96.039466
3007.000000	96.037432
3006.000000	96.037854
3005.000000	96.040500
3004.000000	96.043919
3003.000000	96.047348
3002.000000	96.050808
3001.000000	96.054393
3000.000000	96.058127
2999.000000	96.061757
2998.000000	96.064327
2997.000000	96.064859
2996.000000	96.063929
2995.000000	96.063653
2994.000000	96.065251
2993.000000	96.067072
2992.000000	96.065633
2991.000000	96.058480
2990.000000	96.045942
2989.000000	96.030537
2988.000000	96.014986
2987.000000	96.000439
2986.000000	95.986328
2985.000000	95.971873
2984.000000	95.957265
2983.000000	95.943056
2982.000000	95.929010
2981.000000	95.914350
2980.000000	95.898765
2979.000000	95.882135
2978.000000	95.863608
2977.000000	95.842239
2976.000000	95.818591
2975.000000	95.794417
2974.000000	95.770319
2973.000000	95.744925
2972.000000	95.717059
2971.000000	95.687715
2970.000000	95.658872
2969.000000	95.630793
2968.000000	95.601553
2967.000000	95.569326
2966.000000	95.534595
2965.000000	95.499802
2964.000000	95.466888
2963.000000	95.435502
2962.000000	95.403944
2961.000000	95.371910
2960.000000	95.341657
2959.000000	95.315967
2958.000000	95.295465
2957.000000	95.278514
2956.000000	95.263434
2955.000000	95.250054
2954.000000	95.239371
2953.000000	95.232455
2952.000000	95.229466
2951.000000	95.228914
2950.000000	95.227772
2949.000000	95.223089
2948.000000	95.213611
2947.000000	95.199569
2946.000000	95.181104
2945.000000	95.157339
2944.000000	95.126743
2943.000000	95.087670
2942.000000	95.039189
2941.000000	94.982392
2940.000000	94.920860
2939.000000	94.858730
2938.000000	94.797737
2937.000000	94.736445
2936.000000	94.671846
2935.000000	94.601260
2934.000000	94.523585
2933.000000	94.440374
2932.000000	94.355789
2931.000000	94.273944
2930.000000	94.195693
2929.000000	94.118741
2928.000000	94.041101
2927.000000	93.963636
2926.000000	93.888951
2925.000000	93.819031
2924.000000	93.754509
2923.000000	93.695738
2922.000000	93.644146
2921.000000	93.602860
2920.000000	93.576525
2919.000000	93.569920
2918.000000	93.586777
2917.000000	93.629829
2916.000000	93.700892
2915.000000	93.799189
2914.000000	93.918681
2913.000000	94.048270
2912.000000	94.175971
2911.000000	94.293857
2910.000000	94.399388
2909.000000	94.493007
2908.000000	94.575439
2907.000000	94.646997
2906.000000	94.708797
2905.000000	94.763568
2904.000000	94.814648
2903.000000	94.863665
2902.000000	94.909433
2901.000000	94.949550
2900.000000	94.983134
2899.000000	95.012098
2898.000000	95.039997
2897.000000	95.069931
2896.000000	95.102723
2895.000000	95.136257
2894.000000	95.167097
2893.000000	95.193969
2892.000000	95.219701
2891.000000	95.248647
2890.000000	95.281828
2889.000000	95.315486
2888.000000	95.344682
2887.000000	95.367443
2886.000000	95.385113
2885.000000	95.399694
2884.000000	95.411879
2883.000000	95.421511
2882.000000	95.429141
2881.000000	95.436674
2880.000000	95.446141
2879.000000	95.457481
2878.000000	95.467632
2877.000000	95.472254
2876.000000	95.468710
2875.000000	95.457599
2874.000000	95.442317
2873.000000	95.427757
2872.000000	95.418678
2871.000000	95.417563
2870.000000	95.423111
2869.000000	95.431107
2868.000000	95.437104
2867.000000	95.438387
2866.000000	95.434223
2865.000000	95.425168
2864.000000	95.411756
2863.000000	95.392758
2862.000000	95.364622
2861.000000	95.323901
2860.000000	95.270539
2859.000000	95.208016
2858.000000	95.140313
2857.000000	95.069621
2856.000000	94.996718
2855.000000	94.921960
2854.000000	94.846167
2853.000000	94.772500
2852.000000	94.709123
2851.000000	94.669353
2850.000000	94.667210
2849.000000	94.711491
2848.000000	94.801780
2847.000000	94.927697
2846.000000	95.071721
2845.000000	95.215460
2844.000000	95.346232
2843.000000	95.459681
2842.000000	95.557131
2841.000000	95.641370
2840.000000	95.714911
2839.000000	95.779511
2838.000000	95.835685
2837.000000	95.883393
2836.000000	95.924087
2835.000000	95.961072
2834.000000	95.996496
2833.000000	96.028887
2832.000000	96.055339
2831.000000	96.075960
2830.000000	96.094465
2829.000000	96.114400
2828.000000	96.136152
2827.000000	96.157934
2826.000000	96.178345
2825.000000	96.197049
2824.000000	96.213886
2823.000000	96.228554
2822.000000	96.241259
2821.000000	96.252931
2820.000000	96.264393
2819.000000	96.275582
2818.000000	96.286062
2817.000000	96.296241
2816.000000	96.307466
2815.000000	96.320418
2814.000000	96.333835
2813.000000	96.345499
2812.000000	96.354292
2811.000000	96.360634
2810.000000	96.365261
2809.000000	96.368749
2808.000000	96.372381
2807.000000	96.377990
2806.000000	96.386059
2805.000000	96.394846
2804.000000	96.402349
2803.000000	96.408607
2802.000000	96.415168
2801.000000	96.422844
2800.000000	96.431100
2799.000000	96.439366
2798.000000	96.447830
2797.000000	96.456688
2796.000000	96.465375
2795.000000	96.472926
2794.000000	96.478744
2793.000000	96.482917
2792.000000	96.486212
2791.000000	96.490044
2790.000000	96.496058
2789.000000	96.505087
2788.000000	96.516052
2787.000000	96.526035
2786.000000	96.532201
2785.000000	96.534343
2784.000000	96.535351
2783.000000	96.538457
2782.000000	96.544058
2781.000000	96.549933
2780.000000	96.554469
2779.000000	96.558546
2778.000000	96.563893
2777.000000	96.570841
2776.000000	96.578611
2775.000000	96.586992
2774.000000	96.596499
2773.000000	96.607043
2772.000000	96.617439
2771.000000	96.626294
2770.000000	96.632788
2769.000000	96.636772
2768.000000	96.638856
2767.000000	96.640418
2766.000000	96.642879
2765.000000	96.646644
2764.000000	96.651027
2763.000000	96.655178
2762.000000	96.658697
2761.000000	96.661386
2760.000000	96.662949
2759.000000	96.663310
2758.000000	96.663026
2757.000000	96.663146
2756.000000	96.664599
2755.000000	96.667744
2754.000000	96.672405
2753.000000	96.678105
2752.000000	96.684054
2751.000000	96.689041
2750.000000	96.692050
2749.000000	96.693578
2748.000000	96.696045
2747.000000	96.701937
2746.000000	96.711177
2745.000000	96.720791
2744.000000	96.727464
2743.000000	96.730156
2742.000000	96.730303
2741.000000	96.730226
2740.000000	96.731650
2739.000000	96.734977
2738.000000	96.739168
2737.000000	96.742530
2736.000000	96.744161
2735.000000	96.744632
2734.000000	96.745130
2733.000000	96.746304
2732.000000	96.748082
2731.000000	96.750016
2730.000000	96.751357
2729.000000	96.751475
2728.000000	96.751013
2727.000000	96.752222
2726.000000	96.757036
2725.000000	96.764733
2724.000000	96.772416
2723.000000	96.778180
2722.000000	96.783046
2721.000000	96.789176
2720.000000	96.796683
2719.000000	96.803088
2718.000000	96.806091
2717.000000	96.806212
2716.000000	96.806219
2715.000000	96.808178
2714.000000	96.811711
2713.000000	96.815328
2712.000000	96.818788
2711.000000	96.823274
2710.000000	96.829256
2709.000000	96.835024
2708.000000	96.838035
2707.000000	96.837592
2706.000000	96.835669
2705.000000	96.834995
2704.000000	96.836611
2703.000000	96.839473
2702.000000	96.842129
2701.000000	96.844229
2700.000000	96.846280
2699.000000	96.848475
2698.000000	96.850444
2697.000000	96.852011
2696.000000	96.853374
2695.000000	96.854308
2694.000000	96.854118
2693.000000	96.853057
2692.000000	96.853196
2691.000000	96.856784
2690.000000	96.863791
2689.000000	96.871864
2688.000000	96.878737
2687.000000	96.883956
2686.000000	96.888217
2685.000000	96.891851
2684.000000	96.894342
2683.000000	96.894880
2682.000000	96.893161
2681.000000	96.890064
2680.000000	96.887683
2679.000000	96.887979
2678.000000	96.890949
2677.000000	96.894488
2676.000000	96.896401
2675.000000	96.896386
2674.000000	96.896002
2673.000000	96.897066
2672.000000	96.900208
2671.000000	96.904563
2670.000000	96.908588
2669.000000	96.911362
2668.000000	96.913136
2667.000000	96.914381
2666.000000	96.914615
2665.000000	96.912961
2664.000000	96.909797
2663.000000	96.906716
2662.000000	96.904473
2661.000000	96.902141
2660.000000	96.899161
2659.000000	96.897199
2658.000000	96.898380
2657.000000	96.902040
2656.000000	96.905037
2655.000000	96.905830
2654.000000	96.906849
2653.000000	96.911713
2652.000000	96.920862
2651.000000	96.931124
2650.000000	96.939225
2649.000000	96.944531
2648.000000	96.948479
2647.000000	96.952731
2646.000000	96.958456
2645.000000	96.966215
2644.000000	96.975323
2643.000000	96.983788
2642.000000	96.989867
2641.000000	96.993405
2640.000000	96.994937
2639.000000	96.994367
2638.000000	96.992223
2637.000000	96.991843
2636.000000	96.997759
2635.000000	97.010653
2634.000000	97.025600
2633.000000	97.036977
2632.000000	97.044182
2631.000000	97.050959
2630.000000	97.059773
2629.000000	97.068772
2628.000000	97.074215
2627.000000	97.074329
2626.000000	97.070606
2625.000000	97.066588
2624.000000	97.065756
2623.000000	97.069454
2622.000000	97.076260
2621.000000	97.083753
2620.000000	97.090863
2619.000000	97.098097
2618.000000	97.106138
2617.000000	97.115278
2616.000000	97.125621
2615.000000	97.136288
2614.000000	97.144651
2613.000000	97.148266
2612.000000	97.148175
2611.000000	97.148704
2610.000000	97.152984
2609.000000	97.159615
2608.000000	97.164425
2607.000000	97.164961
2606.000000	97.162827
2605.000000	97.162189
2604.000000	97.166214
2603.000000	97.174118
2602.000000	97.181526
2601.000000	97.184651
2600.000000	97.184352
2599.000000	97.185213
2598.000000	97.190464
2597.000000	97.198795
2596.000000	97.206450
2595.000000	97.211139
2594.000000	97.213268
2593.000000	97.214464
2592.000000	97.216057
2591.000000	97.218823
2590.000000	97.223495
2589.000000	97.231059
2588.000000	97.241753
2587.000000	97.253214
2586.000000	97.260838
2585.000000	97.261972
2584.000000	97.259800
2583.000000	97.261026
2582.000000	97.268857
2581.000000	97.279843
2580.000000	97.288292
2579.000000	97.292377
2578.000000	97.294625
2577.000000	97.297624
2576.000000	97.300867
2575.000000	97.301345
2574.000000	97.296321
2573.000000	97.286041
2572.000000	97.274815
2571.000000	97.269046
2570.000000	97.272904
2569.000000	97.285142
2568.000000	97.299930
2567.000000	97.310878
2566.000000	97.314939
2565.000000	97.313817
2564.000000	97.312215
2563.000000	97.313954
2562.000000	97.319047
2561.000000	97.324397
2560.000000	97.327095
2559.000000	97.326573
2558.000000	97.324155
2557.000000	97.322082
2556.000000	97.323238
2555.000000	97.330089
2554.000000	97.342297
2553.000000	97.355545
2552.000000	97.363646
2551.000000	97.362363
2550.000000	97.352258
2549.000000	97.339291
2548.000000	97.332642
2547.000000	97.339514
2546.000000	97.359472
2545.000000	97.383685
2544.000000	97.401005
2543.000000	97.405626
2542.000000	97.399089
2541.000000	97.386288
2540.000000	97.371501
2539.000000	97.358379
2538.000000	97.351157
2537.000000	97.352947
2536.000000	97.362347
2535.000000	97.373438
2534.000000	97.380403
2533.000000	97.381791
2532.000000	97.379972
2531.000000	97.377478
2530.000000	97.375092
2529.000000	97.372822
2528.000000	97.370938
2527.000000	97.369618
2526.000000	97.368559
2525.000000	97.367215
2524.000000	97.364817
2523.000000	97.360696
2522.000000	97.356032
2521.000000	97.354866
2520.000000	97.361095
2519.000000	97.373665
2518.000000	97.386347
2517.000000	97.393259
2516.000000	97.393776
2515.000000	97.391695
2514.000000	97.390966
2513.000000	97.392627
2512.000000	97.394151
2511.000000	97.391235
2510.000000	97.382148
2509.000000	97.371081
2508.000000	97.365164
2507.000000	97.367097
2506.000000	97.372906
2505.000000	97.377964
2504.000000	97.382486
2503.000000	97.388998
2502.000000	97.396949
2501.000000	97.402943
2500.000000	97.404891
2499.000000	97.403203
2498.000000	97.399002
2497.000000	97.393939
2496.000000	97.390881
2495.000000	97.391789
2494.000000	97.394959
2493.000000	97.396780
2492.000000	97.396354
2491.000000	97.396646
2490.000000	97.401237
2489.000000	97.411267
2488.000000	97.424774
2487.000000	97.437373
2486.000000	97.444529
2485.000000	97.445194
2484.000000	97.442713
2483.000000	97.440742
2482.000000	97.439758
2481.000000	97.439406
2480.000000	97.441786
2479.000000	97.448646
2478.000000	97.456586
2477.000000	97.459700
2476.000000	97.457274
2475.000000	97.455156
2474.000000	97.458585
2473.000000	97.467020
2472.000000	97.476974
2471.000000	97.486135
2470.000000	97.492557
2469.000000	97.492932
2468.000000	97.485287
2467.000000	97.472717
2466.000000	97.461871
2465.000000	97.457383
2464.000000	97.458415
2463.000000	97.460191
2462.000000	97.458312
2461.000000	97.452146
2460.000000	97.444973
2459.000000	97.440701
2458.000000	97.440196
2457.000000	97.441063
2456.000000	97.441150
2455.000000	97.441618
2454.000000	97.445987
2453.000000	97.456335
2452.000000	97.470622
2451.000000	97.484066
2450.000000	97.493468
2449.000000	97.499887
2448.000000	97.506502
2447.000000	97.514240
2446.000000	97.520539
2445.000000	97.522288
2444.000000	97.518508
2443.000000	97.510049
2442.000000	97.498868
2441.000000	97.488483
2440.000000	97.482838
2439.000000	97.482784
2438.000000	97.484718
2437.000000	97.484033
2436.000000	97.479133
2435.000000	97.471752
2434.000000	97.465277
2433.000000	97.463733
2432.000000	97.469811
2431.000000	97.481884
2430.000000	97.494803
2429.000000	97.505351
2428.000000	97.515047
2427.000000	97.525744
2426.000000	97.535105
2425.000000	97.539534
2424.000000	97.539806
2423.000000	97.540103
2422.000000	97.541896
2421.000000	97.542056
2420.000000	97.537327
2419.000000	97.528557
2418.000000	97.520072
2417.000000	97.516006
2416.000000	97.517139
2415.000000	97.520809
2414.000000	97.524608
2413.000000	97.530215
2412.000000	97.541205
2411.000000	97.556236
2410.000000	97.567519
2409.000000	97.568443
2408.000000	97.560716
2407.000000	97.551768
2406.000000	97.547380
2405.000000	97.549352
2404.000000	97.557318
2403.000000	97.568674
2402.000000	97.577835
2401.000000	97.579557
2400.000000	97.573301
2399.000000	97.562869
2398.000000	97.552906
2397.000000	97.547209
2396.000000	97.547642
2395.000000	97.551540
2394.000000	97.552480
2393.000000	97.547449
2392.000000	97.541558
2391.000000	97.541866
2390.000000	97.548172
2389.000000	97.554173
2388.000000	97.556779
2387.000000	97.559233
2386.000000	97.565105
2385.000000	97.573696
2384.000000	97.582509
2383.000000	97.590825
2382.000000	97.598928
2381.000000	97.606636
2380.000000	97.613517
2379.000000	97.618643
2378.000000	97.619665
2377.000000	97.614305
2376.000000	97.603805
2375.000000	97.593339
2374.000000	97.588879
2373.000000	97.594225
2372.000000	97.608956
2371.000000	97.626362
2370.000000	97.636493
2369.000000	97.636642
2368.000000	97.636159
2367.000000	97.644746
2366.000000	97.657739
2365.000000	97.661313
2364.000000	97.651105
2363.000000	97.635830
2362.000000	97.624560
2361.000000	97.620178
2360.000000	97.620038
2359.000000	97.619930
2358.000000	97.616843
2357.000000	97.609925
2356.000000	97.606779
2355.000000	97.612973
2354.000000	97.625881
2353.000000	97.639148
2352.000000	97.651287
2351.000000	97.664039
2350.000000	97.671522
2349.000000	97.664924
2348.000000	97.642265
2347.000000	97.614703
2346.000000	97.598202
2345.000000	97.593197
2344.000000	97.586776
2343.000000	97.570489
2342.000000	97.554223
2341.000000	97.550916
2340.000000	97.559134
2339.000000	97.568217
2338.000000	97.570287
2337.000000	97.567124
2336.000000	97.563894
2335.000000	97.563989
2334.000000	97.565634
2333.000000	97.567594
2332.000000	97.568933
2331.000000	97.572334
2330.000000	97.575953
2329.000000	97.577399
2328.000000	97.568653
2327.000000	97.542145
2326.000000	97.498017
2325.000000	97.449193
2324.000000	97.417497
2323.000000	97.415184
2322.000000	97.435490
2321.000000	97.461375
2320.000000	97.481226
2319.000000	97.495877
2318.000000	97.507160
2317.000000	97.517223
2316.000000	97.527707
2315.000000	97.541849
2314.000000	97.556708
2313.000000	97.567943
2312.000000	97.575448
2311.000000	97.584625
2310.000000	97.595473
2309.000000	97.602300
2308.000000	97.602073
2307.000000	97.599282
2306.000000	97.597522
2305.000000	97.594318
2304.000000	97.587324
2303.000000	97.580999
2302.000000	97.579994
2301.000000	97.582324
2300.000000	97.581133
2299.000000	97.575032
2298.000000	97.567415
2297.000000	97.561417
2296.000000	97.555338
2295.000000	97.546279
2294.000000	97.532668
2293.000000	97.515985
2292.000000	97.501133
2291.000000	97.494123
2290.000000	97.497420
2289.000000	97.507012
2288.000000	97.516176
2287.000000	97.520178
2286.000000	97.518872
2285.000000	97.516031
2284.000000	97.517827
2283.000000	97.527802
2282.000000	97.543152
2281.000000	97.557828
2280.000000	97.569947
2279.000000	97.581915
2278.000000	97.593062
2277.000000	97.598193
2276.000000	97.595230
2275.000000	97.589767
2274.000000	97.588100
2273.000000	97.590497
2272.000000	97.593932
2271.000000	97.598683
2270.000000	97.609197
2269.000000	97.629909
2268.000000	97.660110
2267.000000	97.690375
2266.000000	97.706515
2265.000000	97.703800
2264.000000	97.695989
2263.000000	97.701908
2262.000000	97.722171
2261.000000	97.737643
2260.000000	97.733242
2259.000000	97.714304
2258.000000	97.696866
2257.000000	97.690750
2256.000000	97.697040
2255.000000	97.713071
2254.000000	97.732255
2253.000000	97.745254
2252.000000	97.748329
2251.000000	97.747399
2250.000000	97.749146
2249.000000	97.753197
2248.000000	97.756518
2247.000000	97.760396
2246.000000	97.768263
2245.000000	97.780656
2244.000000	97.795383
2243.000000	97.808029
2242.000000	97.810765
2241.000000	97.798199
2240.000000	97.778370
2239.000000	97.769921
2238.000000	97.782736
2237.000000	97.807359
2236.000000	97.828260
2235.000000	97.841161
2234.000000	97.851751
2233.000000	97.864403
2232.000000	97.879647
2231.000000	97.897145
2230.000000	97.913078
2229.000000	97.918533
2228.000000	97.908355
2227.000000	97.889553
2226.000000	97.874943
2225.000000	97.870004
2224.000000	97.870193
2223.000000	97.868899
2222.000000	97.863781
2221.000000	97.857253
2220.000000	97.854655
2219.000000	97.860495
2218.000000	97.873229
2217.000000	97.884358
2216.000000	97.885112
2215.000000	97.874831
2214.000000	97.863338
2213.000000	97.865282
2212.000000	97.888729
2211.000000	97.926311
2210.000000	97.960288
2209.000000	97.978932
2208.000000	97.984445
2207.000000	97.982754
2206.000000	97.973811
2205.000000	97.959511
2204.000000	97.951402
2203.000000	97.957790
2202.000000	97.968773
2201.000000	97.968545
2200.000000	97.960016
2199.000000	97.961958
2198.000000	97.981901
2197.000000	98.005119
2196.000000	98.011893
2195.000000	97.994719
2194.000000	97.959685
2193.000000	97.923548
2192.000000	97.908079
2191.000000	97.922328
2190.000000	97.949759
2189.000000	97.965328
2188.000000	97.964833
2187.000000	97.964411
2186.000000	97.974087
2185.000000	97.990439
2184.000000	98.012672
2183.000000	98.042825
2182.000000	98.065987
2181.000000	98.056439
2180.000000	98.015097
2179.000000	97.980802
2178.000000	97.992127
2177.000000	98.050803
2176.000000	98.126744
2175.000000	98.185285
2174.000000	98.204812
2173.000000	98.182607
2172.000000	98.133332
2171.000000	98.074113
2170.000000	98.010540
2169.000000	97.947119
2168.000000	97.906667
2167.000000	97.919156
2166.000000	97.986513
2165.000000	98.072400
2164.000000	98.132951
2163.000000	98.150326
2162.000000	98.138703
2161.000000	98.140526
2160.000000	98.214112
2159.000000	98.382813
2158.000000	98.581815
2157.000000	98.702063
2156.000000	98.702758
2155.000000	98.637994
2154.000000	98.580977
2153.000000	98.560272
2152.000000	98.557705
2151.000000	98.535942
2150.000000	98.468701
2149.000000	98.366132
2148.000000	98.275641
2147.000000	98.241781
2146.000000	98.263334
2145.000000	98.299218
2144.000000	98.312189
2143.000000	98.293706
2142.000000	98.253332
2141.000000	98.206527
2140.000000	98.172076
2139.000000	98.160955
2138.000000	98.163086
2137.000000	98.158494
2136.000000	98.142827
2135.000000	98.129936
2134.000000	98.129315
2133.000000	98.136219
2132.000000	98.143614
2131.000000	98.148394
2130.000000	98.144262
2129.000000	98.123063
2128.000000	98.087254
2127.000000	98.050745
2126.000000	98.024848
2125.000000	98.010473
2124.000000	98.003614
2123.000000	97.998737
2122.000000	97.986912
2121.000000	97.961621
2120.000000	97.929339
2119.000000	97.905448
2118.000000	97.897388
2117.000000	97.899079
2116.000000	97.901666
2115.000000	97.900797
2114.000000	97.892375
2113.000000	97.872621
2112.000000	97.846484
2111.000000	97.827125
2110.000000	97.822392
2109.000000	97.828554
2108.000000	97.839435
2107.000000	97.854607
2106.000000	97.875454
2105.000000	97.899808
2104.000000	97.922922
2103.000000	97.938330
2102.000000	97.938796
2101.000000	97.924304
2100.000000	97.907697
2099.000000	97.902422
2098.000000	97.906240
2097.000000	97.908213
2096.000000	97.910039
2095.000000	97.924783
2094.000000	97.953263
2093.000000	97.978014
2092.000000	97.985180
2091.000000	97.978131
2090.000000	97.964671
2089.000000	97.944721
2088.000000	97.917661
2087.000000	97.891489
2086.000000	97.876925
2085.000000	97.878698
2084.000000	97.895799
2083.000000	97.922540
2082.000000	97.946744
2081.000000	97.956851
2080.000000	97.956565
2079.000000	97.964060
2078.000000	97.991029
2077.000000	98.029426
2076.000000	98.061851
2075.000000	98.076811
2074.000000	98.071850
2073.000000	98.052520
2072.000000	98.033248
2071.000000	98.028686
2070.000000	98.039497
2069.000000	98.053932
2068.000000	98.064353
2067.000000	98.072819
2066.000000	98.081117
2065.000000	98.088632
2064.000000	98.100801
2063.000000	98.124396
2062.000000	98.151689
2061.000000	98.164130
2060.000000	98.154716
2059.000000	98.134302
2058.000000	98.114860
2057.000000	98.101708
2056.000000	98.100408
2055.000000	98.111154
2054.000000	98.115140
2053.000000	98.090175
2052.000000	98.047557
2051.000000	98.032243
2050.000000	98.077380
2049.000000	98.170736
2048.000000	98.272318
2047.000000	98.350988
2046.000000	98.392300
2045.000000	98.393260
2044.000000	98.371443
2043.000000	98.359968
2042.000000	98.377217
2041.000000	98.416217
2040.000000	98.468530
2039.000000	98.533212
2038.000000	98.593971
2037.000000	98.621062
2036.000000	98.614380
2035.000000	98.614462
2034.000000	98.648731
2033.000000	98.697308
2032.000000	98.731343
2031.000000	98.752922
2030.000000	98.774384
2029.000000	98.792840
2028.000000	98.807780
2027.000000	98.829864
2026.000000	98.851394
2025.000000	98.840516
2024.000000	98.789274
2023.000000	98.737514
2022.000000	98.727534
2021.000000	98.761421
2020.000000	98.817516
2019.000000	98.879513
2018.000000	98.930050
2017.000000	98.945918
2016.000000	98.926790
2015.000000	98.902371
2014.000000	98.890855
2013.000000	98.877189
2012.000000	98.845351
2011.000000	98.806228
2010.000000	98.778503
2009.000000	98.767390
2008.000000	98.775890
2007.000000	98.810871
2006.000000	98.860750
2005.000000	98.890044
2004.000000	98.875733
2003.000000	98.829818
2002.000000	98.775737
2001.000000	98.725568
2000.000000	98.685237
1999.000000	98.661922
1998.000000	98.655965
1997.000000	98.659386
1996.000000	98.668821
1995.000000	98.686669
1994.000000	98.705357
1993.000000	98.707191
1992.000000	98.687675
1991.000000	98.661751
1990.000000	98.639049
1989.000000	98.616247
1988.000000	98.598276
1987.000000	98.600929
1986.000000	98.624759
1985.000000	98.647047
1984.000000	98.646757
1983.000000	98.619943
1982.000000	98.570055
1981.000000	98.511836
1980.000000	98.488384
1979.000000	98.548627
1978.000000	98.683382
1977.000000	98.810807
1976.000000	98.861801
1975.000000	98.853854
1974.000000	98.847355
1973.000000	98.868563
1972.000000	98.900895
1971.000000	98.920886
1970.000000	98.918609
1969.000000	98.900000
1968.000000	98.884139
1967.000000	98.884863
1966.000000	98.889510
1965.000000	98.873042
1964.000000	98.833426
1963.000000	98.792616
1962.000000	98.768134
1961.000000	98.763250
1960.000000	98.776975
1959.000000	98.799569
1958.000000	98.803633
1957.000000	98.768474
1956.000000	98.712858
1955.000000	98.677059
1954.000000	98.672963
1953.000000	98.674803
1952.000000	98.659098
1951.000000	98.627541
1950.000000	98.590139
1949.000000	98.553917
1948.000000	98.532901
1947.000000	98.543644
1946.000000	98.580714
1945.000000	98.615022
1944.000000	98.623601
1943.000000	98.606578
1942.000000	98.574629
1941.000000	98.538945
1940.000000	98.515515
1939.000000	98.517946
1938.000000	98.537821
1937.000000	98.545596
1936.000000	98.522381
1935.000000	98.480308
1934.000000	98.444162
1933.000000	98.427442
1932.000000	98.432774
1931.000000	98.457384
1930.000000	98.490490
1929.000000	98.516371
1928.000000	98.527622
1927.000000	98.530989
1926.000000	98.533366
1925.000000	98.534175
1924.000000	98.530452
1923.000000	98.521075
1922.000000	98.506368
1921.000000	98.490581
1920.000000	98.483126
1919.000000	98.488638
1918.000000	98.493575
1917.000000	98.480822
1916.000000	98.456778
1915.000000	98.442172
1914.000000	98.444818
1913.000000	98.456662
1912.000000	98.471178
1911.000000	98.488185
1910.000000	98.501414
1909.000000	98.499185
1908.000000	98.483680
1907.000000	98.473522
1906.000000	98.478012
1905.000000	98.488283
1904.000000	98.494708
1903.000000	98.498669
1902.000000	98.503348
1901.000000	98.505007
1900.000000	98.500148
1899.000000	98.493638
1898.000000	98.491099
1897.000000	98.493013
1896.000000	98.498946
1895.000000	98.509201
1894.000000	98.520044
1893.000000	98.525903
1892.000000	98.527432
1891.000000	98.528137
1890.000000	98.522648
1889.000000	98.502776
1888.000000	98.476822
1887.000000	98.463356
1886.000000	98.468276
1885.000000	98.481239
1884.000000	98.492556
1883.000000	98.503865
1882.000000	98.519670
1881.000000	98.537172
1880.000000	98.549952
1879.000000	98.556259
1878.000000	98.558159
1877.000000	98.559730
1876.000000	98.568842
1875.000000	98.589576
1874.000000	98.611927
1873.000000	98.620781
1872.000000	98.616282
1871.000000	98.614181
1870.000000	98.622259
1869.000000	98.626745
1868.000000	98.616121
1867.000000	98.601488
1866.000000	98.595519
1865.000000	98.597400
1864.000000	98.602728
1863.000000	98.610698
1862.000000	98.618750
1861.000000	98.620545
1860.000000	98.614642
1859.000000	98.608028
1858.000000	98.606745
1857.000000	98.610395
1856.000000	98.618206
1855.000000	98.631316
1854.000000	98.645695
1853.000000	98.653230
1852.000000	98.651345
1851.000000	98.649676
1850.000000	98.657700
1849.000000	98.672917
1848.000000	98.686932
1847.000000	98.698039
1846.000000	98.711998
1845.000000	98.731930
1844.000000	98.750967
1843.000000	98.760280
1842.000000	98.757689
1841.000000	98.746994
1840.000000	98.736692
1839.000000	98.734846
1838.000000	98.738763
1837.000000	98.739275
1836.000000	98.734319
1835.000000	98.729962
1834.000000	98.728966
1833.000000	98.728756
1832.000000	98.731575
1831.000000	98.746788
1830.000000	98.771136
1829.000000	98.785290
1828.000000	98.781125
1827.000000	98.772220
1826.000000	98.774692
1825.000000	98.787325
1824.000000	98.797902
1823.000000	98.801033
1822.000000	98.798111
1821.000000	98.791521
1820.000000	98.787579
1819.000000	98.796762
1818.000000	98.820655
1817.000000	98.847075
1816.000000	98.861781
1815.000000	98.860153
1814.000000	98.846234
1813.000000	98.826060
1812.000000	98.809448
1811.000000	98.805742
1810.000000	98.812594
1809.000000	98.819322
1808.000000	98.820853
1807.000000	98.819549
1806.000000	98.815929
1805.000000	98.807943
1804.000000	98.799308
1803.000000	98.797670
1802.000000	98.804861
1801.000000	98.811359
1800.000000	98.811614
1799.000000	98.810255
1798.000000	98.810364
1797.000000	98.809613
1796.000000	98.807787
1795.000000	98.808742
1794.000000	98.816263
1793.000000	98.827375
1792.000000	98.835811
1791.000000	98.840197
1790.000000	98.838482
1789.000000	98.826010
1788.000000	98.806935
1787.000000	98.795364
1786.000000	98.801417
1785.000000	98.820072
1784.000000	98.838701
1783.000000	98.850579
1782.000000	98.858823
1781.000000	98.863857
1780.000000	98.865408
1779.000000	98.866881
1778.000000	98.870555
1777.000000	98.874547
1776.000000	98.875876
1775.000000	98.876985
1774.000000	98.885544
1773.000000	98.901411
1772.000000	98.910741
1771.000000	98.907279
1770.000000	98.895679
1769.000000	98.881966
1768.000000	98.872655
1767.000000	98.869337
1766.000000	98.865684
1765.000000	98.853848
1764.000000	98.838606
1763.000000	98.834840
1762.000000	98.845053
1761.000000	98.848439
1760.000000	98.831500
1759.000000	98.802827
1758.000000	98.778643
1757.000000	98.763068
1756.000000	98.746613
1755.000000	98.724755
1754.000000	98.700478
1753.000000	98.679102
1752.000000	98.666575
1751.000000	98.662676
1750.000000	98.653363
1749.000000	98.626260
1748.000000	98.585778
1747.000000	98.546279
1746.000000	98.514783
1745.000000	98.486269
1744.000000	98.458772
1743.000000	98.436981
1742.000000	98.421486
1741.000000	98.408335
1740.000000	98.400907
1739.000000	98.403387
1738.000000	98.408499
1737.000000	98.405266
1736.000000	98.404304
1735.000000	98.439154
1734.000000	98.502019
1733.000000	98.531471
1732.000000	98.512274
1731.000000	98.481502
1730.000000	98.463304
1729.000000	98.452204
1728.000000	98.436934
1727.000000	98.419723
1726.000000	98.407122
1725.000000	98.395972
1724.000000	98.383470
1723.000000	98.372414
1722.000000	98.361934
1721.000000	98.346803
1720.000000	98.330497
1719.000000	98.326106
1718.000000	98.322704
1717.000000	98.284975
1716.000000	98.213987
1715.000000	98.145752
1714.000000	98.094805
1713.000000	98.049437
1712.000000	98.001763
1711.000000	97.957190
1710.000000	97.918143
1709.000000	97.874524
1708.000000	97.818442
1707.000000	97.758964
1706.000000	97.705109
1705.000000	97.652624
1704.000000	97.598951
1703.000000	97.545144
1702.000000	97.492430
1701.000000	97.435678
1700.000000	97.352663
1699.000000	97.261728
1698.000000	97.176075
1697.000000	97.066450
1696.000000	96.918472
1695.000000	96.760458
1694.000000	96.623078
1693.000000	96.499955
1692.000000	96.377291
1691.000000	96.252807
1690.000000	96.130319
1689.000000	96.015915
1688.000000	95.915552
1687.000000	95.828027
1686.000000	95.734277
1685.000000	95.594673
1684.000000	95.388566
1683.000000	95.196178
1682.000000	95.065687
1681.000000	94.959982
1680.000000	94.853287
1679.000000	94.747680
1678.000000	94.645881
1677.000000	94.534318
1676.000000	94.398973
1675.000000	94.248505
1674.000000	94.112039
1673.000000	93.993167
1672.000000	93.874883
1671.000000	93.746260
1670.000000	93.599837
1669.000000	93.436422
1668.000000	93.277840
1667.000000	93.145371
1666.000000	93.033886
1665.000000	92.919066
1664.000000	92.781874
1663.000000	92.622322
1662.000000	92.461575
1661.000000	92.314691
1660.000000	92.178273
1659.000000	92.053925
1658.000000	91.951797
1657.000000	91.876849
1656.000000	91.819307
1655.000000	91.766976
1654.000000	91.680594
1653.000000	91.509150
1652.000000	91.344505
1651.000000	91.258509
1650.000000	91.218558
1649.000000	91.191627
1648.000000	91.151898
1647.000000	91.092350
1646.000000	91.039356
1645.000000	91.007231
1644.000000	90.985205
1643.000000	90.970482
1642.000000	90.966555
1641.000000	90.969956
1640.000000	90.976381
1639.000000	90.988792
1638.000000	91.004711
1637.000000	91.005518
1636.000000	90.966276
1635.000000	90.910115
1634.000000	90.881937
1633.000000	90.880922
1632.000000	90.889991
1631.000000	90.901184
1630.000000	90.908058
1629.000000	90.900145
1628.000000	90.872886
1627.000000	90.838556
1626.000000	90.811099
1625.000000	90.785845
1624.000000	90.751105
1623.000000	90.713646
1622.000000	90.702601
1621.000000	90.733896
1620.000000	90.802090
1619.000000	90.905071
1618.000000	91.049249
1617.000000	91.227598
1616.000000	91.405171
1615.000000	91.558795
1614.000000	91.699887
1613.000000	91.845184
1612.000000	91.997381
1611.000000	92.148845
1610.000000	92.292927
1609.000000	92.427912
1608.000000	92.554331
1607.000000	92.673109
1606.000000	92.788413
1605.000000	92.903421
1604.000000	93.015711
1603.000000	93.120250
1602.000000	93.214805
1601.000000	93.302213
1600.000000	93.385930
1599.000000	93.466467
1598.000000	93.542644
1597.000000	93.613764
1596.000000	93.680146
1595.000000	93.741496
1594.000000	93.797407
1593.000000	93.848043
1592.000000	93.893197
1591.000000	93.932398
1590.000000	93.967179
1589.000000	94.000339
1588.000000	94.030614
1587.000000	94.051294
1586.000000	94.057162
1585.000000	94.051521
1584.000000	94.039038
1583.000000	94.020664
1582.000000	93.997373
1581.000000	93.975652
1580.000000	93.963487
1579.000000	93.963276
1578.000000	93.968577
1577.000000	93.965650
1576.000000	93.944134
1575.000000	93.913314
1574.000000	93.891741
1573.000000	93.884866
1572.000000	93.886947
1571.000000	93.888494
1570.000000	93.878054
1569.000000	93.855640
1568.000000	93.830011
1567.000000	93.802850
1566.000000	93.772370
1565.000000	93.744559
1564.000000	93.726456
1563.000000	93.720972
1562.000000	93.719854
1561.000000	93.717971
1560.000000	93.702681
1559.000000	93.594955
1558.000000	93.434092
1557.000000	93.328633
1556.000000	93.257483
1555.000000	93.186110
1554.000000	93.109768
1553.000000	93.033897
1552.000000	92.964246
1551.000000	92.900216
1550.000000	92.838329
1549.000000	92.779181
1548.000000	92.725325
1547.000000	92.676341
1546.000000	92.634082
1545.000000	92.601063
1544.000000	92.576162
1543.000000	92.560877
1542.000000	92.556256
1541.000000	92.556164
1540.000000	92.554442
1539.000000	92.562702
1538.000000	92.583570
1537.000000	92.610982
1536.000000	92.649800
1535.000000	92.711650
1534.000000	92.804564
1533.000000	92.911138
1532.000000	93.006509
1531.000000	93.086428
1530.000000	93.158474
1529.000000	93.231044
1528.000000	93.310933
1527.000000	93.403117
1526.000000	93.506187
1525.000000	93.608271
1524.000000	93.700183
1523.000000	93.787755
1522.000000	93.877797
1521.000000	93.956189
1520.000000	94.007977
1519.000000	94.046816
1518.000000	94.097185
1517.000000	94.168570
1516.000000	94.252690
1515.000000	94.339153
1514.000000	94.427556
1513.000000	94.520425
1512.000000	94.618328
1511.000000	94.718532
1510.000000	94.822575
1509.000000	94.940769
1508.000000	95.091923
1507.000000	95.270303
1506.000000	95.427145
1505.000000	95.522103
1504.000000	95.573262
1503.000000	95.620709
1502.000000	95.684768
1501.000000	95.764013
1500.000000	95.849290
1499.000000	95.938581
1498.000000	96.032229
1497.000000	96.119889
1496.000000	96.191306
1495.000000	96.248528
1494.000000	96.295930
1493.000000	96.332835
1492.000000	96.365297
1491.000000	96.408472
1490.000000	96.463189
1489.000000	96.507737
1488.000000	96.531915
1487.000000	96.545930
1486.000000	96.553661
1485.000000	96.548627
1484.000000	96.525887
1483.000000	96.491725
1482.000000	96.452114
1481.000000	96.403746
1480.000000	96.344217
1479.000000	96.278488
1478.000000	96.210524
1477.000000	96.137397
1476.000000	96.058192
1475.000000	95.974916
1474.000000	95.881648
1473.000000	95.761964
1472.000000	95.624244
1471.000000	95.504095
1470.000000	95.410514
1469.000000	95.328087
1468.000000	95.249907
1467.000000	95.176639
1466.000000	95.103916
1465.000000	95.023209
1464.000000	94.941205
1463.000000	94.877091
1462.000000	94.831505
1461.000000	94.792379
1460.000000	94.751535
1459.000000	94.706976
1458.000000	94.648902
1457.000000	94.562600
1456.000000	94.467955
1455.000000	94.395135
1454.000000	94.343449
1453.000000	94.301956
1452.000000	94.266178
1451.000000	94.235860
1450.000000	94.207318
1449.000000	94.173588
1448.000000	94.136981
1447.000000	94.107334
1446.000000	94.089796
1445.000000	94.077214
1444.000000	94.062111
1443.000000	94.044419
1442.000000	94.024336
1441.000000	94.000969
1440.000000	93.975516
1439.000000	93.951611
1438.000000	93.929624
1437.000000	93.905268
1436.000000	93.879422
1435.000000	93.863720
1434.000000	93.858400
1433.000000	93.853739
1432.000000	93.847148
1431.000000	93.842434
1430.000000	93.840297
1429.000000	93.836716
1428.000000	93.832099
1427.000000	93.828191
1426.000000	93.824822
1425.000000	93.820225
1424.000000	93.815035
1423.000000	93.814573
1422.000000	93.817366
1421.000000	93.815352
1420.000000	93.808205
1419.000000	93.804820
1418.000000	93.812636
1417.000000	93.832298
1416.000000	93.862316
1415.000000	93.901988
1414.000000	93.947806
1413.000000	93.994659
1412.000000	94.042064
1411.000000	94.093741
1410.000000	94.149538
1409.000000	94.204238
1408.000000	94.256374
1407.000000	94.308145
1406.000000	94.361295
1405.000000	94.414186
1404.000000	94.463041
1403.000000	94.505011
1402.000000	94.538203
1401.000000	94.565673
1400.000000	94.595794
1399.000000	94.633855
1398.000000	94.677063
1397.000000	94.723031
1396.000000	94.777725
1395.000000	94.846231
1394.000000	94.921071
1393.000000	94.987490
1392.000000	95.039534
1391.000000	95.081882
1390.000000	95.120596
1389.000000	95.158911
1388.000000	95.197666
1387.000000	95.234472
1386.000000	95.266130
1385.000000	95.292084
1384.000000	95.313563
1383.000000	95.332579
1382.000000	95.349975
1381.000000	95.366982
1380.000000	95.386724
1379.000000	95.411182
1378.000000	95.438839
1377.000000	95.467775
1376.000000	95.500201
1375.000000	95.540463
1374.000000	95.589750
1373.000000	95.644026
1372.000000	95.698229
1371.000000	95.750135
1370.000000	95.803245
1369.000000	95.863522
1368.000000	95.931791
1367.000000	96.001819
1366.000000	96.067085
1365.000000	96.129523
1364.000000	96.198098
1363.000000	96.276249
1362.000000	96.354769
1361.000000	96.422786
1360.000000	96.479226
1359.000000	96.529230
1358.000000	96.577067
1357.000000	96.624238
1356.000000	96.670390
1355.000000	96.713350
1354.000000	96.749198
1353.000000	96.774734
1352.000000	96.791894
1351.000000	96.805665
1350.000000	96.820802
1349.000000	96.838499
1348.000000	96.855552
1347.000000	96.867948
1346.000000	96.874176
1345.000000	96.875092
1344.000000	96.871324
1343.000000	96.862599
1342.000000	96.849617
1341.000000	96.834575
1340.000000	96.818797
1339.000000	96.802750
1338.000000	96.788871
1337.000000	96.780771
1336.000000	96.779430
1335.000000	96.781807
1334.000000	96.782963
1333.000000	96.779309
1332.000000	96.769778
1331.000000	96.754440
1330.000000	96.733787
1329.000000	96.709058
1328.000000	96.682295
1327.000000	96.655112
1326.000000	96.628479
1325.000000	96.603221
1324.000000	96.580681
1323.000000	96.563675
1322.000000	96.556189
1321.000000	96.562271
1320.000000	96.584591
1319.000000	96.622668
1318.000000	96.672272
1317.000000	96.727595
1316.000000	96.785142
1315.000000	96.845714
1314.000000	96.912077
1313.000000	96.984448
1312.000000	97.058047
1311.000000	97.125690
1310.000000	97.183448
1309.000000	97.232923
1308.000000	97.278459
1307.000000	97.323026
1306.000000	97.367798
1305.000000	97.413615
1304.000000	97.461090
1303.000000	97.509749
1302.000000	97.558308
1301.000000	97.605941
1300.000000	97.652197
1299.000000	97.696291
1298.000000	97.737313
1297.000000	97.775090
1296.000000	97.809853
1295.000000	97.841088
1294.000000	97.867540
1293.000000	97.888006
1292.000000	97.902201
1291.000000	97.911677
1290.000000	97.919446
1289.000000	97.927513
1288.000000	97.934228
1287.000000	97.935526
1286.000000	97.929932
1285.000000	97.920989
1284.000000	97.914049
1283.000000	97.911929
1282.000000	97.914253
1281.000000	97.919799
1280.000000	97.927403
1279.000000	97.934872
1278.000000	97.939294
1277.000000	97.939785
1276.000000	97.938713
1275.000000	97.938697
1274.000000	97.939052
1273.000000	97.936641
1272.000000	97.930293
1271.000000	97.922772
1270.000000	97.917138
1269.000000	97.912534
1268.000000	97.905291
1267.000000	97.893615
1266.000000	97.879244
1265.000000	97.864255
1264.000000	97.848484
1263.000000	97.831110
1262.000000	97.813087
1261.000000	97.796521
1260.000000	97.782067
1259.000000	97.768338
1258.000000	97.753779
1257.000000	97.738212
1256.000000	97.722485
1255.000000	97.707047
1254.000000	97.691035
1253.000000	97.672838
1252.000000	97.651503
1251.000000	97.627409
1250.000000	97.601598
1249.000000	97.575101
1248.000000	97.549175
1247.000000	97.525184
1246.000000	97.503183
1245.000000	97.481082
1244.000000	97.456392
1243.000000	97.428701
1242.000000	97.399877
1241.000000	97.372365
1240.000000	97.348107
1239.000000	97.328308
1238.000000	97.312854
1237.000000	97.300618
1236.000000	97.291269
1235.000000	97.286365
1234.000000	97.287744
1233.000000	97.294911
1232.000000	97.305280
1231.000000	97.316779
1230.000000	97.329551
1229.000000	97.345208
1228.000000	97.364536
1227.000000	97.386668
1226.000000	97.410783
1225.000000	97.438184
1224.000000	97.471256
1223.000000	97.509455
1222.000000	97.548104
1221.000000	97.582672
1220.000000	97.613016
1219.000000	97.641851
1218.000000	97.670162
1217.000000	97.696064
1216.000000	97.717263
1215.000000	97.732426
1214.000000	97.740613
1213.000000	97.742193
1212.000000	97.739936
1211.000000	97.736373
1210.000000	97.730015
1209.000000	97.716725
1208.000000	97.695585
1207.000000	97.670146
1206.000000	97.643203
1205.000000	97.614252
1204.000000	97.583509
1203.000000	97.554483
1202.000000	97.529448
1201.000000	97.505485
1200.000000	97.478616
1199.000000	97.449399
1198.000000	97.420996
1197.000000	97.393742
1196.000000	97.365266
1195.000000	97.334432
1194.000000	97.301503
1193.000000	97.265683
1192.000000	97.225936
1191.000000	97.182991
1190.000000	97.137355
1189.000000	97.086073
1188.000000	97.025191
1187.000000	96.954907
1186.000000	96.878391
1185.000000	96.796251
1184.000000	96.705364
1183.000000	96.603418
1182.000000	96.491461
1181.000000	96.371059
1180.000000	96.242253
1179.000000	96.104355
1178.000000	95.956873
1177.000000	95.800233
1176.000000	95.637208
1175.000000	95.473125
1174.000000	95.312216
1173.000000	95.154830
1172.000000	94.999669
1171.000000	94.845983
1170.000000	94.691604
1169.000000	94.532323
1168.000000	94.366716
1167.000000	94.198891
1166.000000	94.033788
1165.000000	93.872762
1164.000000	93.716537
1163.000000	93.568178
1162.000000	93.428900
1161.000000	93.295100
1160.000000	93.163081
1159.000000	93.033075
1158.000000	92.905531
1157.000000	92.777463
1156.000000	92.646517
1155.000000	92.514606
1154.000000	92.384467
1153.000000	92.257151
1152.000000	92.135119
1151.000000	92.022729
1150.000000	91.920213
1149.000000	91.822452
1148.000000	91.726594
1147.000000	91.634568
1146.000000	91.546697
1145.000000	91.460413
1144.000000	91.377816
1143.000000	91.306355
1142.000000	91.247493
1141.000000	91.193102
1140.000000	91.137390
1139.000000	91.084279
1138.000000	91.038889
1137.000000	90.999095
1136.000000	90.960299
1135.000000	90.920796
1134.000000	90.877769
1133.000000	90.825596
1132.000000	90.763178
1131.000000	90.695877
1130.000000	90.625475
1129.000000	90.545671
1128.000000	90.451362
1127.000000	90.345332
1126.000000	90.231365
1125.000000	90.108886
1124.000000	89.979570
1123.000000	89.850002
1122.000000	89.722423
1121.000000	89.591242
1120.000000	89.454090
1119.000000	89.317053
1118.000000	89.183112
1117.000000	89.046066
1116.000000	88.904033
1115.000000	88.769734
1114.000000	88.657601
1113.000000	88.568961
1112.000000	88.498020
1111.000000	88.444559
1110.000000	88.413238
1109.000000	88.405258
1108.000000	88.418212
1107.000000	88.447891
1106.000000	88.485508
1105.000000	88.521650
1104.000000	88.556243
1103.000000	88.598092
1102.000000	88.651454
1101.000000	88.710618
1100.000000	88.770112
1099.000000	88.830228
1098.000000	88.890083
1097.000000	88.945594
1096.000000	88.997390
1095.000000	89.050540
1094.000000	89.103309
1093.000000	89.146948
1092.000000	89.180325
1091.000000	89.214062
1090.000000	89.255446
1089.000000	89.299079
1088.000000	89.336126
1087.000000	89.362279
1086.000000	89.373620
1085.000000	89.366000
1084.000000	89.344439
1083.000000	89.322827
1082.000000	89.308362
1081.000000	89.295695
1080.000000	89.280241
1079.000000	89.266307
1078.000000	89.256599
1077.000000	89.245782
1076.000000	89.231555
1075.000000	89.221575
1074.000000	89.222056
1073.000000	89.229030
1072.000000	89.237354
1071.000000	89.248263
1070.000000	89.260837
1069.000000	89.265151
1068.000000	89.251977
1067.000000	89.222627
1066.000000	89.184215
1065.000000	89.141836
1064.000000	89.099528
1063.000000	89.060698
1062.000000	89.022687
1061.000000	88.979473
1060.000000	88.933498
1059.000000	88.895645
1058.000000	88.869932
1057.000000	88.848256
1056.000000	88.823721
1055.000000	88.797283
1054.000000	88.766678
1053.000000	88.722401
1052.000000	88.662376
1051.000000	88.598725
1050.000000	88.540028
1049.000000	88.478067
1048.000000	88.402845
1047.000000	88.319508
1046.000000	88.239754
1045.000000	88.165569
1044.000000	88.091179
1043.000000	88.013391
1042.000000	87.931239
1041.000000	87.842371
1040.000000	87.747416
1039.000000	87.651782
1038.000000	87.556934
1037.000000	87.456498
1036.000000	87.347439
1035.000000	87.237970
1034.000000	87.138246
1033.000000	87.049684
1032.000000	86.968948
1031.000000	86.895296
1030.000000	86.828700
1029.000000	86.768815
1028.000000	86.720052
1027.000000	86.689873
1026.000000	86.677248
1025.000000	86.670482
1024.000000	86.660345
1023.000000	86.646570
1022.000000	86.629123
1021.000000	86.604277
1020.000000	86.573625
1019.000000	86.546307
1018.000000	86.526443
1017.000000	86.508234
1016.000000	86.489207
1015.000000	86.478047
1014.000000	86.483092
1013.000000	86.501288
1012.000000	86.524414
1011.000000	86.548187
1010.000000	86.569920
1009.000000	86.585867
1008.000000	86.596524
1007.000000	86.608783
1006.000000	86.629704
1005.000000	86.663394
1004.000000	86.714900
1003.000000	86.787848
1002.000000	86.876095
1001.000000	86.967526
1000.000000	87.058336
999.000000	87.155468
998.000000	87.262819
997.000000	87.374887
996.000000	87.487066
995.000000	87.601721
994.000000	87.720153
993.000000	87.837294
992.000000	87.949231
991.000000	88.059338
990.000000	88.173145
989.000000	88.292894
988.000000	88.419230
987.000000	88.552032
986.000000	88.687878
985.000000	88.822572
984.000000	88.957033
983.000000	89.094527
982.000000	89.232667
981.000000	89.365602
980.000000	89.493696
979.000000	89.622717
978.000000	89.753505
977.000000	89.881434
976.000000	90.006711
975.000000	90.136147
974.000000	90.272720
973.000000	90.411731
972.000000	90.549108
971.000000	90.685861
970.000000	90.822699
969.000000	90.957938
968.000000	91.092638
967.000000	91.230681
966.000000	91.372450
965.000000	91.515145
964.000000	91.659826
963.000000	91.810471
962.000000	91.965157
961.000000	92.116136
960.000000	92.260490
959.000000	92.403070
958.000000	92.547157
957.000000	92.689505
956.000000	92.826850
955.000000	92.960875
954.000000	93.094631
953.000000	93.229941
952.000000	93.369640
951.000000	93.515890
950.000000	93.664491
949.000000	93.807215
948.000000	93.941362
947.000000	94.071550
946.000000	94.200653
945.000000	94.325201
944.000000	94.441541
943.000000	94.550077
942.000000	94.651637
941.000000	94.745951
940.000000	94.836737
939.000000	94.932621
938.000000	95.038592
937.000000	95.150240
936.000000	95.259801
935.000000	95.364212
934.000000	95.464334
933.000000	95.559576
932.000000	95.647182
931.000000	95.726248
930.000000	95.800371
929.000000	95.876492
928.000000	95.959730
927.000000	96.046805
926.000000	96.125892
925.000000	96.186803
924.000000	96.232059
923.000000	96.274355
922.000000	96.322352
921.000000	96.372929
920.000000	96.418005
919.000000	96.455068
918.000000	96.488896
917.000000	96.525669
916.000000	96.567899
915.000000	96.613666
914.000000	96.659559
913.000000	96.705165
912.000000	96.754060
911.000000	96.809165
910.000000	96.869072
909.000000	96.931663
908.000000	96.999098
907.000000	97.074250
906.000000	97.153338
905.000000	97.227691
904.000000	97.293564
903.000000	97.355604
902.000000	97.419628
901.000000	97.486607
900.000000	97.554923
899.000000	97.624104
898.000000	97.693663
897.000000	97.761131
896.000000	97.824004
895.000000	97.882328
894.000000	97.938168
893.000000	97.993605
892.000000	98.049618
891.000000	98.105596
890.000000	98.159319
889.000000	98.208132
888.000000	98.249681
887.000000	98.280197
886.000000	98.294549
885.000000	98.289360
884.000000	98.263123
883.000000	98.209198
882.000000	98.108945
881.000000	97.938415
880.000000	97.686241
879.000000	97.368025
878.000000	97.027080
877.000000	96.724164
876.000000	96.521121
875.000000	96.460342
874.000000	96.547972
873.000000	96.752549
872.000000	97.020801
871.000000	97.296390
870.000000	97.536576
869.000000	97.725588
868.000000	97.873911
867.000000	98.000534
866.000000	98.114248
865.000000	98.213587
864.000000	98.298874
863.000000	98.376090
862.000000	98.449387
861.000000	98.516761
860.000000	98.574144
859.000000	98.618860
858.000000	98.650737
857.000000	98.675100
856.000000	98.702760
855.000000	98.739579
854.000000	98.776794
853.000000	98.799749
852.000000	98.806565
851.000000	98.809865
850.000000	98.819249
849.000000	98.831718
848.000000	98.842165
847.000000	98.853452
846.000000	98.869680
845.000000	98.886650
844.000000	98.896039
843.000000	98.895295
842.000000	98.888916
841.000000	98.883240
840.000000	98.883257
839.000000	98.889960
838.000000	98.897406
837.000000	98.897532
836.000000	98.891406
835.000000	98.890439
834.000000	98.901959
833.000000	98.918228
832.000000	98.925009
831.000000	98.916671
830.000000	98.897843
829.000000	98.874819
828.000000	98.852334
827.000000	98.836202
826.000000	98.830647
825.000000	98.832155
824.000000	98.831465
823.000000	98.823159
822.000000	98.810147
821.000000	98.798444
820.000000	98.790303
819.000000	98.782521
818.000000	98.770300
817.000000	98.753146
816.000000	98.736600
815.000000	98.726784
814.000000	98.724797
813.000000	98.729455
812.000000	98.742811
811.000000	98.766518
810.000000	98.793343
809.000000	98.809372
808.000000	98.806013
807.000000	98.784508
806.000000	98.749047
805.000000	98.703408
804.000000	98.655476
803.000000	98.615579
802.000000	98.585745
801.000000	98.558031
800.000000	98.528275
799.000000	98.504963
798.000000	98.499586
797.000000	98.513918
796.000000	98.541482
795.000000	98.576040
794.000000	98.613791
793.000000	98.651296
792.000000	98.684993
791.000000	98.710103
790.000000	98.720206
789.000000	98.713867
788.000000	98.701786
787.000000	98.699572
786.000000	98.710251
785.000000	98.720497
784.000000	98.717165
783.000000	98.700252
782.000000	98.676891
781.000000	98.651366
780.000000	98.626591
779.000000	98.608321
778.000000	98.601161
777.000000	98.604871
776.000000	98.619279
775.000000	98.647708
774.000000	98.690669
773.000000	98.740668
772.000000	98.787531
771.000000	98.825434
770.000000	98.852781
769.000000	98.870759
768.000000	98.884676
767.000000	98.899994
766.000000	98.912862
765.000000	98.911029
764.000000	98.889183
763.000000	98.858150
762.000000	98.834344
761.000000	98.824579
760.000000	98.824752
759.000000	98.827789
758.000000	98.828401
757.000000	98.825393
756.000000	98.823458
755.000000	98.828249
754.000000	98.837253
753.000000	98.841626
752.000000	98.839717
751.000000	98.840949
750.000000	98.851976
749.000000	98.866834
748.000000	98.876295
747.000000	98.879405
746.000000	98.879809
745.000000	98.877781
744.000000	98.873203
743.000000	98.870817
742.000000	98.874978
741.000000	98.883071
740.000000	98.889950
739.000000	98.894878
738.000000	98.899093
737.000000	98.901645
736.000000	98.902765
735.000000	98.906091
734.000000	98.912043
733.000000	98.914117
732.000000	98.907664
731.000000	98.897975
730.000000	98.893489
729.000000	98.894708
728.000000	98.896442
727.000000	98.896937
726.000000	98.897849
725.000000	98.898524
724.000000	98.895975
723.000000	98.888333
722.000000	98.875798
721.000000	98.862596
720.000000	98.859689
719.000000	98.877588
718.000000	98.911329
717.000000	98.937739
716.000000	98.932159
715.000000	98.887113
714.000000	98.818050
713.000000	98.757603
712.000000	98.740545
711.000000	98.779647
710.000000	98.850985
709.000000	98.911519
708.000000	98.935148
707.000000	98.926742
706.000000	98.902930
705.000000	98.875136
704.000000	98.853695
703.000000	98.848002
702.000000	98.853834
701.000000	98.855069
700.000000	98.845783
699.000000	98.838212
698.000000	98.841427
697.000000	98.847686
696.000000	98.850569
695.000000	98.859120
694.000000	98.881910
693.000000	98.909959
692.000000	98.928149
691.000000	98.933917
690.000000	98.931142
689.000000	98.916981
688.000000	98.887336
687.000000	98.844681
686.000000	98.790569
685.000000	98.721110
684.000000	98.637934
683.000000	98.550599
682.000000	98.458986
681.000000	98.348163
680.000000	98.207472
679.000000	98.040138
678.000000	97.845589
677.000000	97.613313
676.000000	97.349536
675.000000	97.084444
674.000000	96.851824
673.000000	96.677437
672.000000	96.576605
671.000000	96.546039
670.000000	96.566037
669.000000	96.627851
668.000000	96.730784
667.000000	96.891186
666.000000	97.122321
665.000000	97.369868
664.000000	97.586056
663.000000	97.775290
662.000000	97.947971
661.000000	98.102565
660.000000	98.231545
659.000000	98.340222
658.000000	98.435541
657.000000	98.513317
656.000000	98.571461
655.000000	98.620914
654.000000	98.672495
653.000000	98.724292
652.000000	98.770989
651.000000	98.813860
650.000000	98.850760
649.000000	98.871060
648.000000	98.873828
647.000000	98.876188
646.000000	98.889505
645.000000	98.903189
644.000000	98.904912
643.000000	98.899720
642.000000	98.896070
641.000000	98.888989
640.000000	98.874386
639.000000	98.866035
638.000000	98.877435
637.000000	98.898703
636.000000	98.909713
635.000000	98.904977
634.000000	98.891667
633.000000	98.876347
632.000000	98.868196
631.000000	98.880531
630.000000	98.910449
629.000000	98.931174
628.000000	98.922820
627.000000	98.896797
626.000000	98.873111
625.000000	98.850379
624.000000	98.819230
623.000000	98.788467
622.000000	98.773828
621.000000	98.771257
620.000000	98.762278
619.000000	98.735627
618.000000	98.686415
617.000000	98.608321
616.000000	98.507441
615.000000	98.410278
614.000000	98.334217
613.000000	98.261552
612.000000	98.162771
611.000000	98.032785
610.000000	97.884625
609.000000	97.723020
608.000000	97.546480
607.000000	97.361036
606.000000	97.169051
605.000000	96.960876
604.000000	96.740707
603.000000	96.543350
602.000000	96.402641
601.000000	96.322114
600.000000	96.299463
599.000000	96.352557
598.000000	96.490257
597.000000	96.680006
596.000000	96.874106
595.000000	97.050442
594.000000	97.208335
593.000000	97.345673
592.000000	97.464895
591.000000	97.582562
590.000000	97.704556
589.000000	97.808626
588.000000	97.875666
587.000000	97.918710
586.000000	97.958585
585.000000	97.991098
584.000000	98.003557
583.000000	98.006746
582.000000	98.022409
581.000000	98.054880
580.000000	98.100509
579.000000	98.163900
578.000000	98.237753
577.000000	98.290366
576.000000	98.305528
575.000000	98.315534
574.000000	98.357794
573.000000	98.417768
572.000000	98.454280
571.000000	98.458116
570.000000	98.452209
569.000000	98.451894
568.000000	98.459919
567.000000	98.486079
566.000000	98.531808
565.000000	98.568981
564.000000	98.570814
563.000000	98.551471
562.000000	98.543447
561.000000	98.550477
560.000000	98.554975
559.000000	98.555072
558.000000	98.557651
557.000000	98.553294
556.000000	98.537936
555.000000	98.542348
554.000000	98.596799
553.000000	98.677380
552.000000	98.726488
551.000000	98.716107
550.000000	98.663404
549.000000	98.599552
548.000000	98.554695
547.000000	98.557813
546.000000	98.611549
545.000000	98.678217
544.000000	98.723136
543.000000	98.750195
542.000000	98.769734
541.000000	98.764350
540.000000	98.721096
539.000000	98.666610
538.000000	98.629337
537.000000	98.595623
536.000000	98.543667
535.000000	98.489102
534.000000	98.449417
533.000000	98.397969
532.000000	98.308546
531.000000	98.216962
530.000000	98.177447
529.000000	98.179984
528.000000	98.171803
527.000000	98.140070
526.000000	98.120965
525.000000	98.134715
524.000000	98.165776
523.000000	98.201613
522.000000	98.235542
521.000000	98.248153
520.000000	98.234481
519.000000	98.229586
518.000000	98.257925
517.000000	98.282444
516.000000	98.267317
515.000000	98.253216
514.000000	98.301232
513.000000	98.399547
512.000000	98.485299
511.000000	98.533462
510.000000	98.569578
509.000000	98.612067
508.000000	98.656368
507.000000	98.703304
506.000000	98.752439
505.000000	98.780491
504.000000	98.774112
503.000000	98.768492
502.000000	98.806717
501.000000	98.873981
500.000000	98.924325
499.000000	98.948540
498.000000	98.961522
497.000000	98.956801
496.000000	98.925188
495.000000	98.891050
494.000000	98.883813
493.000000	98.894105
492.000000	98.900247
491.000000	98.912618
490.000000	98.944193
489.000000	98.969684
488.000000	98.963723
487.000000	98.943700
486.000000	98.929915
485.000000	98.897405
484.000000	98.822137
483.000000	98.743160
482.000000	98.710532
481.000000	98.708178
480.000000	98.690521
479.000000	98.654018
478.000000	98.617220
477.000000	98.569210
476.000000	98.490797
475.000000	98.387570
474.000000	98.255111
473.000000	98.064915
472.000000	97.853136
471.000000	97.735890
470.000000	97.740859
469.000000	97.742737
468.000000	97.636362
467.000000	97.481759
466.000000	97.404450
465.000000	97.411912
464.000000	97.430510
463.000000	97.449294
462.000000	97.506442
461.000000	97.591677
460.000000	97.667535
459.000000	97.747386
458.000000	97.850845
457.000000	97.938054
456.000000	98.004800
455.000000	98.133536
454.000000	98.346191
453.000000	98.543608
452.000000	98.646896
451.000000	98.738517
450.000000	98.887203
