PE IR       SUBTECH     SPECTRUM    ASCII       PEDS        4.00        
   -1
11753-Hull01-C002_1.ASC
23/09/13
11:27:41.00
23/09/13
11:33:37.00
uco
Sample 002 By uco Date Wednesday, September 13 2023
450.000000
#HDR
-1
-1
#GR
cm-1
%T
1.0
0.0
4000.000000
-1.000000
3551
8
97.783579
80.927512
#DATA
4000.000000	97.662030
3999.000000	97.665417
3998.000000	97.673164
3997.000000	97.682264
3996.000000	97.689058
3995.000000	97.691667
3994.000000	97.651196
3993.000000	97.650089
3992.000000	97.651770
3991.000000	97.657183
3990.000000	97.665035
3989.000000	97.672583
3988.000000	97.676813
3987.000000	97.676082
3986.000000	97.670610
3985.000000	97.661824
3984.000000	97.651284
3983.000000	97.640328
3982.000000	97.630349
3981.000000	97.622991
3980.000000	97.619863
3979.000000	97.621566
3978.000000	97.626722
3977.000000	97.632243
3976.000000	97.635012
3975.000000	97.633820
3974.000000	97.629832
3973.000000	97.625242
3972.000000	97.621722
3971.000000	97.619922
3970.000000	97.620106
3969.000000	97.622160
3968.000000	97.624693
3967.000000	97.625461
3966.000000	97.623251
3965.000000	97.619405
3964.000000	97.616938
3963.000000	97.617810
3962.000000	97.621036
3961.000000	97.623496
3960.000000	97.622820
3959.000000	97.618700
3958.000000	97.612617
3957.000000	97.606850
3956.000000	97.602886
3955.000000	97.600857
3954.000000	97.599955
3953.000000	97.600017
3952.000000	97.602543
3951.000000	97.609508
3950.000000	97.621107
3949.000000	97.633461
3948.000000	97.640299
3947.000000	97.638023
3946.000000	97.627780
3945.000000	97.614266
3944.000000	97.603002
3943.000000	97.596672
3942.000000	97.594145
3941.000000	97.592593
3940.000000	97.590471
3939.000000	97.588144
3938.000000	97.587325
3937.000000	97.589808
3936.000000	97.595496
3935.000000	97.602680
3934.000000	97.609401
3933.000000	97.613772
3932.000000	97.614354
3931.000000	97.610920
3930.000000	97.605229
3929.000000	97.598832
3928.000000	97.591684
3927.000000	97.585283
3926.000000	97.583521
3925.000000	97.588878
3924.000000	97.598531
3923.000000	97.607070
3922.000000	97.611868
3921.000000	97.614214
3920.000000	97.616148
3919.000000	97.617428
3918.000000	97.615279
3917.000000	97.608186
3916.000000	97.598877
3915.000000	97.591380
3914.000000	97.587452
3913.000000	97.586107
3912.000000	97.585746
3911.000000	97.584193
3910.000000	97.579650
3909.000000	97.571876
3908.000000	97.562662
3907.000000	97.556878
3906.000000	97.561163
3905.000000	97.579457
3904.000000	97.606123
3903.000000	97.627035
3902.000000	97.632733
3901.000000	97.625921
3900.000000	97.615259
3899.000000	97.608043
3898.000000	97.605832
3897.000000	97.605405
3896.000000	97.603521
3895.000000	97.598905
3894.000000	97.593890
3893.000000	97.592976
3892.000000	97.597790
3891.000000	97.603406
3890.000000	97.605293
3889.000000	97.603192
3888.000000	97.598701
3887.000000	97.595123
3886.000000	97.595241
3885.000000	97.597373
3884.000000	97.597334
3883.000000	97.592969
3882.000000	97.586155
3881.000000	97.580883
3880.000000	97.577676
3879.000000	97.574159
3878.000000	97.568380
3877.000000	97.559194
3876.000000	97.548031
3875.000000	97.540962
3874.000000	97.544238
3873.000000	97.557107
3872.000000	97.573143
3871.000000	97.586002
3870.000000	97.591692
3869.000000	97.590236
3868.000000	97.585481
3867.000000	97.579308
3866.000000	97.571864
3865.000000	97.566699
3864.000000	97.568451
3863.000000	97.577400
3862.000000	97.590173
3861.000000	97.601675
3860.000000	97.606483
3859.000000	97.602696
3858.000000	97.592539
3857.000000	97.580960
3856.000000	97.572951
3855.000000	97.571315
3854.000000	97.581794
3853.000000	97.592589
3852.000000	97.591239
3851.000000	97.588204
3850.000000	97.590517
3849.000000	97.593243
3848.000000	97.592572
3847.000000	97.587878
3846.000000	97.581817
3845.000000	97.578232
3844.000000	97.579255
3843.000000	97.583842
3842.000000	97.589094
3841.000000	97.590890
3840.000000	97.586728
3839.000000	97.576855
3838.000000	97.563520
3837.000000	97.552389
3836.000000	97.548226
3835.000000	97.550839
3834.000000	97.557346
3833.000000	97.564912
3832.000000	97.570432
3831.000000	97.571699
3830.000000	97.568617
3829.000000	97.564132
3828.000000	97.562606
3827.000000	97.567263
3826.000000	97.578455
3825.000000	97.591916
3824.000000	97.600117
3823.000000	97.595845
3822.000000	97.582564
3821.000000	97.572319
3820.000000	97.569718
3819.000000	97.571712
3818.000000	97.573418
3817.000000	97.572239
3816.000000	97.567377
3815.000000	97.561446
3814.000000	97.559601
3813.000000	97.563597
3812.000000	97.571487
3811.000000	97.580072
3810.000000	97.587251
3809.000000	97.591734
3808.000000	97.592704
3807.000000	97.589077
3806.000000	97.581811
3805.000000	97.573691
3804.000000	97.566035
3803.000000	97.557216
3802.000000	97.547810
3801.000000	97.540376
3800.000000	97.541105
3799.000000	97.551624
3798.000000	97.566226
3797.000000	97.577376
3796.000000	97.580821
3795.000000	97.577627
3794.000000	97.572003
3793.000000	97.567815
3792.000000	97.566110
3791.000000	97.565559
3790.000000	97.564651
3789.000000	97.563052
3788.000000	97.560937
3787.000000	97.558894
3786.000000	97.558044
3785.000000	97.559338
3784.000000	97.562504
3783.000000	97.565873
3782.000000	97.567796
3781.000000	97.568947
3780.000000	97.572568
3779.000000	97.579103
3778.000000	97.585172
3777.000000	97.587695
3776.000000	97.586247
3775.000000	97.582291
3774.000000	97.578872
3773.000000	97.579101
3772.000000	97.583858
3771.000000	97.591350
3770.000000	97.598146
3769.000000	97.601725
3768.000000	97.601626
3767.000000	97.598498
3766.000000	97.592711
3765.000000	97.585642
3764.000000	97.580418
3763.000000	97.578803
3762.000000	97.579617
3761.000000	97.581166
3760.000000	97.583387
3759.000000	97.585053
3758.000000	97.585442
3757.000000	97.586933
3756.000000	97.591040
3755.000000	97.595752
3754.000000	97.600443
3753.000000	97.610005
3752.000000	97.629426
3751.000000	97.650707
3750.000000	97.658300
3749.000000	97.655189
3748.000000	97.653487
3747.000000	97.653944
3746.000000	97.647642
3745.000000	97.627490
3744.000000	97.599450
3743.000000	97.585044
3742.000000	97.595387
3741.000000	97.621639
3740.000000	97.648174
3739.000000	97.663006
3738.000000	97.660874
3737.000000	97.649672
3736.000000	97.645424
3735.000000	97.656385
3734.000000	97.676954
3733.000000	97.693436
3732.000000	97.694926
3731.000000	97.682347
3730.000000	97.665285
3729.000000	97.652052
3728.000000	97.645527
3727.000000	97.645412
3726.000000	97.649293
3725.000000	97.653836
3724.000000	97.656286
3723.000000	97.655493
3722.000000	97.652033
3721.000000	97.645826
3720.000000	97.637436
3719.000000	97.628183
3718.000000	97.620079
3717.000000	97.615386
3716.000000	97.615049
3715.000000	97.618043
3714.000000	97.620865
3713.000000	97.620048
3712.000000	97.615528
3711.000000	97.609141
3710.000000	97.603770
3709.000000	97.603572
3708.000000	97.609187
3707.000000	97.617689
3706.000000	97.626147
3705.000000	97.631906
3704.000000	97.634827
3703.000000	97.637886
3702.000000	97.643650
3701.000000	97.649685
3700.000000	97.651398
3699.000000	97.647238
3698.000000	97.638887
3697.000000	97.629264
3696.000000	97.619985
3695.000000	97.609333
3694.000000	97.593517
3693.000000	97.571594
3692.000000	97.550212
3691.000000	97.542424
3690.000000	97.554323
3689.000000	97.571786
3688.000000	97.577316
3687.000000	97.573253
3686.000000	97.568997
3685.000000	97.566843
3684.000000	97.565016
3683.000000	97.561201
3682.000000	97.554818
3681.000000	97.547842
3680.000000	97.542797
3679.000000	97.539176
3678.000000	97.533418
3677.000000	97.521679
3676.000000	97.506289
3675.000000	97.492212
3674.000000	97.487843
3673.000000	97.493845
3672.000000	97.500409
3671.000000	97.495878
3670.000000	97.477581
3669.000000	97.455855
3668.000000	97.445809
3667.000000	97.449733
3666.000000	97.458893
3665.000000	97.464187
3664.000000	97.461454
3663.000000	97.451515
3662.000000	97.439143
3661.000000	97.429753
3660.000000	97.424535
3659.000000	97.420352
3658.000000	97.413359
3657.000000	97.402323
3656.000000	97.387947
3655.000000	97.372386
3654.000000	97.358045
3653.000000	97.344193
3652.000000	97.330334
3651.000000	97.322263
3650.000000	97.324539
3649.000000	97.321113
3648.000000	97.297696
3647.000000	97.268996
3646.000000	97.251801
3645.000000	97.245614
3644.000000	97.242285
3643.000000	97.235210
3642.000000	97.222836
3641.000000	97.207936
3640.000000	97.192765
3639.000000	97.177101
3638.000000	97.160672
3637.000000	97.144666
3636.000000	97.130591
3635.000000	97.119492
3634.000000	97.113284
3633.000000	97.113164
3632.000000	97.115588
3631.000000	97.111574
3630.000000	97.094178
3629.000000	97.064657
3628.000000	97.032051
3627.000000	97.010121
3626.000000	96.999995
3625.000000	96.993310
3624.000000	96.983571
3623.000000	96.969889
3622.000000	96.953653
3621.000000	96.935471
3620.000000	96.913546
3619.000000	96.885357
3618.000000	96.853655
3617.000000	96.827580
3616.000000	96.811720
3615.000000	96.802002
3614.000000	96.791786
3613.000000	96.778000
3612.000000	96.762939
3611.000000	96.747914
3610.000000	96.727902
3609.000000	96.697021
3608.000000	96.658765
3607.000000	96.625482
3606.000000	96.606357
3605.000000	96.599027
3604.000000	96.593093
3603.000000	96.579639
3602.000000	96.556161
3601.000000	96.526101
3600.000000	96.495524
3599.000000	96.469321
3598.000000	96.448337
3597.000000	96.430535
3596.000000	96.412028
3595.000000	96.388569
3594.000000	96.359593
3593.000000	96.330024
3592.000000	96.305970
3591.000000	96.288035
3590.000000	96.271259
3589.000000	96.250084
3588.000000	96.220357
3587.000000	96.179581
3586.000000	96.135843
3585.000000	96.100543
3584.000000	96.074969
3583.000000	96.053302
3582.000000	96.030210
3581.000000	96.002959
3580.000000	95.971343
3579.000000	95.936973
3578.000000	95.902652
3577.000000	95.871173
3576.000000	95.843568
3575.000000	95.818013
3574.000000	95.791381
3573.000000	95.762392
3572.000000	95.731399
3571.000000	95.698777
3570.000000	95.664439
3569.000000	95.630281
3568.000000	95.597314
3567.000000	95.560581
3566.000000	95.518295
3565.000000	95.481216
3564.000000	95.455271
3563.000000	95.433870
3562.000000	95.408132
3561.000000	95.375061
3560.000000	95.337302
3559.000000	95.298957
3558.000000	95.261826
3557.000000	95.225976
3556.000000	95.191619
3555.000000	95.159405
3554.000000	95.129324
3553.000000	95.100794
3552.000000	95.073496
3551.000000	95.047975
3550.000000	95.024450
3549.000000	95.001720
3548.000000	94.977888
3547.000000	94.950388
3546.000000	94.916152
3545.000000	94.875208
3544.000000	94.832729
3543.000000	94.793947
3542.000000	94.760033
3541.000000	94.729101
3540.000000	94.699628
3539.000000	94.672509
3538.000000	94.649403
3537.000000	94.630031
3536.000000	94.610949
3535.000000	94.589058
3534.000000	94.564798
3533.000000	94.541111
3532.000000	94.520242
3531.000000	94.502283
3530.000000	94.486355
3529.000000	94.472054
3528.000000	94.459249
3527.000000	94.447391
3526.000000	94.435406
3525.000000	94.421254
3524.000000	94.402293
3523.000000	94.377858
3522.000000	94.351429
3521.000000	94.328144
3520.000000	94.309869
3519.000000	94.294680
3518.000000	94.280179
3517.000000	94.265969
3516.000000	94.252665
3515.000000	94.239823
3514.000000	94.226551
3513.000000	94.213194
3512.000000	94.201483
3511.000000	94.193003
3510.000000	94.187338
3509.000000	94.181435
3508.000000	94.171176
3507.000000	94.154532
3506.000000	94.133487
3505.000000	94.113381
3504.000000	94.098568
3503.000000	94.088829
3502.000000	94.081361
3501.000000	94.074214
3500.000000	94.065709
3499.000000	94.053134
3498.000000	94.034837
3497.000000	94.012463
3496.000000	93.990345
3495.000000	93.972453
3494.000000	93.960290
3493.000000	93.952772
3492.000000	93.947188
3491.000000	93.940852
3490.000000	93.932477
3489.000000	93.921776
3488.000000	93.908374
3487.000000	93.892452
3486.000000	93.876107
3485.000000	93.862048
3484.000000	93.850275
3483.000000	93.837606
3482.000000	93.821613
3481.000000	93.804052
3480.000000	93.788662
3479.000000	93.776574
3478.000000	93.765753
3477.000000	93.754493
3476.000000	93.743640
3475.000000	93.735364
3474.000000	93.730482
3473.000000	93.726778
3472.000000	93.719518
3471.000000	93.704797
3470.000000	93.683751
3469.000000	93.662516
3468.000000	93.646864
3467.000000	93.637192
3466.000000	93.629368
3465.000000	93.619525
3464.000000	93.606393
3463.000000	93.590124
3462.000000	93.571418
3461.000000	93.552066
3460.000000	93.534347
3459.000000	93.518831
3458.000000	93.503691
3457.000000	93.487127
3456.000000	93.469228
3455.000000	93.451516
3454.000000	93.435313
3453.000000	93.420974
3452.000000	93.408129
3451.000000	93.395865
3450.000000	93.383501
3449.000000	93.371309
3448.000000	93.359926
3447.000000	93.348947
3446.000000	93.337117
3445.000000	93.323254
3444.000000	93.306266
3443.000000	93.285428
3442.000000	93.261744
3441.000000	93.238207
3440.000000	93.216873
3439.000000	93.196428
3438.000000	93.174279
3437.000000	93.150927
3436.000000	93.129917
3435.000000	93.113284
3434.000000	93.098510
3433.000000	93.080837
3432.000000	93.058005
3431.000000	93.031761
3430.000000	93.005895
3429.000000	92.982871
3428.000000	92.961785
3427.000000	92.939351
3426.000000	92.913153
3425.000000	92.883846
3424.000000	92.853783
3423.000000	92.824310
3422.000000	92.795234
3421.000000	92.766176
3420.000000	92.737227
3419.000000	92.708658
3418.000000	92.681109
3417.000000	92.655629
3416.000000	92.632543
3415.000000	92.610396
3414.000000	92.587016
3413.000000	92.561311
3412.000000	92.533149
3411.000000	92.502428
3410.000000	92.469717
3409.000000	92.437114
3408.000000	92.406798
3407.000000	92.379092
3406.000000	92.353061
3405.000000	92.328484
3404.000000	92.305560
3403.000000	92.283325
3402.000000	92.260311
3401.000000	92.236676
3400.000000	92.214441
3399.000000	92.195498
3398.000000	92.180453
3397.000000	92.169018
3396.000000	92.160048
3395.000000	92.151298
3394.000000	92.140810
3393.000000	92.129057
3392.000000	92.118721
3391.000000	92.111846
3390.000000	92.107756
3389.000000	92.104292
3388.000000	92.100407
3387.000000	92.097204
3386.000000	92.096640
3385.000000	92.099305
3384.000000	92.103177
3383.000000	92.104707
3382.000000	92.101275
3381.000000	92.092461
3380.000000	92.079338
3379.000000	92.063218
3378.000000	92.045538
3377.000000	92.028088
3376.000000	92.012628
3375.000000	92.000153
3374.000000	91.990405
3373.000000	91.981614
3372.000000	91.970901
3371.000000	91.955874
3370.000000	91.936375
3369.000000	91.914210
3368.000000	91.891082
3367.000000	91.867720
3366.000000	91.845088
3365.000000	91.824967
3364.000000	91.808111
3363.000000	91.792647
3362.000000	91.775217
3361.000000	91.753141
3360.000000	91.725081
3359.000000	91.690906
3358.000000	91.652465
3357.000000	91.614015
3356.000000	91.580175
3355.000000	91.552775
3354.000000	91.530035
3353.000000	91.508500
3352.000000	91.485071
3351.000000	91.457574
3350.000000	91.424859
3349.000000	91.387168
3348.000000	91.346364
3347.000000	91.305642
3346.000000	91.268233
3345.000000	91.235398
3344.000000	91.205238
3343.000000	91.174099
3342.000000	91.139828
3341.000000	91.103252
3340.000000	91.066663
3339.000000	91.031862
3338.000000	90.999732
3337.000000	90.970283
3336.000000	90.942432
3335.000000	90.914803
3334.000000	90.887377
3333.000000	90.861189
3332.000000	90.835757
3331.000000	90.808559
3330.000000	90.778296
3329.000000	90.747277
3328.000000	90.718953
3327.000000	90.694146
3326.000000	90.671300
3325.000000	90.649503
3324.000000	90.629083
3323.000000	90.609302
3322.000000	90.587779
3321.000000	90.562715
3320.000000	90.534436
3319.000000	90.504738
3318.000000	90.475868
3317.000000	90.450154
3316.000000	90.429403
3315.000000	90.413999
3314.000000	90.403118
3313.000000	90.395808
3312.000000	90.390934
3311.000000	90.386437
3310.000000	90.379960
3309.000000	90.370665
3308.000000	90.359853
3307.000000	90.349388
3306.000000	90.339889
3305.000000	90.330452
3304.000000	90.319468
3303.000000	90.305918
3302.000000	90.290609
3301.000000	90.276344
3300.000000	90.266128
3299.000000	90.260807
3298.000000	90.258475
3297.000000	90.255864
3296.000000	90.250565
3295.000000	90.242602
3294.000000	90.234354
3293.000000	90.228591
3292.000000	90.226001
3291.000000	90.224921
3290.000000	90.223667
3289.000000	90.222385
3288.000000	90.222229
3287.000000	90.223540
3286.000000	90.225652
3285.000000	90.227968
3284.000000	90.230540
3283.000000	90.233811
3282.000000	90.238029
3281.000000	90.242644
3280.000000	90.246481
3279.000000	90.249453
3278.000000	90.253904
3277.000000	90.262849
3276.000000	90.276444
3275.000000	90.291656
3274.000000	90.306005
3273.000000	90.320112
3272.000000	90.335787
3271.000000	90.353192
3270.000000	90.371040
3269.000000	90.388131
3268.000000	90.403487
3267.000000	90.416424
3266.000000	90.427999
3265.000000	90.441115
3264.000000	90.457530
3263.000000	90.475726
3262.000000	90.493397
3261.000000	90.511148
3260.000000	90.531648
3259.000000	90.555224
3258.000000	90.578099
3257.000000	90.595702
3256.000000	90.606987
3255.000000	90.615627
3254.000000	90.627269
3253.000000	90.645301
3252.000000	90.668648
3251.000000	90.693563
3250.000000	90.717529
3249.000000	90.740467
3248.000000	90.762219
3247.000000	90.780741
3246.000000	90.793918
3245.000000	90.802213
3244.000000	90.808390
3243.000000	90.815328
3242.000000	90.825161
3241.000000	90.839311
3240.000000	90.857830
3239.000000	90.879264
3238.000000	90.902145
3237.000000	90.925907
3236.000000	90.949321
3235.000000	90.969455
3234.000000	90.983912
3233.000000	90.993311
3232.000000	91.000060
3231.000000	91.005425
3230.000000	91.009859
3229.000000	91.015609
3228.000000	91.026369
3227.000000	91.043610
3226.000000	91.064744
3225.000000	91.085656
3224.000000	91.104159
3223.000000	91.120553
3222.000000	91.135801
3221.000000	91.149950
3220.000000	91.162120
3219.000000	91.171725
3218.000000	91.179609
3217.000000	91.187753
3216.000000	91.197957
3215.000000	91.211110
3214.000000	91.227646
3213.000000	91.247602
3212.000000	91.269591
3211.000000	91.290462
3210.000000	91.307131
3209.000000	91.318839
3208.000000	91.327331
3207.000000	91.335495
3206.000000	91.346186
3205.000000	91.361391
3204.000000	91.381268
3203.000000	91.404133
3202.000000	91.427992
3201.000000	91.451462
3200.000000	91.472848
3199.000000	91.489977
3198.000000	91.502632
3197.000000	91.514449
3196.000000	91.530336
3195.000000	91.551692
3194.000000	91.575467
3193.000000	91.597828
3192.000000	91.617601
3191.000000	91.636222
3190.000000	91.655747
3189.000000	91.677483
3188.000000	91.701646
3187.000000	91.727435
3186.000000	91.753527
3185.000000	91.778878
3184.000000	91.803220
3183.000000	91.827119
3182.000000	91.851592
3181.000000	91.877245
3180.000000	91.903531
3179.000000	91.929204
3178.000000	91.953837
3177.000000	91.978299
3176.000000	92.003288
3175.000000	92.028235
3174.000000	92.052202
3173.000000	92.075099
3172.000000	92.097278
3171.000000	92.118747
3170.000000	92.139667
3169.000000	92.160771
3168.000000	92.182402
3167.000000	92.203941
3166.000000	92.225440
3165.000000	92.248916
3164.000000	92.276237
3163.000000	92.306091
3162.000000	92.334641
3161.000000	92.359442
3160.000000	92.381323
3159.000000	92.402557
3158.000000	92.424682
3157.000000	92.448376
3156.000000	92.473811
3155.000000	92.500295
3154.000000	92.526524
3153.000000	92.551763
3152.000000	92.576267
3151.000000	92.600451
3150.000000	92.624389
3149.000000	92.648010
3148.000000	92.670842
3147.000000	92.691760
3146.000000	92.710354
3145.000000	92.728685
3144.000000	92.750207
3143.000000	92.776161
3142.000000	92.803729
3141.000000	92.828301
3140.000000	92.847119
3139.000000	92.860648
3138.000000	92.871591
3137.000000	92.883268
3136.000000	92.898260
3135.000000	92.917264
3134.000000	92.938767
3133.000000	92.959939
3132.000000	92.978216
3131.000000	92.992345
3130.000000	93.002562
3129.000000	93.010121
3128.000000	93.016547
3127.000000	93.023015
3126.000000	93.030374
3125.000000	93.039361
3124.000000	93.050223
3123.000000	93.062298
3122.000000	93.074387
3121.000000	93.085239
3120.000000	93.093111
3119.000000	93.095788
3118.000000	93.092437
3117.000000	93.085261
3116.000000	93.077910
3115.000000	93.072342
3114.000000	93.068583
3113.000000	93.067135
3112.000000	93.069257
3111.000000	93.073909
3110.000000	93.076534
3109.000000	93.072643
3108.000000	93.061973
3107.000000	93.048094
3106.000000	93.035020
3105.000000	93.024930
3104.000000	93.017940
3103.000000	93.012426
3102.000000	93.006202
3101.000000	92.998573
3100.000000	92.990829
3099.000000	92.984090
3098.000000	92.977332
3097.000000	92.968453
3096.000000	92.956687
3095.000000	92.943221
3094.000000	92.929899
3093.000000	92.918086
3092.000000	92.908215
3091.000000	92.899480
3090.000000	92.890210
3089.000000	92.879476
3088.000000	92.868530
3087.000000	92.860008
3086.000000	92.855589
3085.000000	92.854501
3084.000000	92.853995
3083.000000	92.851174
3082.000000	92.844840
3081.000000	92.836248
3080.000000	92.827881
3079.000000	92.821181
3078.000000	92.815550
3077.000000	92.809774
3076.000000	92.803968
3075.000000	92.799800
3074.000000	92.799108
3073.000000	92.802657
3072.000000	92.810028
3071.000000	92.819935
3070.000000	92.830519
3069.000000	92.839533
3068.000000	92.844928
3067.000000	92.846219
3066.000000	92.845662
3065.000000	92.847481
3064.000000	92.854928
3063.000000	92.868156
3062.000000	92.885341
3061.000000	92.905241
3060.000000	92.927550
3059.000000	92.951249
3058.000000	92.974170
3057.000000	92.995033
3056.000000	93.015095
3055.000000	93.037030
3054.000000	93.062338
3053.000000	93.089897
3052.000000	93.116706
3051.000000	93.139889
3050.000000	93.158716
3049.000000	93.175366
3048.000000	93.193429
3047.000000	93.215237
3046.000000	93.240445
3045.000000	93.266880
3044.000000	93.292589
3043.000000	93.317060
3042.000000	93.340751
3041.000000	93.363719
3040.000000	93.385024
3039.000000	93.404143
3038.000000	93.422656
3037.000000	93.443601
3036.000000	93.468614
3035.000000	93.496135
3034.000000	93.522701
3033.000000	93.545449
3032.000000	93.563203
3031.000000	93.576538
3030.000000	93.587977
3029.000000	93.601421
3028.000000	93.619858
3027.000000	93.642905
3026.000000	93.667111
3025.000000	93.688725
3024.000000	93.705951
3023.000000	93.719062
3022.000000	93.729550
3021.000000	93.739337
3020.000000	93.749529
3019.000000	93.759133
3018.000000	93.765568
3017.000000	93.766797
3016.000000	93.762756
3015.000000	93.755025
3014.000000	93.745852
3013.000000	93.737384
3012.000000	93.730561
3011.000000	93.724338
3010.000000	93.716829
3009.000000	93.707827
3008.000000	93.699881
3007.000000	93.696427
3006.000000	93.699008
3005.000000	93.706083
3004.000000	93.714187
3003.000000	93.720427
3002.000000	93.724504
3001.000000	93.728354
3000.000000	93.733405
2999.000000	93.738454
2998.000000	93.740781
2997.000000	93.738914
2996.000000	93.733159
2995.000000	93.723771
2994.000000	93.710037
2993.000000	93.691645
2992.000000	93.669640
2991.000000	93.645019
2990.000000	93.617201
2989.000000	93.584496
2988.000000	93.545921
2987.000000	93.502162
2986.000000	93.455277
2985.000000	93.407913
2984.000000	93.362107
2983.000000	93.317998
2982.000000	93.273661
2981.000000	93.226552
2980.000000	93.175392
2979.000000	93.120695
2978.000000	93.063805
2977.000000	93.005347
2976.000000	92.943931
2975.000000	92.876298
2974.000000	92.799278
2973.000000	92.712052
2972.000000	92.616430
2971.000000	92.514608
2970.000000	92.406908
2969.000000	92.291411
2968.000000	92.165700
2967.000000	92.029574
2966.000000	91.886744
2965.000000	91.743631
2964.000000	91.605023
2963.000000	91.470859
2962.000000	91.338066
2961.000000	91.205986
2960.000000	91.079288
2959.000000	90.965364
2958.000000	90.870352
2957.000000	90.797710
2956.000000	90.749210
2955.000000	90.725206
2954.000000	90.723791
2953.000000	90.740317
2952.000000	90.767466
2951.000000	90.796222
2950.000000	90.817191
2949.000000	90.822511
2948.000000	90.806636
2947.000000	90.765958
2946.000000	90.698467
2945.000000	90.603840
2944.000000	90.483571
2943.000000	90.339913
2942.000000	90.175042
2941.000000	89.990471
2940.000000	89.786548
2939.000000	89.562215
2938.000000	89.315913
2937.000000	89.047904
2936.000000	88.761091
2935.000000	88.459574
2934.000000	88.146931
2933.000000	87.825975
2932.000000	87.499288
2931.000000	87.168469
2930.000000	86.833207
2929.000000	86.492056
2928.000000	86.145146
2927.000000	85.797043
2926.000000	85.456937
2925.000000	85.135717
2924.000000	84.841535
2923.000000	84.578782
2922.000000	84.351836
2921.000000	84.169062
2920.000000	84.043624
2919.000000	83.991099
2918.000000	84.029056
2917.000000	84.177140
2916.000000	84.451531
2915.000000	84.853996
2914.000000	85.362413
2913.000000	85.932831
2912.000000	86.512881
2911.000000	87.059443
2910.000000	87.548630
2909.000000	87.974077
2908.000000	88.339231
2907.000000	88.650944
2906.000000	88.917850
2905.000000	89.149169
2904.000000	89.352404
2903.000000	89.532730
2902.000000	89.693895
2901.000000	89.841067
2900.000000	89.979632
2899.000000	90.113114
2898.000000	90.243647
2897.000000	90.373285
2896.000000	90.503360
2895.000000	90.632543
2894.000000	90.757632
2893.000000	90.876709
2892.000000	90.990455
2891.000000	91.100132
2890.000000	91.205686
2889.000000	91.306379
2888.000000	91.401724
2887.000000	91.490592
2886.000000	91.570467
2885.000000	91.638840
2884.000000	91.695162
2883.000000	91.740730
2882.000000	91.776969
2881.000000	91.804327
2880.000000	91.821862
2879.000000	91.826999
2878.000000	91.816366
2877.000000	91.788426
2876.000000	91.745932
2875.000000	91.695659
2874.000000	91.646077
2873.000000	91.604902
2872.000000	91.577491
2871.000000	91.565562
2870.000000	91.566355
2869.000000	91.572803
2868.000000	91.574734
2867.000000	91.560676
2866.000000	91.520269
2865.000000	91.446609
2864.000000	91.336353
2863.000000	91.188212
2862.000000	91.001894
2861.000000	90.778950
2860.000000	90.523516
2859.000000	90.240890
2858.000000	89.935657
2857.000000	89.612206
2856.000000	89.276876
2855.000000	88.938204
2854.000000	88.606566
2853.000000	88.295719
2852.000000	88.029275
2851.000000	87.848196
2850.000000	87.807202
2849.000000	87.954940
2848.000000	88.305387
2847.000000	88.822359
2846.000000	89.431716
2845.000000	90.053387
2844.000000	90.628601
2843.000000	91.129118
2842.000000	91.550851
2841.000000	91.902256
2840.000000	92.196065
2839.000000	92.443612
2838.000000	92.652755
2837.000000	92.829014
2836.000000	92.977183
2835.000000	93.101683
2834.000000	93.206828
2833.000000	93.297546
2832.000000	93.379182
2831.000000	93.455581
2830.000000	93.527668
2829.000000	93.594992
2828.000000	93.657646
2827.000000	93.715810
2826.000000	93.768905
2825.000000	93.817051
2824.000000	93.862869
2823.000000	93.909533
2822.000000	93.956894
2821.000000	94.001360
2820.000000	94.040092
2819.000000	94.073966
2818.000000	94.105710
2817.000000	94.136575
2816.000000	94.165791
2815.000000	94.192461
2814.000000	94.216865
2813.000000	94.240027
2812.000000	94.262720
2811.000000	94.285115
2810.000000	94.307075
2809.000000	94.328475
2808.000000	94.348946
2807.000000	94.367540
2806.000000	94.383471
2805.000000	94.397504
2804.000000	94.411941
2803.000000	94.428571
2802.000000	94.447175
2801.000000	94.466546
2800.000000	94.486131
2799.000000	94.505695
2798.000000	94.524151
2797.000000	94.540216
2796.000000	94.554146
2795.000000	94.567637
2794.000000	94.582001
2793.000000	94.597471
2792.000000	94.614126
2791.000000	94.632072
2790.000000	94.650388
2789.000000	94.667146
2788.000000	94.681294
2787.000000	94.693863
2786.000000	94.706737
2785.000000	94.720654
2784.000000	94.734876
2783.000000	94.748494
2782.000000	94.761608
2781.000000	94.775224
2780.000000	94.789969
2779.000000	94.804879
2778.000000	94.817873
2777.000000	94.828014
2776.000000	94.837062
2775.000000	94.848106
2774.000000	94.862587
2773.000000	94.878987
2772.000000	94.894230
2771.000000	94.905987
2770.000000	94.914152
2769.000000	94.920987
2768.000000	94.929718
2767.000000	94.942056
2766.000000	94.956807
2765.000000	94.971408
2764.000000	94.984786
2763.000000	94.998110
2762.000000	95.012739
2761.000000	95.028030
2760.000000	95.041467
2759.000000	95.050814
2758.000000	95.056213
2757.000000	95.060250
2756.000000	95.065716
2755.000000	95.073313
2754.000000	95.082050
2753.000000	95.091633
2752.000000	95.103054
2751.000000	95.116317
2750.000000	95.129123
2749.000000	95.139147
2748.000000	95.146719
2747.000000	95.153848
2746.000000	95.161344
2745.000000	95.168386
2744.000000	95.174428
2743.000000	95.179960
2742.000000	95.185592
2741.000000	95.191752
2740.000000	95.199061
2739.000000	95.207492
2738.000000	95.215354
2737.000000	95.220805
2736.000000	95.224531
2735.000000	95.229266
2734.000000	95.236169
2733.000000	95.243275
2732.000000	95.248529
2731.000000	95.253142
2730.000000	95.260630
2729.000000	95.272819
2728.000000	95.287505
2727.000000	95.300089
2726.000000	95.307324
2725.000000	95.309837
2724.000000	95.311364
2723.000000	95.315494
2722.000000	95.323086
2721.000000	95.332611
2720.000000	95.342173
2719.000000	95.350651
2718.000000	95.357613
2717.000000	95.363350
2716.000000	95.368971
2715.000000	95.375539
2714.000000	95.382850
2713.000000	95.389548
2712.000000	95.394464
2711.000000	95.397635
2710.000000	95.400456
2709.000000	95.405302
2708.000000	95.414300
2707.000000	95.427436
2706.000000	95.441983
2705.000000	95.454544
2704.000000	95.463595
2703.000000	95.469681
2702.000000	95.473727
2701.000000	95.476100
2700.000000	95.477097
2699.000000	95.477483
2698.000000	95.478490
2697.000000	95.481438
2696.000000	95.486749
2695.000000	95.492988
2694.000000	95.497709
2693.000000	95.499878
2692.000000	95.500610
2691.000000	95.500987
2690.000000	95.500534
2689.000000	95.499000
2688.000000	95.498225
2687.000000	95.500370
2686.000000	95.505032
2685.000000	95.509795
2684.000000	95.513024
2683.000000	95.514479
2682.000000	95.513933
2681.000000	95.511429
2680.000000	95.508770
2679.000000	95.508664
2678.000000	95.511931
2677.000000	95.516941
2676.000000	95.521894
2675.000000	95.526238
2674.000000	95.529827
2673.000000	95.532311
2672.000000	95.533746
2671.000000	95.534585
2670.000000	95.534876
2669.000000	95.534692
2668.000000	95.535275
2667.000000	95.538156
2666.000000	95.542766
2665.000000	95.546442
2664.000000	95.547444
2663.000000	95.546796
2662.000000	95.546638
2661.000000	95.547805
2660.000000	95.549548
2659.000000	95.550743
2658.000000	95.550917
2657.000000	95.550796
2656.000000	95.552193
2655.000000	95.556706
2654.000000	95.564321
2653.000000	95.573837
2652.000000	95.584288
2651.000000	95.595025
2650.000000	95.604805
2649.000000	95.612366
2648.000000	95.618245
2647.000000	95.624739
2646.000000	95.633593
2645.000000	95.644459
2644.000000	95.655608
2643.000000	95.665224
2642.000000	95.672282
2641.000000	95.677532
2640.000000	95.683604
2639.000000	95.692707
2638.000000	95.703979
2637.000000	95.714411
2636.000000	95.722629
2635.000000	95.730486
2634.000000	95.740579
2633.000000	95.753277
2632.000000	95.766412
2631.000000	95.776959
2630.000000	95.783040
2629.000000	95.785471
2628.000000	95.787395
2627.000000	95.791448
2626.000000	95.797421
2625.000000	95.803605
2624.000000	95.809766
2623.000000	95.817326
2622.000000	95.827084
2621.000000	95.838358
2620.000000	95.850028
2619.000000	95.860965
2618.000000	95.870022
2617.000000	95.877364
2616.000000	95.885223
2615.000000	95.895368
2614.000000	95.906385
2613.000000	95.915481
2612.000000	95.922519
2611.000000	95.930008
2610.000000	95.939395
2609.000000	95.949527
2608.000000	95.958291
2607.000000	95.963876
2606.000000	95.965428
2605.000000	95.964990
2604.000000	95.967710
2603.000000	95.976756
2602.000000	95.988475
2601.000000	95.995957
2600.000000	95.997014
2599.000000	95.995278
2598.000000	95.993978
2597.000000	95.992931
2596.000000	95.992305
2595.000000	95.994877
2594.000000	96.002728
2593.000000	96.014422
2592.000000	96.026692
2591.000000	96.036544
2590.000000	96.041454
2589.000000	96.040889
2588.000000	96.038689
2587.000000	96.040766
2586.000000	96.049019
2585.000000	96.059854
2584.000000	96.069258
2583.000000	96.076423
2582.000000	96.081630
2581.000000	96.084260
2580.000000	96.084920
2579.000000	96.087048
2578.000000	96.094216
2577.000000	96.106745
2576.000000	96.121483
2575.000000	96.133723
2574.000000	96.140022
2573.000000	96.141429
2572.000000	96.143324
2571.000000	96.149213
2570.000000	96.155421
2569.000000	96.155596
2568.000000	96.150094
2567.000000	96.146391
2566.000000	96.149750
2565.000000	96.157938
2564.000000	96.166299
2563.000000	96.173462
2562.000000	96.179670
2561.000000	96.183531
2560.000000	96.183759
2559.000000	96.182099
2558.000000	96.181954
2557.000000	96.185416
2556.000000	96.192800
2555.000000	96.203180
2554.000000	96.213994
2553.000000	96.221723
2552.000000	96.224448
2551.000000	96.223225
2550.000000	96.221173
2549.000000	96.222141
2548.000000	96.228758
2547.000000	96.238995
2546.000000	96.245709
2545.000000	96.243273
2544.000000	96.234463
2543.000000	96.227466
2542.000000	96.226440
2541.000000	96.228660
2540.000000	96.230538
2539.000000	96.231741
2538.000000	96.232885
2537.000000	96.234139
2536.000000	96.237762
2535.000000	96.247226
2534.000000	96.261038
2533.000000	96.271153
2532.000000	96.270811
2531.000000	96.261962
2530.000000	96.252436
2529.000000	96.247728
2528.000000	96.247475
2527.000000	96.247897
2526.000000	96.245373
2525.000000	96.238776
2524.000000	96.230435
2523.000000	96.224609
2522.000000	96.224198
2521.000000	96.229132
2520.000000	96.237376
2519.000000	96.246165
2518.000000	96.252759
2517.000000	96.256333
2516.000000	96.259417
2515.000000	96.265339
2514.000000	96.273842
2513.000000	96.281149
2512.000000	96.284831
2511.000000	96.286701
2510.000000	96.290119
2509.000000	96.295828
2508.000000	96.301205
2507.000000	96.302941
2506.000000	96.300378
2505.000000	96.296619
2504.000000	96.295753
2503.000000	96.298422
2502.000000	96.301469
2501.000000	96.302616
2500.000000	96.303406
2499.000000	96.306337
2498.000000	96.311588
2497.000000	96.318398
2496.000000	96.326825
2495.000000	96.335488
2494.000000	96.340465
2493.000000	96.340194
2492.000000	96.339293
2491.000000	96.343565
2490.000000	96.352880
2489.000000	96.362538
2488.000000	96.369852
2487.000000	96.375175
2486.000000	96.378273
2485.000000	96.378957
2484.000000	96.380643
2483.000000	96.388119
2482.000000	96.401188
2481.000000	96.414611
2480.000000	96.424816
2479.000000	96.433115
2478.000000	96.441640
2477.000000	96.449355
2476.000000	96.453030
2475.000000	96.450349
2474.000000	96.442051
2473.000000	96.432469
2472.000000	96.426875
2471.000000	96.426444
2470.000000	96.427577
2469.000000	96.428005
2468.000000	96.430645
2467.000000	96.438448
2466.000000	96.448469
2465.000000	96.454978
2464.000000	96.456056
2463.000000	96.453029
2462.000000	96.446256
2461.000000	96.436713
2460.000000	96.429461
2459.000000	96.429672
2458.000000	96.436067
2457.000000	96.443165
2456.000000	96.448999
2455.000000	96.455645
2454.000000	96.463328
2453.000000	96.469996
2452.000000	96.476533
2451.000000	96.486810
2450.000000	96.501434
2449.000000	96.515615
2448.000000	96.524058
2447.000000	96.525104
2446.000000	96.520694
2445.000000	96.515399
2444.000000	96.514183
2443.000000	96.517427
2442.000000	96.519550
2441.000000	96.516080
2440.000000	96.510005
2439.000000	96.507205
2438.000000	96.508537
2437.000000	96.511517
2436.000000	96.516941
2435.000000	96.527259
2434.000000	96.539803
2433.000000	96.548262
2432.000000	96.550702
2431.000000	96.550828
2430.000000	96.551745
2429.000000	96.553658
2428.000000	96.557127
2427.000000	96.563220
2426.000000	96.570381
2425.000000	96.575388
2424.000000	96.577166
2423.000000	96.576309
2422.000000	96.572599
2421.000000	96.566929
2420.000000	96.563249
2419.000000	96.563945
2418.000000	96.565637
2417.000000	96.564399
2416.000000	96.562423
2415.000000	96.564149
2414.000000	96.568580
2413.000000	96.571414
2412.000000	96.572374
2411.000000	96.574267
2410.000000	96.577165
2409.000000	96.579976
2408.000000	96.585485
2407.000000	96.596677
2406.000000	96.609590
2405.000000	96.616776
2404.000000	96.616788
2403.000000	96.614025
2402.000000	96.610992
2401.000000	96.607558
2400.000000	96.605860
2399.000000	96.608311
2398.000000	96.611773
2397.000000	96.610962
2396.000000	96.606888
2395.000000	96.604951
2394.000000	96.605517
2393.000000	96.603990
2392.000000	96.599760
2391.000000	96.597553
2390.000000	96.599072
2389.000000	96.600270
2388.000000	96.598511
2387.000000	96.595852
2386.000000	96.595428
2385.000000	96.599336
2384.000000	96.610406
2383.000000	96.630831
2382.000000	96.656568
2381.000000	96.679222
2380.000000	96.692474
2379.000000	96.692707
2378.000000	96.676365
2377.000000	96.643362
2376.000000	96.603176
2375.000000	96.569391
2374.000000	96.548850
2373.000000	96.541650
2372.000000	96.548723
2371.000000	96.568595
2370.000000	96.589841
2369.000000	96.599049
2368.000000	96.593511
2367.000000	96.580677
2366.000000	96.567853
2365.000000	96.559837
2364.000000	96.561307
2363.000000	96.570494
2362.000000	96.575579
2361.000000	96.564978
2360.000000	96.540275
2359.000000	96.510616
2358.000000	96.485325
2357.000000	96.474302
2356.000000	96.475956
2355.000000	96.480469
2354.000000	96.489934
2353.000000	96.513921
2352.000000	96.542263
2351.000000	96.550986
2350.000000	96.534639
2349.000000	96.505270
2348.000000	96.482306
2347.000000	96.481822
2346.000000	96.496508
2345.000000	96.495483
2344.000000	96.467437
2343.000000	96.440550
2342.000000	96.435987
2341.000000	96.446995
2340.000000	96.456820
2339.000000	96.457217
2338.000000	96.451864
2337.000000	96.446746
2336.000000	96.444571
2335.000000	96.447551
2334.000000	96.459650
2333.000000	96.480568
2332.000000	96.499634
2331.000000	96.505152
2330.000000	96.496120
2329.000000	96.473811
2328.000000	96.438336
2327.000000	96.391801
2326.000000	96.344761
2325.000000	96.311439
2324.000000	96.300148
2323.000000	96.312514
2322.000000	96.338227
2321.000000	96.359759
2320.000000	96.364116
2319.000000	96.353258
2318.000000	96.340214
2317.000000	96.337233
2316.000000	96.351996
2315.000000	96.384329
2314.000000	96.423592
2313.000000	96.453478
2312.000000	96.467587
2311.000000	96.475702
2310.000000	96.490655
2309.000000	96.512553
2308.000000	96.532673
2307.000000	96.546748
2306.000000	96.557296
2305.000000	96.567759
2304.000000	96.579069
2303.000000	96.590510
2302.000000	96.598443
2301.000000	96.598492
2300.000000	96.593323
2299.000000	96.592330
2298.000000	96.600128
2297.000000	96.609947
2296.000000	96.613154
2295.000000	96.609449
2294.000000	96.603363
2293.000000	96.595613
2292.000000	96.584596
2291.000000	96.573268
2290.000000	96.567932
2289.000000	96.571575
2288.000000	96.581289
2287.000000	96.591199
2286.000000	96.595877
2285.000000	96.595301
2284.000000	96.597959
2283.000000	96.613638
2282.000000	96.641052
2281.000000	96.669001
2280.000000	96.691238
2279.000000	96.711749
2278.000000	96.732318
2277.000000	96.745499
2276.000000	96.745438
2275.000000	96.736736
2274.000000	96.727509
2273.000000	96.720913
2272.000000	96.718362
2271.000000	96.722266
2270.000000	96.730753
2269.000000	96.738083
2268.000000	96.744383
2267.000000	96.756217
2266.000000	96.773407
2265.000000	96.785737
2264.000000	96.788334
2263.000000	96.789192
2262.000000	96.795475
2261.000000	96.802981
2260.000000	96.805194
2259.000000	96.803397
2258.000000	96.801163
2257.000000	96.798957
2256.000000	96.799444
2255.000000	96.807569
2254.000000	96.820056
2253.000000	96.826393
2252.000000	96.826844
2251.000000	96.836874
2250.000000	96.865822
2249.000000	96.902209
2248.000000	96.926835
2247.000000	96.931496
2246.000000	96.919535
2245.000000	96.898697
2244.000000	96.880438
2243.000000	96.875351
2242.000000	96.882783
2241.000000	96.892924
2240.000000	96.901104
2239.000000	96.908989
2238.000000	96.911700
2237.000000	96.900752
2236.000000	96.882978
2235.000000	96.878229
2234.000000	96.892315
2233.000000	96.909614
2232.000000	96.918162
2231.000000	96.923306
2230.000000	96.928944
2229.000000	96.926017
2228.000000	96.911607
2227.000000	96.901054
2226.000000	96.907950
2225.000000	96.926590
2224.000000	96.944637
2223.000000	96.957685
2222.000000	96.961926
2221.000000	96.950508
2220.000000	96.929807
2219.000000	96.922137
2218.000000	96.938082
2217.000000	96.959219
2216.000000	96.960024
2215.000000	96.935184
2214.000000	96.896246
2213.000000	96.856773
2212.000000	96.831307
2211.000000	96.832947
2210.000000	96.858680
2209.000000	96.886967
2208.000000	96.899181
2207.000000	96.895194
2206.000000	96.884817
2205.000000	96.878467
2204.000000	96.888555
2203.000000	96.920521
2202.000000	96.956237
2201.000000	96.965811
2200.000000	96.945028
2199.000000	96.923105
2198.000000	96.925925
2197.000000	96.950023
2196.000000	96.979254
2195.000000	97.006158
2194.000000	97.026930
2193.000000	97.034458
2192.000000	97.027374
2191.000000	97.010183
2190.000000	96.979429
2189.000000	96.930725
2188.000000	96.884613
2187.000000	96.880876
2186.000000	96.936014
2185.000000	97.023561
2184.000000	97.102548
2183.000000	97.148533
2182.000000	97.155065
2181.000000	97.132496
2180.000000	97.111900
2179.000000	97.121481
2178.000000	97.152169
2177.000000	97.169967
2176.000000	97.163402
2175.000000	97.152636
2174.000000	97.152334
2173.000000	97.157779
2172.000000	97.169045
2171.000000	97.191745
2170.000000	97.209630
2169.000000	97.192941
2168.000000	97.143856
2167.000000	97.100265
2166.000000	97.085342
2165.000000	97.086428
2164.000000	97.091412
2163.000000	97.110188
2162.000000	97.149797
2161.000000	97.208626
2160.000000	97.304238
2159.000000	97.453737
2158.000000	97.609565
2157.000000	97.687927
2156.000000	97.676377
2155.000000	97.634942
2154.000000	97.597355
2153.000000	97.542905
2152.000000	97.459287
2151.000000	97.375407
2150.000000	97.323074
2149.000000	97.305492
2148.000000	97.311766
2147.000000	97.328719
2146.000000	97.333031
2145.000000	97.305640
2144.000000	97.261213
2143.000000	97.232251
2142.000000	97.221405
2141.000000	97.200644
2140.000000	97.159804
2139.000000	97.124119
2138.000000	97.117283
2137.000000	97.135528
2136.000000	97.163228
2135.000000	97.188836
2134.000000	97.200525
2133.000000	97.191404
2132.000000	97.174781
2131.000000	97.171904
2130.000000	97.181413
2129.000000	97.179744
2128.000000	97.152032
2127.000000	97.105407
2126.000000	97.053792
2125.000000	97.008790
2124.000000	96.983946
2123.000000	96.986097
2122.000000	96.999766
2121.000000	96.998394
2120.000000	96.974898
2119.000000	96.945212
2118.000000	96.921303
2117.000000	96.899752
2116.000000	96.878674
2115.000000	96.866164
2114.000000	96.866346
2113.000000	96.873265
2112.000000	96.883204
2111.000000	96.897783
2110.000000	96.911547
2109.000000	96.912953
2108.000000	96.901715
2107.000000	96.889915
2106.000000	96.883554
2105.000000	96.878879
2104.000000	96.876840
2103.000000	96.882645
2102.000000	96.890731
2101.000000	96.890383
2100.000000	96.887499
2099.000000	96.899695
2098.000000	96.927419
2097.000000	96.951280
2096.000000	96.962151
2095.000000	96.971253
2094.000000	96.985605
2093.000000	96.996265
2092.000000	96.996431
2091.000000	96.990776
2090.000000	96.982691
2089.000000	96.971457
2088.000000	96.963761
2087.000000	96.967545
2086.000000	96.973250
2085.000000	96.962976
2084.000000	96.940168
2083.000000	96.927252
2082.000000	96.930495
2081.000000	96.932163
2080.000000	96.922429
2079.000000	96.914061
2078.000000	96.918116
2077.000000	96.929337
2076.000000	96.944010
2075.000000	96.967966
2074.000000	96.998692
2073.000000	97.022925
2072.000000	97.039617
2071.000000	97.061143
2070.000000	97.085018
2069.000000	97.091813
2068.000000	97.079936
2067.000000	97.073961
2066.000000	97.088238
2065.000000	97.108700
2064.000000	97.121608
2063.000000	97.132767
2062.000000	97.146626
2061.000000	97.155543
2060.000000	97.159718
2059.000000	97.169708
2058.000000	97.180653
2057.000000	97.172962
2056.000000	97.147043
2055.000000	97.126992
2054.000000	97.120444
2053.000000	97.107224
2052.000000	97.079179
2051.000000	97.058042
2050.000000	97.060283
2049.000000	97.074559
2048.000000	97.091659
2047.000000	97.125529
2046.000000	97.180184
2045.000000	97.229637
2044.000000	97.256405
2043.000000	97.276529
2042.000000	97.306067
2041.000000	97.336430
2040.000000	97.360361
2039.000000	97.386608
2038.000000	97.413975
2037.000000	97.428960
2036.000000	97.439813
2035.000000	97.470206
2034.000000	97.508533
2033.000000	97.514298
2032.000000	97.488128
2031.000000	97.477241
2030.000000	97.501036
2029.000000	97.533398
2028.000000	97.565926
2027.000000	97.624246
2026.000000	97.707403
2025.000000	97.770511
2024.000000	97.783579
2023.000000	97.754260
2022.000000	97.686756
2021.000000	97.582050
2020.000000	97.482145
2019.000000	97.445938
2018.000000	97.472447
2017.000000	97.505425
2016.000000	97.522001
2015.000000	97.549473
2014.000000	97.589761
2013.000000	97.605436
2012.000000	97.586657
2011.000000	97.564253
2010.000000	97.550382
2009.000000	97.531453
2008.000000	97.523230
2007.000000	97.558079
2006.000000	97.611408
2005.000000	97.620735
2004.000000	97.584425
2003.000000	97.562915
2002.000000	97.579424
2001.000000	97.593748
2000.000000	97.577486
1999.000000	97.548466
1998.000000	97.522314
1997.000000	97.491074
1996.000000	97.461473
1995.000000	97.457226
1994.000000	97.472462
1993.000000	97.472097
1992.000000	97.453280
1991.000000	97.454381
1990.000000	97.484240
1989.000000	97.506603
1988.000000	97.506652
1987.000000	97.506630
1986.000000	97.506646
1985.000000	97.474481
1984.000000	97.409384
1983.000000	97.354525
1982.000000	97.329491
1981.000000	97.312463
1980.000000	97.304477
1979.000000	97.344996
1978.000000	97.438085
1977.000000	97.528640
1976.000000	97.587962
1975.000000	97.645209
1974.000000	97.702540
1973.000000	97.712965
1972.000000	97.669737
1971.000000	97.629090
1970.000000	97.621075
1969.000000	97.614853
1968.000000	97.592598
1967.000000	97.585467
1966.000000	97.606382
1965.000000	97.619886
1964.000000	97.609702
1963.000000	97.606221
1962.000000	97.626514
1961.000000	97.647194
1960.000000	97.656097
1959.000000	97.674756
1958.000000	97.707327
1957.000000	97.722633
1956.000000	97.705267
1955.000000	97.673906
1954.000000	97.637850
1953.000000	97.584241
1952.000000	97.521083
1951.000000	97.485087
1950.000000	97.489428
1949.000000	97.505791
1948.000000	97.511519
1947.000000	97.514681
1946.000000	97.522456
1945.000000	97.525280
1944.000000	97.523834
1943.000000	97.532162
1942.000000	97.542121
1941.000000	97.529783
1940.000000	97.500194
1939.000000	97.481304
1938.000000	97.480218
1937.000000	97.478622
1936.000000	97.470997
1935.000000	97.475071
1934.000000	97.494668
1933.000000	97.506478
1932.000000	97.498203
1931.000000	97.487447
1930.000000	97.488909
1929.000000	97.497172
1928.000000	97.507678
1927.000000	97.523742
1926.000000	97.537955
1925.000000	97.534464
1924.000000	97.516783
1923.000000	97.502897
1922.000000	97.492046
1921.000000	97.470379
1920.000000	97.443394
1919.000000	97.432697
1918.000000	97.435240
1917.000000	97.421251
1916.000000	97.390006
1915.000000	97.374276
1914.000000	97.387824
1913.000000	97.411170
1912.000000	97.425256
1911.000000	97.432169
1910.000000	97.433920
1909.000000	97.424297
1908.000000	97.411430
1907.000000	97.413730
1906.000000	97.426976
1905.000000	97.427382
1904.000000	97.413078
1903.000000	97.407694
1902.000000	97.419251
1901.000000	97.430046
1900.000000	97.430479
1899.000000	97.432470
1898.000000	97.442424
1897.000000	97.448640
1896.000000	97.446705
1895.000000	97.449154
1894.000000	97.459000
1893.000000	97.462590
1892.000000	97.455440
1891.000000	97.450682
1890.000000	97.453066
1889.000000	97.450271
1888.000000	97.443187
1887.000000	97.445621
1886.000000	97.454179
1885.000000	97.454858
1884.000000	97.451245
1883.000000	97.459401
1882.000000	97.475526
1881.000000	97.478978
1880.000000	97.468177
1879.000000	97.464101
1878.000000	97.476073
1877.000000	97.489585
1876.000000	97.494863
1875.000000	97.500645
1874.000000	97.510517
1873.000000	97.513815
1872.000000	97.508244
1871.000000	97.507173
1870.000000	97.518154
1869.000000	97.525155
1868.000000	97.517809
1867.000000	97.514541
1866.000000	97.519762
1865.000000	97.514355
1864.000000	97.496823
1863.000000	97.487424
1862.000000	97.495030
1861.000000	97.506720
1860.000000	97.515192
1859.000000	97.527535
1858.000000	97.540346
1857.000000	97.538097
1856.000000	97.522616
1855.000000	97.514785
1854.000000	97.521912
1853.000000	97.530353
1852.000000	97.531924
1851.000000	97.533516
1850.000000	97.540825
1849.000000	97.552402
1848.000000	97.574235
1847.000000	97.614125
1846.000000	97.656658
1845.000000	97.671182
1844.000000	97.655216
1843.000000	97.636299
1842.000000	97.625120
1841.000000	97.613633
1840.000000	97.603364
1839.000000	97.603946
1838.000000	97.612407
1837.000000	97.611127
1836.000000	97.597027
1835.000000	97.586743
1834.000000	97.585112
1833.000000	97.577730
1832.000000	97.557024
1831.000000	97.541450
1830.000000	97.543922
1829.000000	97.544223
1828.000000	97.530407
1827.000000	97.515956
1826.000000	97.515319
1825.000000	97.530622
1824.000000	97.556987
1823.000000	97.591035
1822.000000	97.618893
1821.000000	97.623060
1820.000000	97.608704
1819.000000	97.601740
1818.000000	97.612891
1817.000000	97.623789
1816.000000	97.622832
1815.000000	97.619999
1814.000000	97.619923
1813.000000	97.612452
1812.000000	97.596377
1811.000000	97.590833
1810.000000	97.601787
1809.000000	97.606885
1808.000000	97.594165
1807.000000	97.576818
1806.000000	97.561885
1805.000000	97.539348
1804.000000	97.509940
1803.000000	97.492471
1802.000000	97.493050
1801.000000	97.488849
1800.000000	97.469702
1799.000000	97.462971
1798.000000	97.482558
1797.000000	97.508013
1796.000000	97.525046
1795.000000	97.538398
1794.000000	97.548368
1793.000000	97.544521
1792.000000	97.525392
1791.000000	97.510776
1790.000000	97.513364
1789.000000	97.520305
1788.000000	97.521827
1787.000000	97.526910
1786.000000	97.543583
1785.000000	97.560886
1784.000000	97.566622
1783.000000	97.565347
1782.000000	97.565443
1781.000000	97.565716
1780.000000	97.565362
1779.000000	97.573616
1778.000000	97.590519
1777.000000	97.609499
1776.000000	97.640850
1775.000000	97.693746
1774.000000	97.745549
1773.000000	97.756857
1772.000000	97.715176
1771.000000	97.658445
1770.000000	97.630057
1769.000000	97.625045
1768.000000	97.619601
1767.000000	97.611380
1766.000000	97.605741
1765.000000	97.594753
1764.000000	97.568535
1763.000000	97.536163
1762.000000	97.516041
1761.000000	97.503686
1760.000000	97.483146
1759.000000	97.454344
1758.000000	97.417627
1757.000000	97.366588
1756.000000	97.308266
1755.000000	97.269862
1754.000000	97.261262
1753.000000	97.251434
1752.000000	97.201738
1751.000000	97.108329
1750.000000	96.988679
1749.000000	96.850519
1748.000000	96.709943
1747.000000	96.594865
1746.000000	96.509510
1745.000000	96.427897
1744.000000	96.334064
1743.000000	96.244565
1742.000000	96.177449
1741.000000	96.125633
1740.000000	96.089849
1739.000000	96.100120
1738.000000	96.173242
1737.000000	96.298921
1736.000000	96.447155
1735.000000	96.606183
1734.000000	96.762689
1733.000000	96.827031
1732.000000	96.772397
1731.000000	96.693466
1730.000000	96.659493
1729.000000	96.666486
1728.000000	96.688203
1727.000000	96.716601
1726.000000	96.745781
1725.000000	96.761889
1724.000000	96.758535
1723.000000	96.748582
1722.000000	96.742629
1721.000000	96.745306
1720.000000	96.765531
1719.000000	96.822655
1718.000000	96.902481
1717.000000	96.892776
1716.000000	96.736280
1715.000000	96.528040
1714.000000	96.354105
1713.000000	96.223022
1712.000000	96.118040
1711.000000	96.033832
1710.000000	95.967621
1709.000000	95.900253
1708.000000	95.814814
1707.000000	95.721072
1706.000000	95.631840
1705.000000	95.543835
1704.000000	95.484762
1703.000000	95.478209
1702.000000	95.450143
1701.000000	95.293891
1700.000000	95.081470
1699.000000	94.973577
1698.000000	94.953682
1697.000000	94.865460
1696.000000	94.601629
1695.000000	94.253858
1694.000000	93.949995
1693.000000	93.697499
1692.000000	93.486515
1691.000000	93.302222
1690.000000	93.126168
1689.000000	92.969925
1688.000000	92.883048
1687.000000	92.875303
1686.000000	92.834345
1685.000000	92.580721
1684.000000	92.091909
1683.000000	91.621137
1682.000000	91.322154
1681.000000	91.094084
1680.000000	90.853630
1679.000000	90.610409
1678.000000	90.383903
1677.000000	90.131086
1676.000000	89.785852
1675.000000	89.390519
1674.000000	89.053506
1673.000000	88.787676
1672.000000	88.526597
1671.000000	88.220018
1670.000000	87.843442
1669.000000	87.422967
1668.000000	87.037364
1667.000000	86.735769
1666.000000	86.494388
1665.000000	86.245234
1664.000000	85.927535
1663.000000	85.549466
1662.000000	85.180067
1661.000000	84.865595
1660.000000	84.594054
1659.000000	84.355216
1658.000000	84.153612
1657.000000	84.026871
1656.000000	83.988042
1655.000000	83.984447
1654.000000	83.849354
1653.000000	83.488792
1652.000000	83.123512
1651.000000	82.863818
1650.000000	82.663171
1649.000000	82.540938
1648.000000	82.450615
1647.000000	82.326850
1646.000000	82.201775
1645.000000	82.115425
1644.000000	82.044141
1643.000000	81.984052
1642.000000	81.951344
1641.000000	81.923071
1640.000000	81.886727
1639.000000	81.872058
1638.000000	81.890635
1637.000000	81.875207
1636.000000	81.737327
1635.000000	81.536137
1634.000000	81.404549
1633.000000	81.339320
1632.000000	81.300076
1631.000000	81.280512
1630.000000	81.270774
1629.000000	81.266627
1628.000000	81.276454
1627.000000	81.322698
1626.000000	81.415566
1625.000000	81.542642
1624.000000	81.697465
1623.000000	81.887509
1622.000000	82.105226
1621.000000	82.339251
1620.000000	82.606569
1619.000000	82.934853
1618.000000	83.325385
1617.000000	83.740629
1616.000000	84.101651
1615.000000	84.362520
1614.000000	84.578474
1613.000000	84.827603
1612.000000	85.132007
1611.000000	85.466887
1610.000000	85.800827
1609.000000	86.121229
1608.000000	86.427799
1607.000000	86.716199
1606.000000	86.981402
1605.000000	87.230172
1604.000000	87.472858
1603.000000	87.705094
1602.000000	87.910854
1601.000000	88.086434
1600.000000	88.242994
1599.000000	88.385974
1598.000000	88.512455
1597.000000	88.624737
1596.000000	88.730700
1595.000000	88.828233
1594.000000	88.906692
1593.000000	88.966872
1592.000000	89.017999
1591.000000	89.055258
1590.000000	89.061289
1589.000000	89.032525
1588.000000	88.980329
1587.000000	88.905378
1586.000000	88.795251
1585.000000	88.645517
1584.000000	88.461255
1583.000000	88.237519
1582.000000	87.966271
1581.000000	87.675047
1580.000000	87.432049
1579.000000	87.283934
1578.000000	87.196849
1577.000000	87.072290
1576.000000	86.860789
1575.000000	86.623119
1574.000000	86.436806
1573.000000	86.333823
1572.000000	86.295457
1571.000000	86.263902
1570.000000	86.196641
1569.000000	86.106256
1568.000000	86.026998
1567.000000	85.952358
1566.000000	85.849413
1565.000000	85.721026
1564.000000	85.614169
1563.000000	85.584608
1562.000000	85.625609
1561.000000	85.612026
1560.000000	85.424210
1559.000000	84.994151
1558.000000	84.507760
1557.000000	84.248245
1556.000000	84.099148
1555.000000	83.916878
1554.000000	83.698788
1553.000000	83.462739
1552.000000	83.244110
1551.000000	83.028824
1550.000000	82.809362
1549.000000	82.600518
1548.000000	82.429601
1547.000000	82.278000
1546.000000	82.107126
1545.000000	81.899286
1544.000000	81.673467
1543.000000	81.470101
1542.000000	81.310899
1541.000000	81.159459
1540.000000	80.997136
1539.000000	80.927512
1538.000000	80.983180
1537.000000	81.086387
1536.000000	81.239325
1535.000000	81.475883
1534.000000	81.804540
1533.000000	82.172566
1532.000000	82.498006
1531.000000	82.775355
1530.000000	83.025036
1529.000000	83.259610
1528.000000	83.496916
1527.000000	83.748003
1526.000000	84.000222
1525.000000	84.229854
1524.000000	84.443951
1523.000000	84.676288
1522.000000	84.923091
1521.000000	85.102680
1520.000000	85.173727
1519.000000	85.210841
1518.000000	85.298070
1517.000000	85.444198
1516.000000	85.607618
1515.000000	85.775928
1514.000000	85.957815
1513.000000	86.141516
1512.000000	86.321196
1511.000000	86.518443
1510.000000	86.770641
1509.000000	87.084902
1508.000000	87.434565
1507.000000	87.716042
1506.000000	87.870828
1505.000000	87.966789
1504.000000	88.014012
1503.000000	88.057517
1502.000000	88.157925
1501.000000	88.289313
1500.000000	88.423436
1499.000000	88.575087
1498.000000	88.768491
1497.000000	88.955939
1496.000000	89.072836
1495.000000	89.130665
1494.000000	89.171037
1493.000000	89.207737
1492.000000	89.242766
1491.000000	89.299100
1490.000000	89.379870
1489.000000	89.420011
1488.000000	89.398952
1487.000000	89.371197
1486.000000	89.351224
1485.000000	89.310356
1484.000000	89.233118
1483.000000	89.126335
1482.000000	88.991973
1481.000000	88.817234
1480.000000	88.609058
1479.000000	88.390587
1478.000000	88.165525
1477.000000	87.928378
1476.000000	87.702472
1475.000000	87.511217
1474.000000	87.304507
1473.000000	86.975637
1472.000000	86.539795
1471.000000	86.159998
1470.000000	85.896307
1469.000000	85.687705
1468.000000	85.494595
1467.000000	85.313729
1466.000000	85.142325
1465.000000	84.970602
1464.000000	84.821469
1463.000000	84.732986
1462.000000	84.691420
1461.000000	84.665199
1460.000000	84.650686
1459.000000	84.646400
1458.000000	84.590228
1457.000000	84.388417
1456.000000	84.112493
1455.000000	83.900555
1454.000000	83.763585
1453.000000	83.674945
1452.000000	83.614123
1451.000000	83.568128
1450.000000	83.533929
1449.000000	83.498085
1448.000000	83.460176
1447.000000	83.441314
1446.000000	83.451947
1445.000000	83.471895
1444.000000	83.484278
1443.000000	83.495278
1442.000000	83.512312
1441.000000	83.533949
1440.000000	83.561356
1439.000000	83.593726
1438.000000	83.617754
1437.000000	83.626413
1436.000000	83.636349
1435.000000	83.668348
1434.000000	83.722049
1433.000000	83.781450
1432.000000	83.835827
1431.000000	83.887212
1430.000000	83.940325
1429.000000	83.984513
1428.000000	84.009448
1427.000000	84.019086
1426.000000	84.016184
1425.000000	83.996572
1424.000000	83.961333
1423.000000	83.935726
1422.000000	83.940896
1421.000000	83.947805
1420.000000	83.914046
1419.000000	83.847900
1418.000000	83.790923
1417.000000	83.767105
1416.000000	83.777487
1415.000000	83.813616
1414.000000	83.861888
1413.000000	83.908996
1412.000000	83.949970
1411.000000	83.987686
1410.000000	84.026130
1409.000000	84.061559
1408.000000	84.089126
1407.000000	84.112624
1406.000000	84.138367
1405.000000	84.166473
1404.000000	84.196150
1403.000000	84.233611
1402.000000	84.277505
1401.000000	84.317670
1400.000000	84.357369
1399.000000	84.412252
1398.000000	84.487368
1397.000000	84.570199
1396.000000	84.646856
1395.000000	84.714144
1394.000000	84.782937
1393.000000	84.864530
1392.000000	84.956878
1391.000000	85.057393
1390.000000	85.163738
1389.000000	85.266235
1388.000000	85.354715
1387.000000	85.424397
1386.000000	85.478725
1385.000000	85.529740
1384.000000	85.589308
1383.000000	85.662953
1382.000000	85.745285
1381.000000	85.822765
1380.000000	85.890378
1379.000000	85.956304
1378.000000	86.030263
1377.000000	86.117553
1376.000000	86.226331
1375.000000	86.365115
1374.000000	86.525395
1373.000000	86.687905
1372.000000	86.846946
1371.000000	87.005122
1370.000000	87.161698
1369.000000	87.317829
1368.000000	87.476239
1367.000000	87.638148
1366.000000	87.800399
1365.000000	87.961023
1364.000000	88.128105
1363.000000	88.303918
1362.000000	88.469436
1361.000000	88.610622
1360.000000	88.734354
1359.000000	88.848094
1358.000000	88.949051
1357.000000	89.031628
1356.000000	89.095229
1355.000000	89.141291
1354.000000	89.166435
1353.000000	89.165952
1352.000000	89.145864
1351.000000	89.118404
1350.000000	89.086346
1349.000000	89.046070
1348.000000	88.997952
1347.000000	88.947275
1346.000000	88.894324
1345.000000	88.834756
1344.000000	88.770260
1343.000000	88.710218
1342.000000	88.660837
1341.000000	88.618844
1340.000000	88.574452
1339.000000	88.521559
1338.000000	88.468860
1337.000000	88.432711
1336.000000	88.424803
1335.000000	88.450101
1334.000000	88.504806
1333.000000	88.578961
1332.000000	88.666169
1331.000000	88.765471
1330.000000	88.873167
1329.000000	88.980238
1328.000000	89.079669
1327.000000	89.168260
1326.000000	89.241808
1325.000000	89.297553
1324.000000	89.339104
1323.000000	89.374301
1322.000000	89.406816
1321.000000	89.434617
1320.000000	89.457153
1319.000000	89.478507
1318.000000	89.501870
1317.000000	89.527264
1316.000000	89.557541
1315.000000	89.599739
1314.000000	89.656432
1313.000000	89.721061
1312.000000	89.787119
1311.000000	89.855781
1310.000000	89.929255
1309.000000	90.002829
1308.000000	90.069881
1307.000000	90.129027
1306.000000	90.181437
1305.000000	90.226931
1304.000000	90.266065
1303.000000	90.303453
1302.000000	90.343480
1301.000000	90.386034
1300.000000	90.429945
1299.000000	90.476231
1298.000000	90.522896
1297.000000	90.561509
1296.000000	90.584970
1295.000000	90.594160
1294.000000	90.592394
1293.000000	90.577100
1292.000000	90.543147
1291.000000	90.491155
1290.000000	90.426154
1289.000000	90.352326
1288.000000	90.274691
1287.000000	90.201450
1286.000000	90.137808
1285.000000	90.080768
1284.000000	90.026266
1283.000000	89.977075
1282.000000	89.937730
1281.000000	89.907196
1280.000000	89.884079
1279.000000	89.873248
1278.000000	89.880047
1277.000000	89.901739
1276.000000	89.930910
1275.000000	89.963779
1274.000000	89.999270
1273.000000	90.033633
1272.000000	90.061289
1271.000000	90.078500
1270.000000	90.083046
1269.000000	90.074275
1268.000000	90.056141
1267.000000	90.034935
1266.000000	90.011058
1265.000000	89.977797
1264.000000	89.932207
1263.000000	89.880822
1262.000000	89.829379
1261.000000	89.774745
1260.000000	89.712380
1259.000000	89.644057
1258.000000	89.572644
1257.000000	89.496445
1256.000000	89.415554
1255.000000	89.335013
1254.000000	89.255146
1253.000000	89.167251
1252.000000	89.065460
1251.000000	88.954875
1250.000000	88.841343
1249.000000	88.722428
1248.000000	88.596179
1247.000000	88.469312
1246.000000	88.348036
1245.000000	88.228531
1244.000000	88.105526
1243.000000	87.982516
1242.000000	87.864841
1241.000000	87.751252
1240.000000	87.641845
1239.000000	87.545824
1238.000000	87.471004
1237.000000	87.414512
1236.000000	87.372597
1235.000000	87.351345
1234.000000	87.358990
1233.000000	87.394346
1232.000000	87.453064
1231.000000	87.536223
1230.000000	87.644552
1229.000000	87.773110
1228.000000	87.918128
1227.000000	88.082726
1226.000000	88.267753
1225.000000	88.464665
1224.000000	88.664999
1223.000000	88.868396
1222.000000	89.075164
1221.000000	89.278137
1220.000000	89.468048
1219.000000	89.639892
1218.000000	89.789538
1217.000000	89.911161
1216.000000	90.004372
1215.000000	90.077279
1214.000000	90.134421
1213.000000	90.169513
1212.000000	90.175717
1211.000000	90.156561
1210.000000	90.120024
1209.000000	90.067214
1208.000000	89.997175
1207.000000	89.916841
1206.000000	89.837650
1205.000000	89.767155
1204.000000	89.710864
1203.000000	89.676381
1202.000000	89.668176
1201.000000	89.684103
1200.000000	89.722046
1199.000000	89.783732
1198.000000	89.865935
1197.000000	89.956847
1196.000000	90.048619
1195.000000	90.144452
1194.000000	90.247073
1193.000000	90.348403
1192.000000	90.438811
1191.000000	90.519881
1190.000000	90.599941
1189.000000	90.682119
1188.000000	90.763093
1187.000000	90.837918
1186.000000	90.899987
1185.000000	90.943100
1184.000000	90.968931
1183.000000	90.986914
1182.000000	91.001939
1181.000000	91.008193
1180.000000	91.000924
1179.000000	90.985285
1178.000000	90.967180
1177.000000	90.944365
1176.000000	90.913047
1175.000000	90.875388
1174.000000	90.833630
1173.000000	90.785309
1172.000000	90.730602
1171.000000	90.675375
1170.000000	90.621490
1169.000000	90.563435
1168.000000	90.500239
1167.000000	90.439796
1166.000000	90.384713
1165.000000	90.326261
1164.000000	90.260682
1163.000000	90.199111
1162.000000	90.151528
1161.000000	90.113504
1160.000000	90.078887
1159.000000	90.053297
1158.000000	90.043916
1157.000000	90.046558
1156.000000	90.054594
1155.000000	90.069824
1154.000000	90.094094
1153.000000	90.121375
1152.000000	90.148055
1151.000000	90.180415
1150.000000	90.220996
1149.000000	90.258911
1148.000000	90.285055
1147.000000	90.305883
1146.000000	90.331315
1145.000000	90.359979
1144.000000	90.387363
1143.000000	90.417155
1142.000000	90.453158
1141.000000	90.490732
1140.000000	90.527262
1139.000000	90.570051
1138.000000	90.622702
1137.000000	90.674542
1136.000000	90.714600
1135.000000	90.745203
1134.000000	90.771000
1133.000000	90.786111
1132.000000	90.784864
1131.000000	90.774190
1130.000000	90.762320
1129.000000	90.745678
1128.000000	90.718979
1127.000000	90.688536
1126.000000	90.662344
1125.000000	90.636791
1124.000000	90.606367
1123.000000	90.576201
1122.000000	90.551868
1121.000000	90.525944
1120.000000	90.487890
1119.000000	90.438967
1118.000000	90.385599
1117.000000	90.327461
1116.000000	90.264213
1115.000000	90.204420
1114.000000	90.155614
1113.000000	90.114986
1112.000000	90.080983
1111.000000	90.062764
1110.000000	90.066612
1109.000000	90.083349
1108.000000	90.101190
1107.000000	90.120827
1106.000000	90.146144
1105.000000	90.172450
1104.000000	90.195762
1103.000000	90.221965
1102.000000	90.254712
1101.000000	90.284226
1100.000000	90.300427
1099.000000	90.307853
1098.000000	90.313951
1097.000000	90.317157
1096.000000	90.315843
1095.000000	90.316787
1094.000000	90.322319
1093.000000	90.320978
1092.000000	90.303077
1091.000000	90.274088
1090.000000	90.240964
1089.000000	90.198086
1088.000000	90.138910
1087.000000	90.069350
1086.000000	89.997985
1085.000000	89.925422
1084.000000	89.855584
1083.000000	89.804734
1082.000000	89.786838
1081.000000	89.800744
1080.000000	89.843151
1079.000000	89.919562
1078.000000	90.030278
1077.000000	90.160681
1076.000000	90.296130
1075.000000	90.434889
1074.000000	90.576407
1073.000000	90.711270
1072.000000	90.832752
1071.000000	90.943585
1070.000000	91.041876
1069.000000	91.115968
1068.000000	91.164448
1067.000000	91.205166
1066.000000	91.252868
1065.000000	91.301272
1064.000000	91.339162
1063.000000	91.369737
1062.000000	91.401777
1061.000000	91.436115
1060.000000	91.472838
1059.000000	91.518488
1058.000000	91.574531
1057.000000	91.631734
1056.000000	91.685749
1055.000000	91.744037
1054.000000	91.807711
1053.000000	91.862625
1052.000000	91.899460
1051.000000	91.927285
1050.000000	91.955399
1049.000000	91.978885
1048.000000	91.994471
1047.000000	92.011710
1046.000000	92.035203
1045.000000	92.053177
1044.000000	92.055614
1043.000000	92.047716
1042.000000	92.035018
1041.000000	92.012283
1040.000000	91.977370
1039.000000	91.936989
1038.000000	91.888530
1037.000000	91.815746
1036.000000	91.716633
1035.000000	91.616053
1034.000000	91.537305
1033.000000	91.480745
1032.000000	91.444535
1031.000000	91.443427
1030.000000	91.486670
1029.000000	91.557586
1028.000000	91.633849
1027.000000	91.713386
1026.000000	91.803200
1025.000000	91.899095
1024.000000	91.994358
1023.000000	92.092142
1022.000000	92.192809
1021.000000	92.284089
1020.000000	92.359603
1019.000000	92.431311
1018.000000	92.508011
1017.000000	92.577676
1016.000000	92.628248
1015.000000	92.670318
1014.000000	92.722367
1013.000000	92.787291
1012.000000	92.859737
1011.000000	92.942236
1010.000000	93.037266
1009.000000	93.136134
1008.000000	93.230714
1007.000000	93.324911
1006.000000	93.422859
1005.000000	93.519336
1004.000000	93.613603
1003.000000	93.717379
1002.000000	93.835896
1001.000000	93.956242
1000.000000	94.066836
999.000000	94.173438
998.000000	94.282812
997.000000	94.386943
996.000000	94.478082
995.000000	94.564351
994.000000	94.655105
993.000000	94.744311
992.000000	94.823280
991.000000	94.895869
990.000000	94.967537
989.000000	95.032616
988.000000	95.086742
987.000000	95.138303
986.000000	95.193161
985.000000	95.241371
984.000000	95.272823
983.000000	95.292519
982.000000	95.307268
981.000000	95.311213
980.000000	95.299017
979.000000	95.279586
978.000000	95.262022
977.000000	95.242016
976.000000	95.215603
975.000000	95.192981
974.000000	95.184639
973.000000	95.188442
972.000000	95.202891
971.000000	95.236910
970.000000	95.291690
969.000000	95.349673
968.000000	95.397887
967.000000	95.446071
966.000000	95.506385
965.000000	95.570577
964.000000	95.624865
963.000000	95.671768
962.000000	95.719628
961.000000	95.764418
960.000000	95.800459
959.000000	95.836482
958.000000	95.883028
957.000000	95.934993
956.000000	95.982565
955.000000	96.028342
954.000000	96.078196
953.000000	96.126909
952.000000	96.167170
951.000000	96.201391
950.000000	96.231402
949.000000	96.250154
948.000000	96.256765
947.000000	96.265546
946.000000	96.285248
945.000000	96.303935
944.000000	96.309065
943.000000	96.307480
942.000000	96.310846
941.000000	96.316051
940.000000	96.316312
939.000000	96.316789
938.000000	96.323852
937.000000	96.333342
936.000000	96.345196
935.000000	96.374084
934.000000	96.428599
933.000000	96.494405
932.000000	96.554325
931.000000	96.610101
930.000000	96.668328
929.000000	96.721744
928.000000	96.762293
927.000000	96.797565
926.000000	96.835513
925.000000	96.867489
924.000000	96.884792
923.000000	96.898071
922.000000	96.920977
921.000000	96.948285
920.000000	96.969309
919.000000	96.989918
918.000000	97.021527
917.000000	97.059849
916.000000	97.094549
915.000000	97.129325
914.000000	97.173972
913.000000	97.225296
912.000000	97.273023
911.000000	97.315505
910.000000	97.354674
909.000000	97.385915
908.000000	97.408057
907.000000	97.432286
906.000000	97.466193
905.000000	97.499500
904.000000	97.519429
903.000000	97.529091
902.000000	97.538025
901.000000	97.547760
900.000000	97.558737
899.000000	97.577033
898.000000	97.601007
897.000000	97.617048
896.000000	97.621124
895.000000	97.628889
894.000000	97.651213
893.000000	97.677451
892.000000	97.696237
891.000000	97.713477
890.000000	97.734468
889.000000	97.746584
888.000000	97.736141
887.000000	97.702486
886.000000	97.641045
885.000000	97.533203
884.000000	97.371201
883.000000	97.170683
882.000000	96.934686
881.000000	96.626897
880.000000	96.205756
879.000000	95.672903
878.000000	95.070022
877.000000	94.449279
876.000000	93.871074
875.000000	93.410882
874.000000	93.139886
873.000000	93.101922
872.000000	93.315082
871.000000	93.759828
870.000000	94.348787
869.000000	94.946392
868.000000	95.449362
867.000000	95.838459
866.000000	96.140901
865.000000	96.373142
864.000000	96.541424
863.000000	96.665023
862.000000	96.762423
861.000000	96.831555
860.000000	96.870721
859.000000	96.900211
858.000000	96.939047
857.000000	96.977703
856.000000	96.999974
855.000000	97.014105
854.000000	97.036211
853.000000	97.060434
852.000000	97.070665
851.000000	97.067994
850.000000	97.063891
849.000000	97.062354
848.000000	97.069436
847.000000	97.102287
846.000000	97.166223
845.000000	97.240094
844.000000	97.304179
843.000000	97.363484
842.000000	97.424715
841.000000	97.473557
840.000000	97.498359
839.000000	97.514638
838.000000	97.541852
837.000000	97.574483
836.000000	97.599125
835.000000	97.619479
834.000000	97.641440
833.000000	97.654829
832.000000	97.654402
831.000000	97.657974
830.000000	97.678280
829.000000	97.696960
828.000000	97.693158
827.000000	97.678605
826.000000	97.676608
825.000000	97.686224
824.000000	97.694269
823.000000	97.701362
822.000000	97.707939
821.000000	97.698216
820.000000	97.666314
819.000000	97.635139
818.000000	97.623173
817.000000	97.615559
816.000000	97.593006
815.000000	97.566933
814.000000	97.559951
813.000000	97.570700
812.000000	97.583780
811.000000	97.596284
810.000000	97.611188
809.000000	97.622307
808.000000	97.626981
807.000000	97.635711
806.000000	97.651035
805.000000	97.657970
804.000000	97.652251
803.000000	97.652630
802.000000	97.667918
801.000000	97.680263
800.000000	97.680031
799.000000	97.685722
798.000000	97.706151
797.000000	97.715571
796.000000	97.693164
795.000000	97.657392
794.000000	97.633864
793.000000	97.617892
792.000000	97.595594
791.000000	97.573400
790.000000	97.559751
789.000000	97.544664
788.000000	97.523630
787.000000	97.514893
786.000000	97.527075
785.000000	97.536347
784.000000	97.521605
783.000000	97.496640
782.000000	97.483203
781.000000	97.479214
780.000000	97.477847
779.000000	97.489061
778.000000	97.514913
777.000000	97.531209
776.000000	97.522210
775.000000	97.507757
774.000000	97.508809
773.000000	97.512744
772.000000	97.501043
771.000000	97.484167
770.000000	97.478934
769.000000	97.476367
768.000000	97.462877
767.000000	97.450054
766.000000	97.452531
765.000000	97.457649
764.000000	97.446591
763.000000	97.426336
762.000000	97.413188
761.000000	97.404791
760.000000	97.393828
759.000000	97.388051
758.000000	97.391355
757.000000	97.386821
756.000000	97.363194
755.000000	97.336742
754.000000	97.324001
753.000000	97.315925
752.000000	97.301057
751.000000	97.288294
750.000000	97.283496
749.000000	97.271019
748.000000	97.243735
747.000000	97.222577
746.000000	97.220267
745.000000	97.213907
744.000000	97.182074
743.000000	97.141184
742.000000	97.115226
741.000000	97.096587
740.000000	97.067154
739.000000	97.033036
738.000000	97.007437
737.000000	96.983363
736.000000	96.951352
735.000000	96.919933
734.000000	96.889958
733.000000	96.834769
732.000000	96.736662
731.000000	96.620452
730.000000	96.519900
729.000000	96.430867
728.000000	96.330717
727.000000	96.220672
726.000000	96.115449
725.000000	96.014759
724.000000	95.915143
723.000000	95.826766
722.000000	95.753154
721.000000	95.680739
720.000000	95.614993
719.000000	95.592426
718.000000	95.621947
717.000000	95.643037
716.000000	95.578097
715.000000	95.413434
714.000000	95.207913
713.000000	95.041712
712.000000	94.974190
711.000000	95.020386
710.000000	95.136772
709.000000	95.247820
708.000000	95.311863
707.000000	95.347923
706.000000	95.380883
705.000000	95.398283
704.000000	95.385598
703.000000	95.358922
702.000000	95.334623
701.000000	95.302092
700.000000	95.255762
699.000000	95.224184
698.000000	95.229888
697.000000	95.251435
696.000000	95.260779
695.000000	95.261976
694.000000	95.268937
693.000000	95.273350
692.000000	95.262851
691.000000	95.250033
690.000000	95.245030
689.000000	95.229834
688.000000	95.190109
687.000000	95.139425
686.000000	95.088618
685.000000	95.022644
684.000000	94.933921
683.000000	94.849731
682.000000	94.793163
681.000000	94.746736
680.000000	94.680039
679.000000	94.587957
678.000000	94.476023
677.000000	94.331433
676.000000	94.156188
675.000000	93.988013
674.000000	93.855212
673.000000	93.747309
672.000000	93.655381
671.000000	93.600759
670.000000	93.595593
669.000000	93.603763
668.000000	93.524523
667.000000	93.386508
666.000000	93.385975
665.000000	93.465426
664.000000	93.512572
663.000000	93.548667
662.000000	93.617089
661.000000	93.704003
660.000000	93.770064
659.000000	93.819543
658.000000	93.867291
657.000000	93.887464
656.000000	93.869620
655.000000	93.863088
654.000000	93.898963
653.000000	93.930063
652.000000	93.912262
651.000000	93.875552
650.000000	93.862833
649.000000	93.858061
648.000000	93.838012
647.000000	93.827715
646.000000	93.845334
645.000000	93.859956
644.000000	93.851077
643.000000	93.846435
642.000000	93.863696
641.000000	93.871393
640.000000	93.850315
639.000000	93.834360
638.000000	93.841493
637.000000	93.832947
636.000000	93.788241
635.000000	93.749064
634.000000	93.742403
633.000000	93.730937
632.000000	93.685504
631.000000	93.640031
630.000000	93.624487
629.000000	93.611318
628.000000	93.580615
627.000000	93.567511
626.000000	93.588849
625.000000	93.595153
624.000000	93.551767
623.000000	93.496182
622.000000	93.466764
621.000000	93.443792
620.000000	93.411611
619.000000	93.406126
618.000000	93.444431
617.000000	93.474257
616.000000	93.454168
615.000000	93.417865
614.000000	93.398080
613.000000	93.362373
612.000000	93.284300
611.000000	93.206341
610.000000	93.164058
609.000000	93.118008
608.000000	93.025791
607.000000	92.915119
606.000000	92.820497
605.000000	92.722531
604.000000	92.612459
603.000000	92.539811
602.000000	92.530004
601.000000	92.528375
600.000000	92.494595
599.000000	92.475036
598.000000	92.516961
597.000000	92.585713
596.000000	92.638212
595.000000	92.698452
594.000000	92.792305
593.000000	92.878261
592.000000	92.914752
591.000000	92.932875
590.000000	92.969440
589.000000	92.999292
588.000000	93.003252
587.000000	93.025773
586.000000	93.096501
585.000000	93.167053
584.000000	93.195038
583.000000	93.216036
582.000000	93.259718
581.000000	93.276469
580.000000	93.228612
579.000000	93.176466
578.000000	93.188845
577.000000	93.241089
576.000000	93.277939
575.000000	93.304131
574.000000	93.336636
573.000000	93.340834
572.000000	93.296414
571.000000	93.252277
570.000000	93.243110
569.000000	93.221033
568.000000	93.149114
567.000000	93.081299
566.000000	93.064790
565.000000	93.051809
564.000000	92.994669
563.000000	92.937385
562.000000	92.929860
561.000000	92.936283
560.000000	92.915426
559.000000	92.906508
558.000000	92.943802
557.000000	92.976820
556.000000	92.966735
555.000000	92.969271
554.000000	93.023837
553.000000	93.061521
552.000000	93.028585
551.000000	93.000178
550.000000	93.060796
549.000000	93.161340
548.000000	93.217891
547.000000	93.259477
546.000000	93.353881
545.000000	93.467725
544.000000	93.529947
543.000000	93.556605
542.000000	93.594321
541.000000	93.613616
540.000000	93.568523
539.000000	93.493005
538.000000	93.436694
537.000000	93.374976
536.000000	93.277304
535.000000	93.189443
534.000000	93.150953
533.000000	93.110366
532.000000	93.027232
531.000000	92.966123
530.000000	92.985166
529.000000	93.028451
528.000000	93.033654
527.000000	93.045161
526.000000	93.114131
525.000000	93.178197
524.000000	93.176963
523.000000	93.176284
522.000000	93.251698
521.000000	93.364517
520.000000	93.450447
519.000000	93.537412
518.000000	93.664535
517.000000	93.771897
516.000000	93.812360
515.000000	93.857191
514.000000	93.958299
513.000000	94.041186
512.000000	94.044306
511.000000	94.046509
510.000000	94.139139
509.000000	94.273500
508.000000	94.363888
507.000000	94.432156
506.000000	94.523217
505.000000	94.589480
504.000000	94.594420
503.000000	94.623378
502.000000	94.752514
501.000000	94.904358
500.000000	94.988378
499.000000	95.044771
498.000000	95.118932
497.000000	95.147351
496.000000	95.089664
495.000000	95.045581
494.000000	95.101036
493.000000	95.171039
492.000000	95.143356
491.000000	95.074642
490.000000	95.086519
489.000000	95.170210
488.000000	95.257766
487.000000	95.359163
486.000000	95.489661
485.000000	95.577357
484.000000	95.581860
483.000000	95.593393
482.000000	95.665900
481.000000	95.710600
480.000000	95.685270
479.000000	95.710215
478.000000	95.857767
477.000000	95.981494
476.000000	95.930149
475.000000	95.785688
474.000000	95.714757
473.000000	95.720407
472.000000	95.729532
471.000000	95.802819
470.000000	95.997465
469.000000	96.183809
468.000000	96.228993
467.000000	96.205621
466.000000	96.245002
465.000000	96.301240
464.000000	96.285000
463.000000	96.273921
462.000000	96.364008
461.000000	96.454568
460.000000	96.419486
459.000000	96.376644
458.000000	96.546568
457.000000	96.865078
456.000000	97.086176
455.000000	97.198321
454.000000	97.309641
453.000000	97.401818
452.000000	97.435371
451.000000	97.531310
450.000000	97.780401
