PE IR       SUBTECH     SPECTRUM    ASCII       PEDS        4.00        
   -1
11753-Hull01-F002_1.ASC
23/09/13
11:20:21.00
23/09/13
11:33:37.00
uco
Sample 002 By uco Date Wednesday, September 13 2023
450.000000
#HDR
-1
-1
#GR
cm-1
%T
1.0
0.0
4000.000000
-1.000000
3551
8
99.076824
87.429721
#DATA
4000.000000	98.917941
3999.000000	98.917046
3998.000000	98.919922
3997.000000	98.925777
3996.000000	98.931772
3995.000000	98.901222
3994.000000	98.902108
3993.000000	98.904518
3992.000000	98.909931
3991.000000	98.918268
3990.000000	98.927192
3989.000000	98.933025
3988.000000	98.933372
3987.000000	98.928644
3986.000000	98.921332
3985.000000	98.913822
3984.000000	98.907111
3983.000000	98.901384
3982.000000	98.896995
3981.000000	98.894474
3980.000000	98.893969
3979.000000	98.895101
3978.000000	98.897197
3977.000000	98.899368
3976.000000	98.900306
3975.000000	98.898625
3974.000000	98.894041
3973.000000	98.888182
3972.000000	98.883865
3971.000000	98.882922
3970.000000	98.884761
3969.000000	98.886711
3968.000000	98.885931
3967.000000	98.881882
3966.000000	98.876870
3965.000000	98.874273
3964.000000	98.875812
3963.000000	98.880385
3962.000000	98.885444
3961.000000	98.889193
3960.000000	98.891617
3959.000000	98.892972
3958.000000	98.892538
3957.000000	98.889073
3956.000000	98.881824
3955.000000	98.871607
3954.000000	98.860859
3953.000000	98.853231
3952.000000	98.852364
3951.000000	98.859961
3950.000000	98.874419
3949.000000	98.890124
3948.000000	98.900005
3947.000000	98.900148
3946.000000	98.891381
3945.000000	98.878326
3944.000000	98.867103
3943.000000	98.861573
3942.000000	98.861353
3941.000000	98.862976
3940.000000	98.863351
3939.000000	98.861951
3938.000000	98.860862
3937.000000	98.862591
3936.000000	98.866923
3935.000000	98.871256
3934.000000	98.873137
3933.000000	98.871605
3932.000000	98.867429
3931.000000	98.862592
3930.000000	98.859596
3929.000000	98.858903
3928.000000	98.858228
3927.000000	98.856300
3926.000000	98.854700
3925.000000	98.855735
3924.000000	98.859418
3923.000000	98.864301
3922.000000	98.869816
3921.000000	98.876580
3920.000000	98.884290
3919.000000	98.890147
3918.000000	98.889755
3917.000000	98.881424
3916.000000	98.868829
3915.000000	98.857463
3914.000000	98.850666
3913.000000	98.848687
3912.000000	98.850184
3911.000000	98.852003
3910.000000	98.850678
3909.000000	98.844715
3908.000000	98.835555
3907.000000	98.828628
3906.000000	98.831741
3905.000000	98.849921
3904.000000	98.877469
3903.000000	98.898318
3902.000000	98.900304
3901.000000	98.885595
3900.000000	98.865808
3899.000000	98.852457
3898.000000	98.849014
3897.000000	98.851209
3896.000000	98.854020
3895.000000	98.855077
3894.000000	98.855521
3893.000000	98.857531
3892.000000	98.860909
3891.000000	98.862734
3890.000000	98.862530
3889.000000	98.861197
3888.000000	98.858700
3887.000000	98.856598
3886.000000	98.856879
3885.000000	98.858831
3884.000000	98.860026
3883.000000	98.858655
3882.000000	98.855760
3881.000000	98.854138
3880.000000	98.853681
3879.000000	98.852028
3878.000000	98.846786
3877.000000	98.836583
3876.000000	98.823850
3875.000000	98.815656
3874.000000	98.817757
3873.000000	98.827659
3872.000000	98.837390
3871.000000	98.841542
3870.000000	98.840866
3869.000000	98.840576
3868.000000	98.844146
3867.000000	98.848660
3866.000000	98.850016
3865.000000	98.848945
3864.000000	98.848632
3863.000000	98.850771
3862.000000	98.855626
3861.000000	98.861364
3860.000000	98.863853
3859.000000	98.860590
3858.000000	98.852266
3857.000000	98.843008
3856.000000	98.838557
3855.000000	98.842471
3854.000000	98.854808
3853.000000	98.858627
3852.000000	98.848002
3851.000000	98.839681
3850.000000	98.840726
3849.000000	98.844760
3848.000000	98.846015
3847.000000	98.841937
3846.000000	98.834682
3845.000000	98.829774
3844.000000	98.832087
3843.000000	98.842276
3842.000000	98.857134
3841.000000	98.870785
3840.000000	98.878263
3839.000000	98.876956
3838.000000	98.867033
3837.000000	98.854542
3836.000000	98.846551
3835.000000	98.844861
3834.000000	98.847073
3833.000000	98.850081
3832.000000	98.851229
3831.000000	98.849742
3830.000000	98.846345
3829.000000	98.842851
3828.000000	98.840995
3827.000000	98.841709
3826.000000	98.845628
3825.000000	98.851663
3824.000000	98.856913
3823.000000	98.858424
3822.000000	98.858944
3821.000000	98.862730
3820.000000	98.867194
3819.000000	98.868366
3818.000000	98.864581
3817.000000	98.857695
3816.000000	98.849982
3815.000000	98.843596
3814.000000	98.840400
3813.000000	98.839994
3812.000000	98.841348
3811.000000	98.843581
3810.000000	98.846512
3809.000000	98.850236
3808.000000	98.854611
3807.000000	98.857823
3806.000000	98.858313
3805.000000	98.855492
3804.000000	98.849028
3803.000000	98.838757
3802.000000	98.828665
3801.000000	98.824850
3800.000000	98.832512
3799.000000	98.847578
3798.000000	98.860065
3797.000000	98.862720
3796.000000	98.855502
3795.000000	98.844969
3794.000000	98.837819
3793.000000	98.836145
3792.000000	98.837197
3791.000000	98.836709
3790.000000	98.832961
3789.000000	98.827689
3788.000000	98.822639
3787.000000	98.817695
3786.000000	98.812370
3785.000000	98.807673
3784.000000	98.805435
3783.000000	98.805773
3782.000000	98.807028
3781.000000	98.808481
3780.000000	98.811452
3779.000000	98.815540
3778.000000	98.818627
3777.000000	98.819535
3776.000000	98.818888
3775.000000	98.818269
3774.000000	98.820003
3773.000000	98.825729
3772.000000	98.834190
3771.000000	98.841467
3770.000000	98.844329
3769.000000	98.844545
3768.000000	98.846556
3767.000000	98.851651
3766.000000	98.856023
3765.000000	98.855170
3764.000000	98.848911
3763.000000	98.840296
3762.000000	98.832698
3761.000000	98.829166
3760.000000	98.831401
3759.000000	98.836081
3758.000000	98.839275
3757.000000	98.842336
3756.000000	98.847920
3755.000000	98.855681
3754.000000	98.865616
3753.000000	98.881214
3752.000000	98.903885
3751.000000	98.923228
3750.000000	98.925929
3749.000000	98.916205
3748.000000	98.903216
3747.000000	98.886667
3746.000000	98.863309
3745.000000	98.836260
3744.000000	98.816208
3743.000000	98.816020
3742.000000	98.835481
3741.000000	98.863507
3740.000000	98.888753
3739.000000	98.903921
3738.000000	98.906494
3737.000000	98.904318
3736.000000	98.909663
3735.000000	98.925415
3734.000000	98.943468
3733.000000	98.951811
3732.000000	98.943267
3731.000000	98.921418
3730.000000	98.896418
3729.000000	98.876405
3728.000000	98.864265
3727.000000	98.859469
3726.000000	98.859117
3725.000000	98.860265
3724.000000	98.861755
3723.000000	98.864134
3722.000000	98.868726
3721.000000	98.874405
3720.000000	98.878710
3719.000000	98.879041
3718.000000	98.874770
3717.000000	98.868281
3716.000000	98.862543
3715.000000	98.858637
3714.000000	98.854299
3713.000000	98.846012
3712.000000	98.833773
3711.000000	98.822209
3710.000000	98.817554
3709.000000	98.822736
3708.000000	98.834194
3707.000000	98.846146
3706.000000	98.855120
3705.000000	98.859635
3704.000000	98.860749
3703.000000	98.861473
3702.000000	98.863301
3701.000000	98.863554
3700.000000	98.858844
3699.000000	98.849231
3698.000000	98.837732
3697.000000	98.827969
3696.000000	98.821152
3695.000000	98.814767
3694.000000	98.805670
3693.000000	98.794690
3692.000000	98.788266
3691.000000	98.793921
3690.000000	98.809827
3689.000000	98.820532
3688.000000	98.816061
3687.000000	98.804550
3686.000000	98.794922
3685.000000	98.788145
3684.000000	98.783039
3683.000000	98.778598
3682.000000	98.773920
3681.000000	98.768822
3680.000000	98.763549
3679.000000	98.758174
3678.000000	98.753568
3677.000000	98.751199
3676.000000	98.751609
3675.000000	98.749880
3674.000000	98.747655
3673.000000	98.747640
3672.000000	98.746554
3671.000000	98.739323
3670.000000	98.725478
3669.000000	98.711512
3668.000000	98.706036
3667.000000	98.707831
3666.000000	98.709432
3665.000000	98.705493
3664.000000	98.695140
3663.000000	98.680342
3662.000000	98.665499
3661.000000	98.655967
3660.000000	98.653526
3659.000000	98.655078
3658.000000	98.655315
3657.000000	98.650451
3656.000000	98.639705
3655.000000	98.625635
3654.000000	98.611191
3653.000000	98.596500
3652.000000	98.583354
3651.000000	98.579234
3650.000000	98.587184
3649.000000	98.588969
3648.000000	98.569308
3647.000000	98.541518
3646.000000	98.521894
3645.000000	98.511584
3644.000000	98.505250
3643.000000	98.498668
3642.000000	98.490237
3641.000000	98.479738
3640.000000	98.466056
3639.000000	98.448457
3638.000000	98.429454
3637.000000	98.413749
3636.000000	98.404207
3635.000000	98.400164
3634.000000	98.399880
3633.000000	98.401820
3632.000000	98.403424
3631.000000	98.400484
3630.000000	98.389900
3629.000000	98.369487
3628.000000	98.342030
3627.000000	98.320480
3626.000000	98.309459
3625.000000	98.304483
3624.000000	98.301040
3623.000000	98.297312
3622.000000	98.291826
3621.000000	98.281833
3620.000000	98.262701
3619.000000	98.232113
3618.000000	98.197271
3617.000000	98.171407
3616.000000	98.159202
3615.000000	98.154112
3614.000000	98.146595
3613.000000	98.132166
3612.000000	98.114822
3611.000000	98.100025
3610.000000	98.086651
3609.000000	98.068783
3608.000000	98.044474
3607.000000	98.019725
3606.000000	98.002291
3605.000000	97.993313
3604.000000	97.986707
3603.000000	97.975856
3602.000000	97.957975
3601.000000	97.934748
3600.000000	97.910406
3599.000000	97.888631
3598.000000	97.869865
3597.000000	97.852629
3596.000000	97.834913
3595.000000	97.815031
3594.000000	97.793641
3593.000000	97.773532
3592.000000	97.756949
3591.000000	97.742950
3590.000000	97.729097
3589.000000	97.713518
3588.000000	97.692677
3587.000000	97.661732
3586.000000	97.626864
3585.000000	97.598800
3584.000000	97.578092
3583.000000	97.558673
3582.000000	97.536850
3581.000000	97.513218
3580.000000	97.489644
3579.000000	97.465956
3578.000000	97.440689
3577.000000	97.413916
3576.000000	97.387919
3575.000000	97.364692
3574.000000	97.344313
3573.000000	97.325630
3572.000000	97.306525
3571.000000	97.284852
3570.000000	97.260354
3569.000000	97.236749
3568.000000	97.216368
3567.000000	97.193497
3566.000000	97.164337
3565.000000	97.137193
3564.000000	97.116227
3563.000000	97.095110
3562.000000	97.067741
3561.000000	97.035139
3560.000000	97.002431
3559.000000	96.972699
3558.000000	96.944908
3557.000000	96.917763
3556.000000	96.892539
3555.000000	96.871213
3554.000000	96.852819
3553.000000	96.833323
3552.000000	96.809246
3551.000000	96.781380
3550.000000	96.753878
3549.000000	96.730740
3548.000000	96.713599
3547.000000	96.699394
3546.000000	96.680308
3545.000000	96.650604
3544.000000	96.613350
3543.000000	96.576622
3542.000000	96.546291
3541.000000	96.522775
3540.000000	96.502591
3539.000000	96.482136
3538.000000	96.459994
3537.000000	96.436842
3536.000000	96.413109
3535.000000	96.388739
3534.000000	96.364316
3533.000000	96.341399
3532.000000	96.321752
3531.000000	96.306359
3530.000000	96.295093
3529.000000	96.286526
3528.000000	96.278038
3527.000000	96.267125
3526.000000	96.252738
3525.000000	96.234207
3524.000000	96.210292
3523.000000	96.181639
3522.000000	96.153484
3521.000000	96.132617
3520.000000	96.120864
3519.000000	96.113900
3518.000000	96.105938
3517.000000	96.094590
3516.000000	96.081067
3515.000000	96.067045
3514.000000	96.053220
3513.000000	96.039823
3512.000000	96.027341
3511.000000	96.016723
3510.000000	96.008748
3509.000000	96.002626
3508.000000	95.995395
3507.000000	95.984182
3506.000000	95.969553
3505.000000	95.956179
3504.000000	95.947891
3503.000000	95.942831
3502.000000	95.935988
3501.000000	95.924938
3500.000000	95.910437
3499.000000	95.893625
3498.000000	95.875607
3497.000000	95.858237
3496.000000	95.843748
3495.000000	95.832988
3494.000000	95.824617
3493.000000	95.816064
3492.000000	95.805256
3491.000000	95.792200
3490.000000	95.778938
3489.000000	95.767050
3488.000000	95.755542
3487.000000	95.742432
3486.000000	95.728129
3485.000000	95.715456
3484.000000	95.706110
3483.000000	95.698660
3482.000000	95.690563
3481.000000	95.681142
3480.000000	95.671574
3479.000000	95.663047
3478.000000	95.655966
3477.000000	95.650177
3476.000000	95.644917
3475.000000	95.639203
3474.000000	95.632861
3473.000000	95.626153
3472.000000	95.618065
3471.000000	95.606785
3470.000000	95.592936
3469.000000	95.580338
3468.000000	95.572234
3467.000000	95.567860
3466.000000	95.563633
3465.000000	95.556544
3464.000000	95.545083
3463.000000	95.528675
3462.000000	95.508516
3461.000000	95.488175
3460.000000	95.471234
3459.000000	95.458202
3458.000000	95.446886
3457.000000	95.435676
3456.000000	95.424736
3455.000000	95.414747
3454.000000	95.405715
3453.000000	95.397108
3452.000000	95.388384
3451.000000	95.379222
3450.000000	95.370255
3449.000000	95.362920
3448.000000	95.357484
3447.000000	95.351738
3446.000000	95.343369
3445.000000	95.332278
3444.000000	95.319121
3443.000000	95.303359
3442.000000	95.284519
3441.000000	95.264301
3440.000000	95.245117
3439.000000	95.227235
3438.000000	95.209169
3437.000000	95.190601
3436.000000	95.172775
3435.000000	95.156505
3434.000000	95.141433
3433.000000	95.127134
3432.000000	95.113584
3431.000000	95.100184
3430.000000	95.086285
3429.000000	95.072365
3428.000000	95.059207
3427.000000	95.045942
3426.000000	95.030311
3425.000000	95.011047
3424.000000	94.988786
3423.000000	94.964839
3422.000000	94.940020
3421.000000	94.914430
3420.000000	94.887512
3419.000000	94.858976
3418.000000	94.830634
3417.000000	94.806168
3416.000000	94.787792
3415.000000	94.773568
3414.000000	94.759318
3413.000000	94.742675
3412.000000	94.723869
3411.000000	94.703593
3410.000000	94.682211
3409.000000	94.660646
3408.000000	94.640112
3407.000000	94.621149
3406.000000	94.604053
3405.000000	94.589803
3404.000000	94.578821
3403.000000	94.569362
3402.000000	94.558723
3401.000000	94.545606
3400.000000	94.530346
3399.000000	94.513687
3398.000000	94.497163
3397.000000	94.483761
3396.000000	94.475794
3395.000000	94.471924
3394.000000	94.468065
3393.000000	94.461456
3392.000000	94.452709
3391.000000	94.443797
3390.000000	94.435310
3389.000000	94.426397
3388.000000	94.416504
3387.000000	94.406614
3386.000000	94.398974
3385.000000	94.395428
3384.000000	94.395388
3383.000000	94.395756
3382.000000	94.393338
3381.000000	94.387039
3380.000000	94.377606
3379.000000	94.365979
3378.000000	94.352790
3377.000000	94.338898
3376.000000	94.325646
3375.000000	94.314518
3374.000000	94.306474
3373.000000	94.300914
3372.000000	94.295152
3371.000000	94.285948
3370.000000	94.272229
3369.000000	94.255632
3368.000000	94.238038
3367.000000	94.219813
3366.000000	94.201131
3365.000000	94.183501
3364.000000	94.168103
3363.000000	94.153373
3362.000000	94.135793
3361.000000	94.113113
3360.000000	94.086118
3359.000000	94.057921
3358.000000	94.032419
3357.000000	94.012548
3356.000000	93.998196
3355.000000	93.985520
3354.000000	93.969552
3353.000000	93.947995
3352.000000	93.922279
3351.000000	93.895336
3350.000000	93.869094
3349.000000	93.843746
3348.000000	93.818531
3347.000000	93.793126
3346.000000	93.768257
3345.000000	93.744738
3344.000000	93.721934
3343.000000	93.698072
3342.000000	93.672709
3341.000000	93.647906
3340.000000	93.626102
3339.000000	93.607333
3338.000000	93.589205
3337.000000	93.569208
3336.000000	93.546678
3335.000000	93.523025
3334.000000	93.500399
3333.000000	93.479653
3332.000000	93.459379
3331.000000	93.437544
3330.000000	93.414038
3329.000000	93.390660
3328.000000	93.368707
3327.000000	93.348210
3326.000000	93.329617
3325.000000	93.314007
3324.000000	93.300474
3323.000000	93.285236
3322.000000	93.265388
3321.000000	93.242396
3320.000000	93.220446
3319.000000	93.202498
3318.000000	93.189021
3317.000000	93.179042
3316.000000	93.170513
3315.000000	93.160663
3314.000000	93.148443
3313.000000	93.136514
3312.000000	93.128675
3311.000000	93.125230
3310.000000	93.122341
3309.000000	93.116148
3308.000000	93.106538
3307.000000	93.096716
3306.000000	93.089975
3305.000000	93.086836
3304.000000	93.084255
3303.000000	93.077710
3302.000000	93.065021
3301.000000	93.048398
3300.000000	93.032355
3299.000000	93.020088
3298.000000	93.012201
3297.000000	93.007606
3296.000000	93.004599
3295.000000	93.001600
3294.000000	92.998005
3293.000000	92.994268
3292.000000	92.990572
3291.000000	92.986220
3290.000000	92.981098
3289.000000	92.976820
3288.000000	92.975249
3287.000000	92.976337
3286.000000	92.978514
3285.000000	92.980786
3284.000000	92.983527
3283.000000	92.987443
3282.000000	92.992420
3281.000000	92.997487
3280.000000	93.001915
3279.000000	93.006779
3278.000000	93.015036
3277.000000	93.028716
3276.000000	93.046012
3275.000000	93.062742
3274.000000	93.076729
3273.000000	93.088654
3272.000000	93.098591
3271.000000	93.104801
3270.000000	93.107433
3269.000000	93.110387
3268.000000	93.117057
3267.000000	93.126337
3266.000000	93.135389
3265.000000	93.144697
3264.000000	93.157232
3263.000000	93.173584
3262.000000	93.191252
3261.000000	93.208610
3260.000000	93.226717
3259.000000	93.246460
3258.000000	93.266129
3257.000000	93.283123
3256.000000	93.296834
3255.000000	93.309170
3254.000000	93.322641
3253.000000	93.338209
3252.000000	93.354691
3251.000000	93.370328
3250.000000	93.385149
3249.000000	93.400767
3248.000000	93.417280
3247.000000	93.431798
3246.000000	93.441482
3245.000000	93.447432
3244.000000	93.454009
3243.000000	93.464455
3242.000000	93.478608
3241.000000	93.494345
3240.000000	93.509845
3239.000000	93.524526
3238.000000	93.538837
3237.000000	93.553274
3236.000000	93.567042
3235.000000	93.578443
3234.000000	93.587223
3233.000000	93.595575
3232.000000	93.605840
3231.000000	93.618004
3230.000000	93.630734
3229.000000	93.643677
3228.000000	93.656947
3227.000000	93.669277
3226.000000	93.679021
3225.000000	93.687045
3224.000000	93.696765
3223.000000	93.710558
3222.000000	93.727220
3221.000000	93.743333
3220.000000	93.756334
3219.000000	93.766221
3218.000000	93.774893
3217.000000	93.784186
3216.000000	93.794447
3215.000000	93.805142
3214.000000	93.816991
3213.000000	93.832282
3212.000000	93.852013
3211.000000	93.873304
3210.000000	93.891125
3209.000000	93.902639
3208.000000	93.908948
3207.000000	93.913092
3206.000000	93.917663
3205.000000	93.924436
3204.000000	93.934716
3203.000000	93.949110
3202.000000	93.967305
3201.000000	93.988009
3200.000000	94.008677
3199.000000	94.025983
3198.000000	94.038051
3197.000000	94.046737
3196.000000	94.056834
3195.000000	94.072280
3194.000000	94.093271
3193.000000	94.116718
3192.000000	94.138818
3191.000000	94.157478
3190.000000	94.173251
3189.000000	94.188580
3188.000000	94.206050
3187.000000	94.227059
3186.000000	94.251564
3185.000000	94.278192
3184.000000	94.304431
3183.000000	94.327785
3182.000000	94.347622
3181.000000	94.365428
3180.000000	94.382657
3179.000000	94.398919
3178.000000	94.413161
3177.000000	94.426151
3176.000000	94.440493
3175.000000	94.458342
3174.000000	94.479918
3173.000000	94.503980
3172.000000	94.528582
3171.000000	94.551536
3170.000000	94.571332
3169.000000	94.588049
3168.000000	94.602993
3167.000000	94.617323
3166.000000	94.631578
3165.000000	94.646318
3164.000000	94.662279
3163.000000	94.679770
3162.000000	94.698570
3161.000000	94.718750
3160.000000	94.740896
3159.000000	94.765015
3158.000000	94.789421
3157.000000	94.811057
3156.000000	94.827270
3155.000000	94.838052
3154.000000	94.847027
3153.000000	94.859649
3152.000000	94.879204
3151.000000	94.904277
3150.000000	94.930200
3149.000000	94.952817
3148.000000	94.970730
3147.000000	94.985009
3146.000000	94.998048
3145.000000	95.012428
3144.000000	95.029543
3143.000000	95.048676
3142.000000	95.067660
3141.000000	95.084498
3140.000000	95.098371
3139.000000	95.109571
3138.000000	95.119096
3137.000000	95.128077
3136.000000	95.137195
3135.000000	95.146730
3134.000000	95.157270
3133.000000	95.169703
3132.000000	95.183916
3131.000000	95.198013
3130.000000	95.209778
3129.000000	95.218790
3128.000000	95.226534
3127.000000	95.234634
3126.000000	95.243782
3125.000000	95.254022
3124.000000	95.264858
3123.000000	95.275028
3122.000000	95.283370
3121.000000	95.290243
3120.000000	95.296909
3119.000000	95.303155
3118.000000	95.306546
3117.000000	95.304866
3116.000000	95.298746
3115.000000	95.291491
3114.000000	95.286749
3113.000000	95.286583
3112.000000	95.290698
3111.000000	95.296179
3110.000000	95.298366
3109.000000	95.293391
3108.000000	95.280874
3107.000000	95.264265
3106.000000	95.248753
3105.000000	95.238518
3104.000000	95.235052
3103.000000	95.236946
3102.000000	95.240944
3101.000000	95.243615
3100.000000	95.242915
3099.000000	95.239005
3098.000000	95.233737
3097.000000	95.228691
3096.000000	95.223351
3095.000000	95.215733
3094.000000	95.205196
3093.000000	95.193825
3092.000000	95.184252
3091.000000	95.176812
3090.000000	95.169720
3089.000000	95.161602
3088.000000	95.152953
3087.000000	95.145381
3086.000000	95.140527
3085.000000	95.139430
3084.000000	95.141624
3083.000000	95.144731
3082.000000	95.145934
3081.000000	95.144267
3080.000000	95.140643
3079.000000	95.135734
3078.000000	95.129112
3077.000000	95.121119
3076.000000	95.114321
3075.000000	95.111846
3074.000000	95.114458
3073.000000	95.120129
3072.000000	95.126605
3071.000000	95.133470
3070.000000	95.141356
3069.000000	95.149529
3068.000000	95.155329
3067.000000	95.156741
3066.000000	95.155164
3065.000000	95.154748
3064.000000	95.158731
3063.000000	95.167273
3062.000000	95.179051
3061.000000	95.193715
3060.000000	95.211805
3059.000000	95.233116
3058.000000	95.256227
3057.000000	95.279442
3056.000000	95.301413
3055.000000	95.321121
3054.000000	95.338179
3053.000000	95.353041
3052.000000	95.366495
3051.000000	95.379129
3050.000000	95.391704
3049.000000	95.405580
3048.000000	95.421988
3047.000000	95.441012
3046.000000	95.461754
3045.000000	95.483191
3044.000000	95.504574
3043.000000	95.525455
3042.000000	95.545887
3041.000000	95.566172
3040.000000	95.585882
3039.000000	95.603759
3038.000000	95.619162
3037.000000	95.633326
3036.000000	95.648617
3035.000000	95.666753
3034.000000	95.687799
3033.000000	95.710065
3032.000000	95.730443
3031.000000	95.745933
3030.000000	95.756135
3029.000000	95.763981
3028.000000	95.773266
3027.000000	95.785325
3026.000000	95.798549
3025.000000	95.810599
3024.000000	95.820440
3023.000000	95.828701
3022.000000	95.836995
3021.000000	95.846789
3020.000000	95.857806
3019.000000	95.867381
3018.000000	95.872225
3017.000000	95.871213
3016.000000	95.866224
3015.000000	95.860646
3014.000000	95.857465
3013.000000	95.857960
3012.000000	95.860776
3011.000000	95.862235
3010.000000	95.858881
3009.000000	95.850476
3008.000000	95.840457
3007.000000	95.833412
3006.000000	95.832174
3005.000000	95.836385
3004.000000	95.842853
3003.000000	95.847562
3002.000000	95.848512
3001.000000	95.847027
3000.000000	95.846010
2999.000000	95.847324
2998.000000	95.851134
2997.000000	95.856711
2996.000000	95.861984
2995.000000	95.862686
2994.000000	95.854220
2993.000000	95.835765
2992.000000	95.811660
2991.000000	95.787434
2990.000000	95.764920
2989.000000	95.741656
2988.000000	95.714626
2987.000000	95.683474
2986.000000	95.649972
2985.000000	95.615450
2984.000000	95.579772
2983.000000	95.542866
2982.000000	95.506092
2981.000000	95.470897
2980.000000	95.436265
2979.000000	95.398717
2978.000000	95.355714
2977.000000	95.308404
2976.000000	95.260074
2975.000000	95.212137
2974.000000	95.162301
2973.000000	95.106378
2972.000000	95.041287
2971.000000	94.966420
2970.000000	94.883155
2969.000000	94.793322
2968.000000	94.697946
2967.000000	94.597634
2966.000000	94.494275
2965.000000	94.391652
2964.000000	94.293116
2963.000000	94.199042
2962.000000	94.107700
2961.000000	94.018989
2960.000000	93.936229
2959.000000	93.863604
2958.000000	93.802861
2957.000000	93.753345
2956.000000	93.715351
2955.000000	93.692203
2954.000000	93.687962
2953.000000	93.702356
2952.000000	93.727884
2951.000000	93.752832
2950.000000	93.767203
2949.000000	93.766062
2948.000000	93.747685
2947.000000	93.710746
2946.000000	93.654462
2945.000000	93.580017
2944.000000	93.489967
2943.000000	93.385763
2942.000000	93.267322
2941.000000	93.134506
2940.000000	92.987643
2939.000000	92.826452
2938.000000	92.649891
2937.000000	92.458214
2936.000000	92.253875
2935.000000	92.039747
2934.000000	91.817214
2933.000000	91.586882
2932.000000	91.350873
2931.000000	91.113184
2930.000000	90.877626
2929.000000	90.645446
2928.000000	90.415436
2927.000000	90.187396
2926.000000	89.965930
2925.000000	89.760416
2924.000000	89.579689
2923.000000	89.427483
2922.000000	89.304102
2921.000000	89.212122
2920.000000	89.159724
2919.000000	89.158522
2918.000000	89.220809
2917.000000	89.358374
2916.000000	89.579486
2915.000000	89.882520
2914.000000	90.250080
2913.000000	90.650910
2912.000000	91.049537
2911.000000	91.418326
2910.000000	91.743692
2909.000000	92.024313
2908.000000	92.265347
2907.000000	92.473325
2906.000000	92.654434
2905.000000	92.814031
2904.000000	92.955954
2903.000000	93.082685
2902.000000	93.195533
2901.000000	93.297167
2900.000000	93.391584
2899.000000	93.482530
2898.000000	93.572567
2897.000000	93.663148
2896.000000	93.755103
2895.000000	93.848059
2894.000000	93.939909
2893.000000	94.027719
2892.000000	94.109756
2891.000000	94.186418
2890.000000	94.259061
2889.000000	94.328210
2888.000000	94.393125
2887.000000	94.452638
2886.000000	94.505884
2885.000000	94.552253
2884.000000	94.591275
2883.000000	94.622811
2882.000000	94.646845
2881.000000	94.662839
2880.000000	94.669669
2879.000000	94.666718
2878.000000	94.654697
2877.000000	94.634969
2876.000000	94.608587
2875.000000	94.577085
2874.000000	94.544342
2873.000000	94.516213
2872.000000	94.497343
2871.000000	94.488419
2870.000000	94.486419
2869.000000	94.486442
2868.000000	94.482672
2867.000000	94.468579
2866.000000	94.437699
2865.000000	94.384698
2864.000000	94.305387
2863.000000	94.196987
2862.000000	94.059511
2861.000000	93.896701
2860.000000	93.714085
2859.000000	93.515475
2858.000000	93.302085
2857.000000	93.075647
2856.000000	92.841974
2855.000000	92.610833
2854.000000	92.393939
2853.000000	92.204062
2852.000000	92.058069
2851.000000	91.981487
2850.000000	92.006252
2849.000000	92.157815
2848.000000	92.437347
2847.000000	92.814179
2846.000000	93.236901
2845.000000	93.655360
2844.000000	94.036214
2843.000000	94.365608
2842.000000	94.643360
2841.000000	94.875768
2840.000000	95.071314
2839.000000	95.237688
2838.000000	95.380541
2837.000000	95.503704
2836.000000	95.609465
2835.000000	95.698771
2834.000000	95.772652
2833.000000	95.834118
2832.000000	95.888133
2831.000000	95.939055
2830.000000	95.988288
2829.000000	96.034935
2828.000000	96.077891
2827.000000	96.116909
2826.000000	96.152690
2825.000000	96.186896
2824.000000	96.221483
2823.000000	96.256763
2822.000000	96.290342
2821.000000	96.319132
2820.000000	96.342483
2819.000000	96.362537
2818.000000	96.381527
2817.000000	96.399823
2816.000000	96.416948
2815.000000	96.433458
2814.000000	96.450850
2813.000000	96.469838
2812.000000	96.489483
2811.000000	96.508125
2810.000000	96.524688
2809.000000	96.538862
2808.000000	96.550509
2807.000000	96.559742
2806.000000	96.567799
2805.000000	96.576991
2804.000000	96.588791
2803.000000	96.602060
2802.000000	96.614147
2801.000000	96.624106
2800.000000	96.633967
2799.000000	96.646256
2798.000000	96.660926
2797.000000	96.675555
2796.000000	96.688222
2795.000000	96.699321
2794.000000	96.710585
2793.000000	96.723118
2792.000000	96.736546
2791.000000	96.749520
2790.000000	96.760713
2789.000000	96.769678
2788.000000	96.777178
2787.000000	96.784780
2786.000000	96.794008
2785.000000	96.805543
2784.000000	96.818730
2783.000000	96.831768
2782.000000	96.842933
2781.000000	96.852238
2780.000000	96.861634
2779.000000	96.872957
2778.000000	96.885741
2777.000000	96.897713
2776.000000	96.907506
2775.000000	96.916226
2774.000000	96.925948
2773.000000	96.937098
2772.000000	96.947933
2771.000000	96.956553
2770.000000	96.962895
2769.000000	96.968463
2768.000000	96.974454
2767.000000	96.980706
2766.000000	96.986598
2765.000000	96.992457
2764.000000	96.999497
2763.000000	97.008547
2762.000000	97.019413
2761.000000	97.031449
2760.000000	97.043949
2759.000000	97.055653
2758.000000	97.064643
2757.000000	97.069663
2756.000000	97.071589
2755.000000	97.073176
2754.000000	97.077209
2753.000000	97.084929
2752.000000	97.095738
2751.000000	97.107639
2750.000000	97.117862
2749.000000	97.123922
2748.000000	97.125335
2747.000000	97.124680
2746.000000	97.126241
2745.000000	97.132539
2744.000000	97.142087
2743.000000	97.151336
2742.000000	97.158942
2741.000000	97.166929
2740.000000	97.176889
2739.000000	97.186427
2738.000000	97.191216
2737.000000	97.190320
2736.000000	97.187599
2735.000000	97.187460
2734.000000	97.190835
2733.000000	97.196130
2732.000000	97.202584
2731.000000	97.211108
2730.000000	97.222262
2729.000000	97.234611
2728.000000	97.245191
2727.000000	97.251318
2726.000000	97.252473
2725.000000	97.251167
2724.000000	97.251628
2723.000000	97.256738
2722.000000	97.265891
2721.000000	97.275731
2720.000000	97.282777
2719.000000	97.285721
2718.000000	97.286269
2717.000000	97.288223
2716.000000	97.294673
2715.000000	97.304985
2714.000000	97.314831
2713.000000	97.319960
2712.000000	97.319976
2711.000000	97.318226
2710.000000	97.318481
2709.000000	97.322055
2708.000000	97.327538
2707.000000	97.332563
2706.000000	97.335949
2705.000000	97.338530
2704.000000	97.341914
2703.000000	97.346627
2702.000000	97.351927
2701.000000	97.357168
2700.000000	97.362359
2699.000000	97.367395
2698.000000	97.371928
2697.000000	97.376266
2696.000000	97.381105
2695.000000	97.385871
2694.000000	97.388678
2693.000000	97.388702
2692.000000	97.387362
2691.000000	97.386334
2690.000000	97.385719
2689.000000	97.385289
2688.000000	97.386043
2687.000000	97.388857
2686.000000	97.392443
2685.000000	97.394366
2684.000000	97.393568
2683.000000	97.390584
2682.000000	97.386125
2681.000000	97.381127
2680.000000	97.377512
2679.000000	97.376857
2678.000000	97.378413
2677.000000	97.380240
2676.000000	97.382306
2675.000000	97.386605
2674.000000	97.393842
2673.000000	97.401699
2672.000000	97.407069
2671.000000	97.408790
2670.000000	97.407660
2669.000000	97.405154
2668.000000	97.403074
2667.000000	97.403296
2666.000000	97.406395
2665.000000	97.410608
2664.000000	97.412951
2663.000000	97.411598
2662.000000	97.407254
2661.000000	97.402458
2660.000000	97.399596
2659.000000	97.399100
2658.000000	97.399358
2657.000000	97.398555
2656.000000	97.396584
2655.000000	97.395001
2654.000000	97.395493
2653.000000	97.398976
2652.000000	97.405719
2651.000000	97.415395
2650.000000	97.426829
2649.000000	97.438352
2648.000000	97.448726
2647.000000	97.457479
2646.000000	97.464532
2645.000000	97.470048
2644.000000	97.474559
2643.000000	97.478674
2642.000000	97.482721
2641.000000	97.487029
2640.000000	97.492185
2639.000000	97.498394
2638.000000	97.504913
2637.000000	97.510895
2636.000000	97.516551
2635.000000	97.522656
2634.000000	97.529070
2633.000000	97.534559
2632.000000	97.538084
2631.000000	97.539694
2630.000000	97.540344
2629.000000	97.541594
2628.000000	97.545294
2627.000000	97.552706
2626.000000	97.563688
2625.000000	97.576941
2624.000000	97.590729
2623.000000	97.603181
2622.000000	97.612663
2621.000000	97.618609
2620.000000	97.621609
2619.000000	97.622478
2618.000000	97.622209
2617.000000	97.623316
2616.000000	97.629528
2615.000000	97.642465
2614.000000	97.659320
2613.000000	97.675175
2612.000000	97.687207
2611.000000	97.695775
2610.000000	97.702432
2609.000000	97.708222
2608.000000	97.713027
2607.000000	97.715317
2606.000000	97.713544
2605.000000	97.709059
2604.000000	97.706404
2603.000000	97.708990
2602.000000	97.715468
2601.000000	97.722135
2600.000000	97.727552
2599.000000	97.732728
2598.000000	97.738091
2597.000000	97.742991
2596.000000	97.747689
2595.000000	97.753284
2594.000000	97.759907
2593.000000	97.766925
2592.000000	97.774362
2591.000000	97.781978
2590.000000	97.787638
2589.000000	97.789067
2588.000000	97.786850
2587.000000	97.783498
2586.000000	97.780316
2585.000000	97.777825
2584.000000	97.778510
2583.000000	97.785698
2582.000000	97.798997
2581.000000	97.813404
2580.000000	97.823962
2579.000000	97.830078
2578.000000	97.835099
2577.000000	97.842913
2576.000000	97.854500
2575.000000	97.866480
2574.000000	97.873884
2573.000000	97.875600
2572.000000	97.875384
2571.000000	97.875883
2570.000000	97.874288
2569.000000	97.867363
2568.000000	97.858704
2567.000000	97.856158
2566.000000	97.862514
2565.000000	97.872905
2564.000000	97.881554
2563.000000	97.887113
2562.000000	97.890840
2561.000000	97.893523
2560.000000	97.895608
2559.000000	97.897650
2558.000000	97.899530
2557.000000	97.901407
2556.000000	97.905468
2555.000000	97.913834
2554.000000	97.924412
2553.000000	97.931888
2552.000000	97.933627
2551.000000	97.932215
2550.000000	97.931886
2549.000000	97.934974
2548.000000	97.941870
2547.000000	97.951157
2546.000000	97.959103
2545.000000	97.961992
2544.000000	97.959845
2543.000000	97.955696
2542.000000	97.951163
2541.000000	97.945789
2540.000000	97.940816
2539.000000	97.939578
2538.000000	97.942753
2537.000000	97.946688
2536.000000	97.948611
2535.000000	97.950804
2534.000000	97.957066
2533.000000	97.966648
2532.000000	97.974056
2531.000000	97.974447
2530.000000	97.968165
2529.000000	97.960447
2528.000000	97.957162
2527.000000	97.959789
2526.000000	97.963995
2525.000000	97.963729
2524.000000	97.956836
2523.000000	97.946600
2522.000000	97.938699
2521.000000	97.937384
2520.000000	97.942960
2519.000000	97.951062
2518.000000	97.955499
2517.000000	97.954097
2516.000000	97.951065
2515.000000	97.951628
2514.000000	97.955487
2513.000000	97.958132
2512.000000	97.957596
2511.000000	97.956692
2510.000000	97.958788
2509.000000	97.964455
2508.000000	97.972440
2507.000000	97.981086
2506.000000	97.988311
2505.000000	97.992806
2504.000000	97.996181
2503.000000	98.001887
2502.000000	98.011163
2501.000000	98.021437
2500.000000	98.029016
2499.000000	98.031930
2498.000000	98.030359
2497.000000	98.025920
2496.000000	98.020727
2495.000000	98.015996
2494.000000	98.011578
2493.000000	98.007661
2492.000000	98.006069
2491.000000	98.008736
2490.000000	98.015721
2489.000000	98.025458
2488.000000	98.035483
2487.000000	98.042376
2486.000000	98.043900
2485.000000	98.043105
2484.000000	98.047219
2483.000000	98.059297
2482.000000	98.073324
2481.000000	98.080959
2480.000000	98.081120
2479.000000	98.079331
2478.000000	98.079711
2477.000000	98.082054
2476.000000	98.085319
2475.000000	98.089187
2474.000000	98.092394
2473.000000	98.093660
2472.000000	98.094306
2471.000000	98.096373
2470.000000	98.098507
2469.000000	98.097527
2468.000000	98.094055
2467.000000	98.092808
2466.000000	98.096731
2465.000000	98.103702
2464.000000	98.109064
2463.000000	98.108727
2462.000000	98.100569
2461.000000	98.086455
2460.000000	98.072747
2459.000000	98.065396
2458.000000	98.064416
2457.000000	98.066034
2456.000000	98.069639
2455.000000	98.078459
2454.000000	98.093001
2453.000000	98.108289
2452.000000	98.119347
2451.000000	98.126426
2450.000000	98.132803
2449.000000	98.139508
2448.000000	98.144258
2447.000000	98.144773
2446.000000	98.141875
2445.000000	98.138995
2444.000000	98.138558
2443.000000	98.139367
2442.000000	98.138958
2441.000000	98.137952
2440.000000	98.138920
2439.000000	98.140659
2438.000000	98.138156
2437.000000	98.130623
2436.000000	98.125125
2435.000000	98.128032
2434.000000	98.136161
2433.000000	98.140995
2432.000000	98.139447
2431.000000	98.136085
2430.000000	98.136278
2429.000000	98.141364
2428.000000	98.149535
2427.000000	98.157821
2426.000000	98.163911
2425.000000	98.168417
2424.000000	98.173870
2423.000000	98.179843
2422.000000	98.182280
2421.000000	98.180243
2420.000000	98.179101
2419.000000	98.183051
2418.000000	98.188542
2417.000000	98.190195
2416.000000	98.189725
2415.000000	98.193049
2414.000000	98.201022
2413.000000	98.208825
2412.000000	98.212996
2411.000000	98.213878
2410.000000	98.212559
2409.000000	98.210382
2408.000000	98.210002
2407.000000	98.212295
2406.000000	98.213917
2405.000000	98.212103
2404.000000	98.209424
2403.000000	98.209175
2402.000000	98.209174
2401.000000	98.205803
2400.000000	98.201429
2399.000000	98.201477
2398.000000	98.206039
2397.000000	98.210695
2396.000000	98.214165
2395.000000	98.218940
2394.000000	98.225147
2393.000000	98.229743
2392.000000	98.231049
2391.000000	98.229153
2390.000000	98.222767
2389.000000	98.211228
2388.000000	98.198791
2387.000000	98.190514
2386.000000	98.185917
2385.000000	98.181666
2384.000000	98.179697
2383.000000	98.187097
2382.000000	98.206413
2381.000000	98.232807
2380.000000	98.258924
2379.000000	98.277215
2378.000000	98.279565
2377.000000	98.261775
2376.000000	98.230396
2375.000000	98.198806
2374.000000	98.176894
2373.000000	98.168411
2372.000000	98.174918
2371.000000	98.192815
2370.000000	98.210081
2369.000000	98.216871
2368.000000	98.215288
2367.000000	98.213330
2366.000000	98.212663
2365.000000	98.210093
2364.000000	98.205711
2363.000000	98.198880
2362.000000	98.184637
2361.000000	98.161901
2360.000000	98.138716
2359.000000	98.124539
2358.000000	98.121915
2357.000000	98.129255
2356.000000	98.138523
2355.000000	98.140085
2354.000000	98.142749
2353.000000	98.163892
2352.000000	98.193605
2351.000000	98.199402
2350.000000	98.170100
2349.000000	98.124348
2348.000000	98.089731
2347.000000	98.085923
2346.000000	98.105333
2345.000000	98.112926
2344.000000	98.089510
2343.000000	98.055973
2342.000000	98.039638
2341.000000	98.044598
2340.000000	98.055383
2339.000000	98.058917
2338.000000	98.058184
2337.000000	98.061341
2336.000000	98.067695
2335.000000	98.072145
2334.000000	98.078225
2333.000000	98.093985
2332.000000	98.114461
2331.000000	98.123730
2330.000000	98.112710
2329.000000	98.085371
2328.000000	98.048559
2327.000000	98.005990
2326.000000	97.963582
2325.000000	97.932504
2324.000000	97.923886
2323.000000	97.939825
2322.000000	97.967185
2321.000000	97.984717
2320.000000	97.980969
2319.000000	97.963203
2318.000000	97.946782
2317.000000	97.941021
2316.000000	97.947513
2315.000000	97.964827
2314.000000	97.987945
2313.000000	98.008647
2312.000000	98.022419
2311.000000	98.033905
2310.000000	98.050404
2309.000000	98.072117
2308.000000	98.093397
2307.000000	98.110029
2306.000000	98.120845
2305.000000	98.125476
2304.000000	98.125118
2303.000000	98.123108
2302.000000	98.121129
2301.000000	98.117469
2300.000000	98.112573
2299.000000	98.111812
2298.000000	98.118384
2297.000000	98.127810
2296.000000	98.132796
2295.000000	98.131150
2294.000000	98.124625
2293.000000	98.113601
2292.000000	98.097835
2291.000000	98.080618
2290.000000	98.068036
2289.000000	98.064274
2288.000000	98.069608
2287.000000	98.080775
2286.000000	98.092102
2285.000000	98.099600
2284.000000	98.106386
2283.000000	98.119605
2282.000000	98.140172
2281.000000	98.160594
2280.000000	98.176019
2279.000000	98.191396
2278.000000	98.213236
2277.000000	98.239490
2276.000000	98.261654
2275.000000	98.272994
2274.000000	98.271918
2273.000000	98.262121
2272.000000	98.252204
2271.000000	98.249761
2270.000000	98.253054
2269.000000	98.253711
2268.000000	98.249084
2267.000000	98.245556
2266.000000	98.247947
2265.000000	98.253882
2264.000000	98.261646
2263.000000	98.274531
2262.000000	98.292600
2261.000000	98.307692
2260.000000	98.311741
2259.000000	98.304807
2258.000000	98.292313
2257.000000	98.281412
2256.000000	98.281558
2255.000000	98.298430
2254.000000	98.323236
2253.000000	98.337555
2252.000000	98.334051
2251.000000	98.324453
2250.000000	98.323470
2249.000000	98.334957
2248.000000	98.356195
2247.000000	98.384634
2246.000000	98.413938
2245.000000	98.431936
2244.000000	98.430958
2243.000000	98.414690
2242.000000	98.391426
2241.000000	98.367502
2240.000000	98.349235
2239.000000	98.342137
2238.000000	98.345050
2237.000000	98.352476
2236.000000	98.362935
2235.000000	98.375941
2234.000000	98.383074
2233.000000	98.376509
2232.000000	98.365934
2231.000000	98.369201
2230.000000	98.383285
2229.000000	98.383960
2228.000000	98.361588
2227.000000	98.339267
2226.000000	98.345180
2225.000000	98.380521
2224.000000	98.422588
2223.000000	98.445884
2222.000000	98.433862
2221.000000	98.388213
2220.000000	98.338460
2219.000000	98.325640
2218.000000	98.361881
2217.000000	98.414709
2216.000000	98.440452
2215.000000	98.424159
2214.000000	98.379982
2213.000000	98.328628
2212.000000	98.287504
2211.000000	98.269947
2210.000000	98.278249
2209.000000	98.300087
2208.000000	98.318989
2207.000000	98.325144
2206.000000	98.315545
2205.000000	98.295093
2204.000000	98.280094
2203.000000	98.286276
2202.000000	98.307902
2201.000000	98.322271
2200.000000	98.321233
2199.000000	98.323169
2198.000000	98.344864
2197.000000	98.375296
2196.000000	98.388910
2195.000000	98.376086
2194.000000	98.351395
2193.000000	98.338766
2192.000000	98.353063
2191.000000	98.388682
2190.000000	98.423762
2189.000000	98.442192
2188.000000	98.450545
2187.000000	98.464183
2186.000000	98.482015
2185.000000	98.490374
2184.000000	98.486860
2183.000000	98.481481
2182.000000	98.477516
2181.000000	98.473343
2180.000000	98.479268
2179.000000	98.507586
2178.000000	98.548072
2177.000000	98.576716
2176.000000	98.586231
2175.000000	98.586152
2174.000000	98.579725
2173.000000	98.568949
2172.000000	98.573641
2171.000000	98.607929
2170.000000	98.641553
2169.000000	98.622491
2168.000000	98.545187
2167.000000	98.461375
2166.000000	98.415366
2165.000000	98.403791
2164.000000	98.407321
2163.000000	98.426881
2162.000000	98.472446
2161.000000	98.547805
2160.000000	98.660193
2159.000000	98.809105
2158.000000	98.952396
2157.000000	99.032510
2156.000000	99.043296
2155.000000	99.018398
2154.000000	98.968784
2153.000000	98.885907
2152.000000	98.789050
2151.000000	98.717497
2150.000000	98.678157
2149.000000	98.643950
2148.000000	98.608663
2147.000000	98.602828
2146.000000	98.645162
2145.000000	98.711517
2144.000000	98.764975
2143.000000	98.790571
2142.000000	98.790785
2141.000000	98.772717
2140.000000	98.748786
2139.000000	98.729338
2138.000000	98.710083
2137.000000	98.684376
2136.000000	98.665134
2135.000000	98.671534
2134.000000	98.695702
2133.000000	98.708696
2132.000000	98.699238
2131.000000	98.681837
2130.000000	98.666673
2129.000000	98.646164
2128.000000	98.613643
2127.000000	98.573989
2126.000000	98.531948
2125.000000	98.488026
2124.000000	98.450152
2123.000000	98.432222
2122.000000	98.435517
2121.000000	98.444579
2120.000000	98.445544
2119.000000	98.436160
2118.000000	98.415638
2117.000000	98.380205
2116.000000	98.334270
2115.000000	98.293507
2114.000000	98.271129
2113.000000	98.269495
2112.000000	98.285844
2111.000000	98.314872
2110.000000	98.344612
2109.000000	98.362582
2108.000000	98.368823
2107.000000	98.371924
2106.000000	98.372389
2105.000000	98.363690
2104.000000	98.348769
2103.000000	98.339297
2102.000000	98.337852
2101.000000	98.337023
2100.000000	98.336702
2099.000000	98.345594
2098.000000	98.364424
2097.000000	98.384423
2096.000000	98.404425
2095.000000	98.430705
2094.000000	98.457668
2093.000000	98.468774
2092.000000	98.460685
2091.000000	98.448419
2090.000000	98.443438
2089.000000	98.443158
2088.000000	98.443842
2087.000000	98.446479
2086.000000	98.446905
2085.000000	98.437528
2084.000000	98.421944
2083.000000	98.411136
2082.000000	98.403192
2081.000000	98.385454
2080.000000	98.359214
2079.000000	98.342744
2078.000000	98.346054
2077.000000	98.362074
2076.000000	98.386156
2075.000000	98.421533
2074.000000	98.459845
2073.000000	98.479147
2072.000000	98.470288
2071.000000	98.446915
2070.000000	98.423657
2069.000000	98.404950
2068.000000	98.398861
2067.000000	98.416426
2066.000000	98.449248
2065.000000	98.470348
2064.000000	98.467822
2063.000000	98.456381
2062.000000	98.449165
2061.000000	98.444336
2060.000000	98.443592
2059.000000	98.455753
2058.000000	98.474916
2057.000000	98.481914
2056.000000	98.474738
2055.000000	98.469930
2054.000000	98.466490
2053.000000	98.440532
2052.000000	98.388496
2051.000000	98.345052
2050.000000	98.342649
2049.000000	98.375613
2048.000000	98.420339
2047.000000	98.469723
2046.000000	98.524563
2045.000000	98.575394
2044.000000	98.618788
2043.000000	98.666655
2042.000000	98.717892
2041.000000	98.745788
2040.000000	98.733902
2039.000000	98.698742
2038.000000	98.662642
2037.000000	98.635814
2036.000000	98.632942
2035.000000	98.669088
2034.000000	98.725137
2033.000000	98.755674
2032.000000	98.750004
2031.000000	98.746309
2030.000000	98.772851
2029.000000	98.817315
2028.000000	98.861016
2027.000000	98.899355
2026.000000	98.919614
2025.000000	98.904073
2024.000000	98.865163
2023.000000	98.835900
2022.000000	98.822105
2021.000000	98.806086
2020.000000	98.791794
2019.000000	98.797303
2018.000000	98.808721
2017.000000	98.797624
2016.000000	98.782527
2015.000000	98.804972
2014.000000	98.848453
2013.000000	98.852448
2012.000000	98.805939
2011.000000	98.761869
2010.000000	98.752963
2009.000000	98.758651
2008.000000	98.765450
2007.000000	98.791575
2006.000000	98.833478
2005.000000	98.855489
2004.000000	98.850871
2003.000000	98.852385
2002.000000	98.870452
2001.000000	98.878453
2000.000000	98.867961
1999.000000	98.862531
1998.000000	98.868421
1997.000000	98.862530
1996.000000	98.841224
1995.000000	98.832181
1994.000000	98.844268
1993.000000	98.847366
1992.000000	98.820152
1991.000000	98.779750
1990.000000	98.742731
1989.000000	98.705171
1988.000000	98.676102
1987.000000	98.677657
1986.000000	98.698354
1985.000000	98.694262
1984.000000	98.651987
1983.000000	98.606437
1982.000000	98.582004
1981.000000	98.564965
1980.000000	98.550358
1979.000000	98.564823
1978.000000	98.619758
1977.000000	98.686046
1976.000000	98.743428
1975.000000	98.803601
1974.000000	98.860029
1973.000000	98.877797
1972.000000	98.853188
1971.000000	98.823368
1970.000000	98.803715
1969.000000	98.772400
1968.000000	98.728579
1967.000000	98.709936
1966.000000	98.731618
1965.000000	98.764791
1964.000000	98.794601
1963.000000	98.839421
1962.000000	98.899400
1961.000000	98.940388
1960.000000	98.947112
1959.000000	98.945166
1958.000000	98.952260
1957.000000	98.953985
1956.000000	98.940320
1955.000000	98.920480
1954.000000	98.892588
1953.000000	98.841156
1952.000000	98.775885
1951.000000	98.733962
1950.000000	98.728536
1949.000000	98.732785
1948.000000	98.727483
1947.000000	98.725635
1946.000000	98.737424
1945.000000	98.747442
1944.000000	98.743423
1943.000000	98.737319
1942.000000	98.740446
1941.000000	98.746713
1940.000000	98.754455
1939.000000	98.773228
1938.000000	98.798914
1937.000000	98.809476
1936.000000	98.796929
1935.000000	98.779445
1934.000000	98.771016
1933.000000	98.762645
1932.000000	98.744839
1931.000000	98.726683
1930.000000	98.716424
1929.000000	98.711430
1928.000000	98.714106
1927.000000	98.731736
1926.000000	98.757052
1925.000000	98.767302
1924.000000	98.755172
1923.000000	98.738052
1922.000000	98.728053
1921.000000	98.720505
1920.000000	98.715902
1919.000000	98.724834
1918.000000	98.739467
1917.000000	98.731455
1916.000000	98.696110
1915.000000	98.661200
1914.000000	98.648871
1913.000000	98.656940
1912.000000	98.673797
1911.000000	98.693868
1910.000000	98.708836
1909.000000	98.709200
1908.000000	98.702044
1907.000000	98.703351
1906.000000	98.711970
1905.000000	98.709892
1904.000000	98.694293
1903.000000	98.681640
1902.000000	98.676802
1901.000000	98.670246
1900.000000	98.663588
1899.000000	98.671664
1898.000000	98.696592
1897.000000	98.719499
1896.000000	98.728529
1895.000000	98.733568
1894.000000	98.742882
1893.000000	98.750769
1892.000000	98.753198
1891.000000	98.752776
1890.000000	98.744366
1889.000000	98.720508
1888.000000	98.694300
1887.000000	98.686567
1886.000000	98.695592
1885.000000	98.702516
1884.000000	98.701327
1883.000000	98.705165
1882.000000	98.719299
1881.000000	98.733651
1880.000000	98.743153
1879.000000	98.751808
1878.000000	98.757629
1877.000000	98.751816
1876.000000	98.738297
1875.000000	98.735062
1874.000000	98.748226
1873.000000	98.766483
1872.000000	98.784939
1871.000000	98.810469
1870.000000	98.838065
1869.000000	98.844473
1868.000000	98.827482
1867.000000	98.812458
1866.000000	98.803932
1865.000000	98.786679
1864.000000	98.763086
1863.000000	98.752798
1862.000000	98.762520
1861.000000	98.775448
1860.000000	98.776944
1859.000000	98.770572
1858.000000	98.762311
1857.000000	98.752618
1856.000000	98.747670
1855.000000	98.756662
1854.000000	98.773508
1853.000000	98.782908
1852.000000	98.784173
1851.000000	98.787517
1850.000000	98.797757
1849.000000	98.812697
1848.000000	98.837072
1847.000000	98.879190
1846.000000	98.929644
1845.000000	98.958653
1844.000000	98.949587
1843.000000	98.922995
1842.000000	98.897229
1841.000000	98.870739
1840.000000	98.847799
1839.000000	98.839573
1838.000000	98.844017
1837.000000	98.843988
1836.000000	98.835862
1835.000000	98.835066
1834.000000	98.848869
1833.000000	98.869348
1832.000000	98.887395
1831.000000	98.899829
1830.000000	98.905737
1829.000000	98.902627
1828.000000	98.893734
1827.000000	98.889481
1826.000000	98.894103
1825.000000	98.896919
1824.000000	98.890196
1823.000000	98.881645
1822.000000	98.874709
1821.000000	98.863504
1820.000000	98.848647
1819.000000	98.842618
1818.000000	98.850866
1817.000000	98.859115
1816.000000	98.859384
1815.000000	98.860910
1814.000000	98.868068
1813.000000	98.871913
1812.000000	98.865323
1811.000000	98.858911
1810.000000	98.858655
1809.000000	98.848896
1808.000000	98.824944
1807.000000	98.804774
1806.000000	98.798467
1805.000000	98.794973
1804.000000	98.787820
1803.000000	98.787124
1802.000000	98.798361
1801.000000	98.808434
1800.000000	98.806340
1799.000000	98.802862
1798.000000	98.805483
1797.000000	98.807635
1796.000000	98.811928
1795.000000	98.829766
1794.000000	98.861213
1793.000000	98.884012
1792.000000	98.879216
1791.000000	98.861938
1790.000000	98.846045
1789.000000	98.824579
1788.000000	98.801716
1787.000000	98.794777
1786.000000	98.809840
1785.000000	98.831390
1784.000000	98.846439
1783.000000	98.853884
1782.000000	98.851789
1781.000000	98.840661
1780.000000	98.829407
1779.000000	98.833336
1778.000000	98.852201
1777.000000	98.871756
1776.000000	98.887585
1775.000000	98.905123
1774.000000	98.931266
1773.000000	98.957459
1772.000000	98.967200
1771.000000	98.963698
1770.000000	98.948313
1769.000000	98.910183
1768.000000	98.860286
1767.000000	98.828031
1766.000000	98.822464
1765.000000	98.823745
1764.000000	98.817277
1763.000000	98.807275
1762.000000	98.799249
1761.000000	98.788124
1760.000000	98.766502
1759.000000	98.738637
1758.000000	98.704647
1757.000000	98.657710
1756.000000	98.600932
1755.000000	98.545912
1754.000000	98.496344
1753.000000	98.450190
1752.000000	98.410125
1751.000000	98.376171
1750.000000	98.335188
1749.000000	98.262672
1748.000000	98.158345
1747.000000	98.051133
1746.000000	97.960503
1745.000000	97.879996
1744.000000	97.801903
1743.000000	97.743837
1742.000000	97.721443
1741.000000	97.714742
1740.000000	97.700135
1739.000000	97.692483
1738.000000	97.709606
1737.000000	97.738204
1736.000000	97.775471
1735.000000	97.845639
1734.000000	97.935553
1733.000000	97.994280
1732.000000	98.012058
1731.000000	98.013104
1730.000000	98.009722
1729.000000	98.005713
1728.000000	98.005733
1727.000000	98.012152
1726.000000	98.024386
1725.000000	98.033668
1724.000000	98.029329
1723.000000	98.022399
1722.000000	98.026364
1721.000000	98.031135
1720.000000	98.016303
1719.000000	97.982145
1718.000000	97.949337
1717.000000	97.912938
1716.000000	97.859485
1715.000000	97.794742
1714.000000	97.711235
1713.000000	97.602583
1712.000000	97.491373
1711.000000	97.407303
1710.000000	97.358620
1709.000000	97.334467
1708.000000	97.318336
1707.000000	97.294444
1706.000000	97.251812
1705.000000	97.191139
1704.000000	97.140416
1703.000000	97.117970
1702.000000	97.122111
1701.000000	97.089818
1700.000000	96.955057
1699.000000	96.783241
1698.000000	96.614825
1697.000000	96.400095
1696.000000	96.152392
1695.000000	95.968349
1694.000000	95.870147
1693.000000	95.778501
1692.000000	95.651289
1691.000000	95.508856
1690.000000	95.376314
1689.000000	95.247054
1688.000000	95.113009
1687.000000	94.981061
1686.000000	94.868665
1685.000000	94.721014
1684.000000	94.498139
1683.000000	94.310508
1682.000000	94.171418
1681.000000	93.995718
1680.000000	93.790275
1679.000000	93.611942
1678.000000	93.482939
1677.000000	93.360436
1676.000000	93.185254
1675.000000	92.957198
1674.000000	92.740695
1673.000000	92.564038
1672.000000	92.396829
1671.000000	92.208543
1670.000000	91.969145
1669.000000	91.677734
1668.000000	91.385988
1667.000000	91.142134
1666.000000	90.952091
1665.000000	90.783278
1664.000000	90.589460
1663.000000	90.351780
1662.000000	90.097988
1661.000000	89.862668
1660.000000	89.648593
1659.000000	89.462117
1658.000000	89.314739
1657.000000	89.206931
1656.000000	89.107323
1655.000000	89.003122
1654.000000	88.839825
1653.000000	88.587207
1652.000000	88.405592
1651.000000	88.357521
1650.000000	88.362522
1649.000000	88.351644
1648.000000	88.288041
1647.000000	88.189475
1646.000000	88.100090
1645.000000	88.033324
1644.000000	87.975150
1643.000000	87.928968
1642.000000	87.893911
1641.000000	87.865346
1640.000000	87.844933
1639.000000	87.837896
1638.000000	87.842673
1637.000000	87.834416
1636.000000	87.778201
1635.000000	87.694262
1634.000000	87.623499
1633.000000	87.553913
1632.000000	87.484268
1631.000000	87.438948
1630.000000	87.429721
1629.000000	87.443233
1628.000000	87.462266
1627.000000	87.492696
1626.000000	87.545671
1625.000000	87.620908
1624.000000	87.709144
1623.000000	87.806646
1622.000000	87.912003
1621.000000	88.019190
1620.000000	88.125036
1619.000000	88.243461
1618.000000	88.411076
1617.000000	88.654147
1616.000000	88.941563
1615.000000	89.208739
1614.000000	89.430211
1613.000000	89.628269
1612.000000	89.838000
1611.000000	90.074112
1610.000000	90.319493
1609.000000	90.554513
1608.000000	90.776585
1607.000000	90.984231
1606.000000	91.170590
1605.000000	91.340676
1604.000000	91.505247
1603.000000	91.664175
1602.000000	91.810123
1601.000000	91.942295
1600.000000	92.066367
1599.000000	92.181016
1598.000000	92.281034
1597.000000	92.368765
1596.000000	92.451170
1595.000000	92.525718
1594.000000	92.581350
1593.000000	92.617587
1592.000000	92.645156
1591.000000	92.665992
1590.000000	92.669435
1589.000000	92.652017
1588.000000	92.620750
1587.000000	92.576531
1586.000000	92.510987
1585.000000	92.424276
1584.000000	92.323391
1583.000000	92.199612
1582.000000	92.043929
1581.000000	91.873380
1580.000000	91.713667
1579.000000	91.564336
1578.000000	91.411669
1577.000000	91.256257
1576.000000	91.131825
1575.000000	91.075436
1574.000000	91.068364
1573.000000	91.071611
1572.000000	91.073506
1571.000000	91.072672
1570.000000	91.046550
1569.000000	90.986852
1568.000000	90.915125
1567.000000	90.837892
1566.000000	90.747146
1565.000000	90.645898
1564.000000	90.544815
1563.000000	90.458845
1562.000000	90.393663
1561.000000	90.372514
1560.000000	90.342384
1559.000000	90.162734
1558.000000	89.937243
1557.000000	89.791425
1556.000000	89.641828
1555.000000	89.458655
1554.000000	89.272137
1553.000000	89.114056
1552.000000	88.981938
1551.000000	88.843754
1550.000000	88.693599
1549.000000	88.552610
1548.000000	88.443936
1547.000000	88.359896
1546.000000	88.279798
1545.000000	88.184935
1544.000000	88.073982
1543.000000	87.961451
1542.000000	87.853028
1541.000000	87.720065
1540.000000	87.587999
1539.000000	87.561756
1538.000000	87.645962
1537.000000	87.772034
1536.000000	87.918800
1535.000000	88.100075
1534.000000	88.329999
1533.000000	88.569501
1532.000000	88.759451
1531.000000	88.905604
1530.000000	89.047386
1529.000000	89.198071
1528.000000	89.351779
1527.000000	89.511717
1526.000000	89.680480
1525.000000	89.838216
1524.000000	89.966543
1523.000000	90.085015
1522.000000	90.223545
1521.000000	90.364646
1520.000000	90.481765
1519.000000	90.585159
1518.000000	90.687610
1517.000000	90.783688
1516.000000	90.869754
1515.000000	90.957595
1514.000000	91.059588
1513.000000	91.180972
1512.000000	91.322837
1511.000000	91.486434
1510.000000	91.664928
1509.000000	91.849309
1508.000000	92.031691
1507.000000	92.203224
1506.000000	92.365212
1505.000000	92.487677
1504.000000	92.556387
1503.000000	92.620996
1502.000000	92.714147
1501.000000	92.836334
1500.000000	92.969198
1499.000000	93.091675
1498.000000	93.205576
1497.000000	93.305741
1496.000000	93.385372
1495.000000	93.465938
1494.000000	93.561209
1493.000000	93.657822
1492.000000	93.747459
1491.000000	93.836275
1490.000000	93.915361
1489.000000	93.946640
1488.000000	93.923162
1487.000000	93.886314
1486.000000	93.851236
1485.000000	93.804789
1484.000000	93.745398
1483.000000	93.677263
1482.000000	93.597274
1481.000000	93.494985
1480.000000	93.379605
1479.000000	93.273940
1478.000000	93.179378
1477.000000	93.072395
1476.000000	92.945158
1475.000000	92.817746
1474.000000	92.681021
1473.000000	92.473035
1472.000000	92.190438
1471.000000	91.927582
1470.000000	91.723118
1469.000000	91.548325
1468.000000	91.394567
1467.000000	91.272739
1466.000000	91.175909
1465.000000	91.076475
1464.000000	90.972500
1463.000000	90.895595
1462.000000	90.860184
1461.000000	90.851486
1460.000000	90.846548
1459.000000	90.828503
1458.000000	90.768079
1457.000000	90.624677
1456.000000	90.452232
1455.000000	90.338696
1454.000000	90.277286
1453.000000	90.229713
1452.000000	90.190707
1451.000000	90.177008
1450.000000	90.189702
1449.000000	90.202667
1448.000000	90.199363
1447.000000	90.191043
1446.000000	90.190934
1445.000000	90.198411
1444.000000	90.209099
1443.000000	90.227474
1442.000000	90.257626
1441.000000	90.295692
1440.000000	90.339197
1439.000000	90.393058
1438.000000	90.459288
1437.000000	90.514125
1436.000000	90.537915
1435.000000	90.550982
1434.000000	90.575446
1433.000000	90.610285
1432.000000	90.652115
1431.000000	90.699542
1430.000000	90.746901
1429.000000	90.782097
1428.000000	90.801413
1427.000000	90.813508
1426.000000	90.821135
1425.000000	90.820408
1424.000000	90.808886
1423.000000	90.798899
1422.000000	90.804107
1421.000000	90.821490
1420.000000	90.832500
1419.000000	90.820295
1418.000000	90.800940
1417.000000	90.790606
1416.000000	90.785625
1415.000000	90.791780
1414.000000	90.815641
1413.000000	90.847214
1412.000000	90.870206
1411.000000	90.882080
1410.000000	90.894552
1409.000000	90.912369
1408.000000	90.931834
1407.000000	90.952064
1406.000000	90.970947
1405.000000	90.983843
1404.000000	90.991046
1403.000000	91.004419
1402.000000	91.033460
1401.000000	91.072593
1400.000000	91.111126
1399.000000	91.147794
1398.000000	91.190210
1397.000000	91.236280
1396.000000	91.274885
1395.000000	91.299254
1394.000000	91.315448
1393.000000	91.334849
1392.000000	91.360836
1391.000000	91.397126
1390.000000	91.446450
1389.000000	91.501667
1388.000000	91.549138
1387.000000	91.581225
1386.000000	91.602481
1385.000000	91.619602
1384.000000	91.636639
1383.000000	91.661257
1382.000000	91.698834
1381.000000	91.743073
1380.000000	91.786658
1379.000000	91.831853
1378.000000	91.885094
1377.000000	91.949283
1376.000000	92.026088
1375.000000	92.116220
1374.000000	92.213696
1373.000000	92.308158
1372.000000	92.396644
1371.000000	92.484538
1370.000000	92.574039
1369.000000	92.664612
1368.000000	92.757705
1367.000000	92.857259
1366.000000	92.964161
1365.000000	93.073686
1364.000000	93.182757
1363.000000	93.290104
1362.000000	93.388104
1361.000000	93.467526
1360.000000	93.529601
1359.000000	93.582348
1358.000000	93.628399
1357.000000	93.663567
1356.000000	93.685424
1355.000000	93.696708
1354.000000	93.699147
1353.000000	93.689044
1352.000000	93.666821
1351.000000	93.640554
1350.000000	93.613547
1349.000000	93.583092
1348.000000	93.547102
1347.000000	93.508111
1346.000000	93.468505
1345.000000	93.428092
1344.000000	93.388739
1343.000000	93.354262
1342.000000	93.323579
1341.000000	93.289969
1340.000000	93.250033
1339.000000	93.209109
1338.000000	93.176495
1337.000000	93.157281
1336.000000	93.154248
1335.000000	93.171619
1334.000000	93.208850
1333.000000	93.258357
1332.000000	93.314305
1331.000000	93.375954
1330.000000	93.440275
1329.000000	93.499838
1328.000000	93.551203
1327.000000	93.596515
1326.000000	93.634993
1325.000000	93.663145
1324.000000	93.681866
1323.000000	93.698123
1322.000000	93.716971
1321.000000	93.736425
1320.000000	93.752814
1319.000000	93.766035
1318.000000	93.777350
1317.000000	93.787196
1316.000000	93.798990
1315.000000	93.818900
1314.000000	93.848321
1313.000000	93.882375
1312.000000	93.919705
1311.000000	93.965606
1310.000000	94.020641
1309.000000	94.073940
1308.000000	94.114834
1307.000000	94.144774
1306.000000	94.171640
1305.000000	94.199831
1304.000000	94.229745
1303.000000	94.262674
1302.000000	94.298564
1301.000000	94.332805
1300.000000	94.361846
1299.000000	94.388490
1298.000000	94.415807
1297.000000	94.439381
1296.000000	94.451960
1295.000000	94.451625
1294.000000	94.440999
1293.000000	94.421788
1292.000000	94.395299
1291.000000	94.364614
1290.000000	94.330198
1289.000000	94.288135
1288.000000	94.238118
1287.000000	94.188370
1286.000000	94.146900
1285.000000	94.112397
1284.000000	94.079582
1283.000000	94.048462
1282.000000	94.022298
1281.000000	94.002049
1280.000000	93.989183
1279.000000	93.987748
1278.000000	93.998000
1277.000000	94.013035
1276.000000	94.027206
1275.000000	94.042422
1274.000000	94.061150
1273.000000	94.079249
1272.000000	94.090580
1271.000000	94.093499
1270.000000	94.088184
1269.000000	94.073863
1268.000000	94.053106
1267.000000	94.032078
1266.000000	94.012284
1265.000000	93.987936
1264.000000	93.956150
1263.000000	93.922391
1262.000000	93.889651
1261.000000	93.851516
1260.000000	93.803294
1259.000000	93.751167
1258.000000	93.703012
1257.000000	93.657679
1256.000000	93.611311
1255.000000	93.565457
1254.000000	93.520756
1253.000000	93.470729
1252.000000	93.410128
1251.000000	93.342941
1250.000000	93.274942
1249.000000	93.205344
1248.000000	93.132605
1247.000000	93.060955
1246.000000	92.994047
1245.000000	92.928436
1244.000000	92.860290
1243.000000	92.791906
1242.000000	92.725545
1241.000000	92.659347
1240.000000	92.596436
1239.000000	92.548731
1238.000000	92.522599
1237.000000	92.509896
1236.000000	92.501504
1235.000000	92.501403
1234.000000	92.519339
1233.000000	92.556673
1232.000000	92.609000
1231.000000	92.674826
1230.000000	92.753719
1229.000000	92.843232
1228.000000	92.943755
1227.000000	93.060218
1226.000000	93.191979
1225.000000	93.328187
1224.000000	93.459510
1223.000000	93.586573
1222.000000	93.711710
1221.000000	93.831060
1220.000000	93.940965
1219.000000	94.043282
1218.000000	94.137928
1217.000000	94.217470
1216.000000	94.276381
1215.000000	94.318946
1214.000000	94.350228
1213.000000	94.367352
1212.000000	94.366450
1211.000000	94.351408
1210.000000	94.327935
1209.000000	94.294804
1208.000000	94.250555
1207.000000	94.202567
1206.000000	94.160946
1205.000000	94.128569
1204.000000	94.104380
1203.000000	94.090351
1202.000000	94.088407
1201.000000	94.097511
1200.000000	94.119536
1199.000000	94.160689
1198.000000	94.220158
1197.000000	94.285605
1196.000000	94.347334
1195.000000	94.408297
1194.000000	94.473339
1193.000000	94.537437
1192.000000	94.593199
1191.000000	94.642627
1190.000000	94.692794
1189.000000	94.745699
1188.000000	94.799468
1187.000000	94.852962
1186.000000	94.901963
1185.000000	94.938083
1184.000000	94.958441
1183.000000	94.970376
1182.000000	94.980496
1181.000000	94.985775
1180.000000	94.982433
1179.000000	94.974630
1178.000000	94.966464
1177.000000	94.954147
1176.000000	94.933886
1175.000000	94.909513
1174.000000	94.884089
1173.000000	94.852485
1172.000000	94.810534
1171.000000	94.763399
1170.000000	94.717547
1169.000000	94.672206
1168.000000	94.625677
1167.000000	94.580930
1166.000000	94.537364
1165.000000	94.487384
1164.000000	94.429841
1163.000000	94.376936
1162.000000	94.338313
1161.000000	94.308436
1160.000000	94.278743
1159.000000	94.251552
1158.000000	94.232270
1157.000000	94.218173
1156.000000	94.205864
1155.000000	94.199995
1154.000000	94.204220
1153.000000	94.212628
1152.000000	94.218959
1151.000000	94.224907
1150.000000	94.230650
1149.000000	94.228404
1148.000000	94.215284
1147.000000	94.201679
1146.000000	94.197192
1145.000000	94.198914
1144.000000	94.202564
1143.000000	94.212815
1142.000000	94.232349
1141.000000	94.252859
1140.000000	94.267658
1139.000000	94.281567
1138.000000	94.298140
1137.000000	94.309345
1136.000000	94.308895
1135.000000	94.303559
1134.000000	94.299567
1133.000000	94.289600
1132.000000	94.265992
1131.000000	94.235262
1130.000000	94.206666
1129.000000	94.177314
1128.000000	94.140863
1127.000000	94.100770
1126.000000	94.062400
1125.000000	94.022691
1124.000000	93.980208
1123.000000	93.944337
1122.000000	93.921188
1121.000000	93.900202
1120.000000	93.867613
1119.000000	93.824031
1118.000000	93.777728
1117.000000	93.731058
1116.000000	93.685151
1115.000000	93.646964
1114.000000	93.619117
1113.000000	93.593016
1112.000000	93.563546
1111.000000	93.539663
1110.000000	93.530173
1109.000000	93.530363
1108.000000	93.532731
1107.000000	93.538757
1106.000000	93.548597
1105.000000	93.552851
1104.000000	93.547018
1103.000000	93.541078
1102.000000	93.543271
1101.000000	93.545889
1100.000000	93.539525
1099.000000	93.529658
1098.000000	93.523478
1097.000000	93.516567
1096.000000	93.503391
1095.000000	93.489227
1094.000000	93.478861
1093.000000	93.465695
1092.000000	93.443625
1091.000000	93.417185
1090.000000	93.388887
1089.000000	93.350532
1088.000000	93.298673
1087.000000	93.244636
1086.000000	93.197835
1085.000000	93.153933
1084.000000	93.111362
1083.000000	93.083556
1082.000000	93.081238
1081.000000	93.097194
1080.000000	93.123057
1079.000000	93.165880
1078.000000	93.233291
1077.000000	93.317164
1076.000000	93.405272
1075.000000	93.496613
1074.000000	93.592302
1073.000000	93.684612
1072.000000	93.767204
1071.000000	93.843190
1070.000000	93.912612
1069.000000	93.965953
1068.000000	94.001221
1067.000000	94.032815
1066.000000	94.072398
1065.000000	94.114103
1064.000000	94.149236
1063.000000	94.180962
1062.000000	94.213969
1061.000000	94.245201
1060.000000	94.275639
1059.000000	94.315441
1058.000000	94.365968
1057.000000	94.412098
1056.000000	94.443765
1055.000000	94.470237
1054.000000	94.502470
1053.000000	94.537453
1052.000000	94.570647
1051.000000	94.606567
1050.000000	94.643853
1049.000000	94.667993
1048.000000	94.673167
1047.000000	94.673994
1046.000000	94.683047
1045.000000	94.694164
1044.000000	94.698911
1043.000000	94.701323
1042.000000	94.704901
1041.000000	94.702407
1040.000000	94.689756
1039.000000	94.672079
1038.000000	94.646440
1037.000000	94.598589
1036.000000	94.530204
1035.000000	94.468764
1034.000000	94.436030
1033.000000	94.425262
1032.000000	94.423088
1031.000000	94.432880
1030.000000	94.459853
1029.000000	94.494662
1028.000000	94.529504
1027.000000	94.573188
1026.000000	94.632225
1025.000000	94.694125
1024.000000	94.746835
1023.000000	94.798106
1022.000000	94.858533
1021.000000	94.921016
1020.000000	94.974097
1019.000000	95.020694
1018.000000	95.068099
1017.000000	95.114127
1016.000000	95.158626
1015.000000	95.213071
1014.000000	95.283214
1013.000000	95.356212
1012.000000	95.419726
1011.000000	95.479659
1010.000000	95.545890
1009.000000	95.615294
1008.000000	95.681606
1007.000000	95.747301
1006.000000	95.813275
1005.000000	95.872291
1004.000000	95.925086
1003.000000	95.987362
1002.000000	96.067803
1001.000000	96.154903
1000.000000	96.236945
999.000000	96.318779
998.000000	96.406211
997.000000	96.491305
996.000000	96.567160
995.000000	96.640647
994.000000	96.716085
993.000000	96.782272
992.000000	96.830898
991.000000	96.872252
990.000000	96.918446
989.000000	96.965015
988.000000	97.003534
987.000000	97.037715
986.000000	97.072471
985.000000	97.101430
984.000000	97.119761
983.000000	97.135882
982.000000	97.156720
981.000000	97.174429
980.000000	97.180717
979.000000	97.180962
978.000000	97.181830
977.000000	97.179527
976.000000	97.171733
975.000000	97.166532
974.000000	97.168015
973.000000	97.169455
972.000000	97.171575
971.000000	97.189841
970.000000	97.230677
969.000000	97.278831
968.000000	97.321663
967.000000	97.366387
966.000000	97.419477
965.000000	97.468740
964.000000	97.503543
963.000000	97.534179
962.000000	97.573241
961.000000	97.613673
960.000000	97.643724
959.000000	97.668534
958.000000	97.699045
957.000000	97.733463
956.000000	97.766104
955.000000	97.801064
954.000000	97.841110
953.000000	97.876690
952.000000	97.900968
951.000000	97.922276
950.000000	97.947116
949.000000	97.966013
948.000000	97.970644
947.000000	97.970505
946.000000	97.977442
945.000000	97.987974
944.000000	97.994949
943.000000	98.001245
942.000000	98.008631
941.000000	98.009113
940.000000	98.001692
939.000000	98.001043
938.000000	98.015910
937.000000	98.035609
936.000000	98.052199
935.000000	98.076513
934.000000	98.116396
933.000000	98.158325
932.000000	98.189180
931.000000	98.218462
930.000000	98.259773
929.000000	98.306698
928.000000	98.345062
927.000000	98.374126
926.000000	98.397945
925.000000	98.411549
924.000000	98.413568
923.000000	98.417792
922.000000	98.434230
921.000000	98.453444
920.000000	98.465630
919.000000	98.479243
918.000000	98.503526
917.000000	98.529260
916.000000	98.545943
915.000000	98.562149
914.000000	98.590005
913.000000	98.623560
912.000000	98.651674
911.000000	98.677861
910.000000	98.708730
909.000000	98.736349
908.000000	98.751342
907.000000	98.760825
906.000000	98.775524
905.000000	98.791564
904.000000	98.801364
903.000000	98.809644
902.000000	98.822499
901.000000	98.834585
900.000000	98.842464
899.000000	98.856083
898.000000	98.880688
897.000000	98.903051
896.000000	98.911133
895.000000	98.912774
894.000000	98.919720
893.000000	98.929229
892.000000	98.936422
891.000000	98.947039
890.000000	98.961648
889.000000	98.964536
888.000000	98.945309
887.000000	98.913323
886.000000	98.875129
885.000000	98.815788
884.000000	98.720701
883.000000	98.596518
882.000000	98.450243
881.000000	98.267407
880.000000	98.032363
879.000000	97.755457
878.000000	97.462504
877.000000	97.177501
876.000000	96.934048
875.000000	96.779927
874.000000	96.744035
873.000000	96.812888
872.000000	96.956937
871.000000	97.157203
870.000000	97.389769
869.000000	97.612882
868.000000	97.795272
867.000000	97.941085
866.000000	98.067115
865.000000	98.173866
864.000000	98.256720
863.000000	98.323938
862.000000	98.382049
861.000000	98.422127
860.000000	98.440737
859.000000	98.455297
858.000000	98.480041
857.000000	98.504795
856.000000	98.516395
855.000000	98.521831
854.000000	98.531376
853.000000	98.539088
852.000000	98.538695
851.000000	98.539811
850.000000	98.550259
849.000000	98.562350
848.000000	98.573046
847.000000	98.596204
846.000000	98.637589
845.000000	98.680649
844.000000	98.713646
843.000000	98.746750
842.000000	98.785634
841.000000	98.814791
840.000000	98.826192
839.000000	98.837690
838.000000	98.862703
837.000000	98.887306
836.000000	98.898350
835.000000	98.906808
834.000000	98.921493
833.000000	98.927470
832.000000	98.915715
831.000000	98.907220
830.000000	98.920847
829.000000	98.941425
828.000000	98.946595
827.000000	98.942011
826.000000	98.942336
825.000000	98.942307
824.000000	98.934520
823.000000	98.930075
822.000000	98.933549
821.000000	98.925885
820.000000	98.898898
819.000000	98.877301
818.000000	98.880119
817.000000	98.889178
816.000000	98.882084
815.000000	98.868976
814.000000	98.869464
813.000000	98.878086
812.000000	98.881308
811.000000	98.885747
810.000000	98.901682
809.000000	98.918718
808.000000	98.922958
807.000000	98.918917
806.000000	98.913574
805.000000	98.901462
804.000000	98.884921
803.000000	98.882790
802.000000	98.899072
801.000000	98.911217
800.000000	98.909636
799.000000	98.916650
798.000000	98.942746
797.000000	98.959047
796.000000	98.941855
795.000000	98.912371
794.000000	98.901913
793.000000	98.907178
792.000000	98.909256
791.000000	98.908351
790.000000	98.910363
789.000000	98.905641
788.000000	98.889843
787.000000	98.880988
786.000000	98.889046
785.000000	98.893622
784.000000	98.877298
783.000000	98.855582
782.000000	98.849123
781.000000	98.852639
780.000000	98.856287
779.000000	98.870028
778.000000	98.899327
777.000000	98.923060
776.000000	98.924322
775.000000	98.919062
774.000000	98.926919
773.000000	98.937852
772.000000	98.934806
771.000000	98.925028
770.000000	98.921459
769.000000	98.916500
768.000000	98.902119
767.000000	98.893357
766.000000	98.904238
765.000000	98.921642
764.000000	98.928450
763.000000	98.931078
762.000000	98.939154
761.000000	98.941533
760.000000	98.928122
759.000000	98.912904
758.000000	98.909952
757.000000	98.908707
756.000000	98.896753
755.000000	98.884257
754.000000	98.882846
753.000000	98.883964
752.000000	98.880090
751.000000	98.881396
750.000000	98.889040
749.000000	98.880818
748.000000	98.849079
747.000000	98.823095
746.000000	98.826003
745.000000	98.837361
744.000000	98.828751
743.000000	98.809816
742.000000	98.806209
741.000000	98.815552
740.000000	98.817547
739.000000	98.808582
738.000000	98.796546
737.000000	98.779818
736.000000	98.756724
735.000000	98.737209
734.000000	98.721897
733.000000	98.690940
732.000000	98.636091
731.000000	98.581374
730.000000	98.547484
729.000000	98.517693
728.000000	98.467532
727.000000	98.404304
726.000000	98.348261
725.000000	98.300124
724.000000	98.254206
723.000000	98.218148
722.000000	98.194832
721.000000	98.170284
720.000000	98.144096
719.000000	98.141108
718.000000	98.166866
717.000000	98.180850
716.000000	98.139506
715.000000	98.044966
714.000000	97.933327
713.000000	97.840903
712.000000	97.800324
711.000000	97.834692
710.000000	97.924911
709.000000	98.009696
708.000000	98.046290
707.000000	98.051704
706.000000	98.059627
705.000000	98.071749
704.000000	98.079396
703.000000	98.090584
702.000000	98.106385
701.000000	98.103885
700.000000	98.072626
699.000000	98.042457
698.000000	98.041068
697.000000	98.053970
696.000000	98.059258
695.000000	98.063722
694.000000	98.080609
693.000000	98.100625
692.000000	98.111106
691.000000	98.121562
690.000000	98.134233
689.000000	98.124037
688.000000	98.080317
687.000000	98.030553
686.000000	97.994477
685.000000	97.950610
684.000000	97.879131
683.000000	97.806538
682.000000	97.766650
681.000000	97.747158
680.000000	97.710955
679.000000	97.649459
678.000000	97.579502
677.000000	97.498677
676.000000	97.397977
675.000000	97.292157
674.000000	97.194642
673.000000	97.095898
672.000000	97.001668
671.000000	96.959296
670.000000	97.001835
669.000000	97.092742
668.000000	97.090337
667.000000	96.926180
666.000000	96.803432
665.000000	96.779726
664.000000	96.787962
663.000000	96.831934
662.000000	96.921223
661.000000	97.025691
660.000000	97.109155
659.000000	97.180982
658.000000	97.257884
657.000000	97.315799
656.000000	97.341540
655.000000	97.374857
654.000000	97.438478
653.000000	97.488667
652.000000	97.493419
651.000000	97.489005
650.000000	97.511568
649.000000	97.533318
648.000000	97.524614
647.000000	97.511513
646.000000	97.518265
645.000000	97.522133
644.000000	97.510087
643.000000	97.514025
642.000000	97.550218
641.000000	97.580187
640.000000	97.575555
639.000000	97.564931
638.000000	97.567215
637.000000	97.545933
636.000000	97.481080
635.000000	97.420291
634.000000	97.407925
633.000000	97.422825
632.000000	97.431292
631.000000	97.442806
630.000000	97.466037
629.000000	97.472424
628.000000	97.453508
627.000000	97.451331
626.000000	97.480931
625.000000	97.489502
624.000000	97.444459
623.000000	97.392513
622.000000	97.382495
621.000000	97.391962
620.000000	97.381788
619.000000	97.363096
618.000000	97.358605
617.000000	97.353084
616.000000	97.333759
615.000000	97.325633
614.000000	97.334241
613.000000	97.313395
612.000000	97.237944
611.000000	97.149460
610.000000	97.080729
609.000000	97.002034
608.000000	96.891817
607.000000	96.790966
606.000000	96.727687
605.000000	96.661143
604.000000	96.556257
603.000000	96.444578
602.000000	96.358151
601.000000	96.275198
600.000000	96.188732
599.000000	96.149255
598.000000	96.181927
597.000000	96.234909
596.000000	96.268709
595.000000	96.318009
594.000000	96.410740
593.000000	96.499702
592.000000	96.538735
591.000000	96.558347
590.000000	96.597528
589.000000	96.636252
588.000000	96.659429
587.000000	96.707892
586.000000	96.801107
585.000000	96.881341
584.000000	96.902332
583.000000	96.902641
582.000000	96.923783
581.000000	96.933447
580.000000	96.901299
579.000000	96.873197
578.000000	96.894746
577.000000	96.933908
576.000000	96.950203
575.000000	96.968616
574.000000	97.011545
573.000000	97.034029
572.000000	97.004336
571.000000	96.972058
570.000000	96.987883
569.000000	97.021752
568.000000	97.032341
567.000000	97.042393
566.000000	97.068776
565.000000	97.062000
564.000000	96.995448
563.000000	96.932044
562.000000	96.927379
561.000000	96.944708
560.000000	96.942630
559.000000	96.961581
558.000000	97.035173
557.000000	97.105183
556.000000	97.117794
555.000000	97.121588
554.000000	97.173817
553.000000	97.231169
552.000000	97.232056
551.000000	97.206364
550.000000	97.208626
549.000000	97.219400
548.000000	97.214171
547.000000	97.248464
546.000000	97.369006
545.000000	97.509821
544.000000	97.582176
543.000000	97.594117
542.000000	97.591588
541.000000	97.562726
540.000000	97.490856
539.000000	97.424975
538.000000	97.406473
537.000000	97.396660
536.000000	97.360751
535.000000	97.342630
534.000000	97.370982
533.000000	97.382004
532.000000	97.331222
531.000000	97.286904
530.000000	97.315588
529.000000	97.371263
528.000000	97.394183
527.000000	97.418724
526.000000	97.480837
525.000000	97.511230
524.000000	97.454605
523.000000	97.389667
522.000000	97.408066
521.000000	97.481289
520.000000	97.539376
519.000000	97.595795
518.000000	97.685383
517.000000	97.752113
516.000000	97.737947
515.000000	97.699636
514.000000	97.709840
513.000000	97.742907
512.000000	97.753106
511.000000	97.773633
510.000000	97.846099
509.000000	97.932659
508.000000	97.994335
507.000000	98.063411
506.000000	98.150294
505.000000	98.187493
504.000000	98.153957
503.000000	98.143129
502.000000	98.212380
501.000000	98.271568
500.000000	98.245894
499.000000	98.199199
498.000000	98.191782
497.000000	98.174193
496.000000	98.117556
495.000000	98.111788
494.000000	98.212492
493.000000	98.312477
492.000000	98.302769
491.000000	98.246273
490.000000	98.246848
489.000000	98.271807
488.000000	98.259858
487.000000	98.265891
486.000000	98.356502
485.000000	98.470089
484.000000	98.521695
483.000000	98.548089
482.000000	98.595979
481.000000	98.603425
480.000000	98.531858
479.000000	98.476127
478.000000	98.511038
477.000000	98.549815
476.000000	98.501364
475.000000	98.437661
474.000000	98.457945
473.000000	98.502065
472.000000	98.474460
471.000000	98.452236
470.000000	98.535343
469.000000	98.640205
468.000000	98.643181
467.000000	98.581800
466.000000	98.565261
465.000000	98.590251
464.000000	98.614629
463.000000	98.676105
462.000000	98.772665
461.000000	98.775613
460.000000	98.638313
459.000000	98.556072
458.000000	98.724887
457.000000	98.984334
456.000000	99.048680
455.000000	98.966865
454.000000	98.926277
453.000000	98.941592
452.000000	98.939405
451.000000	98.964295
450.000000	99.076824
