PE IR       SUBTECH     SPECTRUM    ASCII       PEDS        4.00        
   -1
11753-Hull01-C001_1.ASC
23/09/13
11:26:50.00
23/09/13
11:33:37.00
uco
Sample 001 By uco Date Wednesday, September 13 2023
450.000000
#HDR
-1
-1
#GR
cm-1
%T
1.0
0.0
4000.000000
-1.000000
3551
8
98.027711
84.363765
#DATA
4000.000000	97.905434
3999.000000	97.903542
3998.000000	97.888235
3997.000000	97.882242
3996.000000	97.877804
3995.000000	97.877420
3994.000000	97.881819
3993.000000	97.889751
3992.000000	97.898685
3991.000000	97.906355
3990.000000	97.911420
3989.000000	97.913228
3988.000000	97.911409
3987.000000	97.905941
3986.000000	97.897676
3985.000000	97.888411
3984.000000	97.880155
3983.000000	97.874328
3982.000000	97.871374
3981.000000	97.870975
3980.000000	97.872682
3979.000000	97.876187
3978.000000	97.880612
3977.000000	97.883811
3976.000000	97.883169
3975.000000	97.877859
3974.000000	97.870341
3973.000000	97.864862
3972.000000	97.864056
3971.000000	97.866899
3970.000000	97.870281
3969.000000	97.871870
3968.000000	97.871193
3967.000000	97.869078
3966.000000	97.866628
3965.000000	97.864881
3964.000000	97.864454
3963.000000	97.864954
3962.000000	97.865011
3961.000000	97.863296
3960.000000	97.859950
3959.000000	97.856136
3958.000000	97.852764
3957.000000	97.849926
3956.000000	97.846883
3955.000000	97.843170
3954.000000	97.839571
3953.000000	97.838315
3952.000000	97.841821
3951.000000	97.850491
3950.000000	97.861825
3949.000000	97.870941
3948.000000	97.873477
3947.000000	97.868763
3946.000000	97.859159
3945.000000	97.848147
3944.000000	97.839154
3943.000000	97.834444
3942.000000	97.834801
3941.000000	97.838669
3940.000000	97.842595
3939.000000	97.843549
3938.000000	97.841811
3937.000000	97.841193
3936.000000	97.844966
3935.000000	97.852741
3934.000000	97.860758
3933.000000	97.864338
3932.000000	97.861575
3931.000000	97.854523
3930.000000	97.847210
3929.000000	97.841510
3928.000000	97.836265
3927.000000	97.831365
3926.000000	97.828952
3925.000000	97.831066
3924.000000	97.837224
3923.000000	97.845350
3922.000000	97.853991
3921.000000	97.862885
3920.000000	97.871319
3919.000000	97.876763
3918.000000	97.875486
3917.000000	97.866575
3916.000000	97.854376
3915.000000	97.844270
3914.000000	97.838099
3913.000000	97.834189
3912.000000	97.831082
3911.000000	97.828186
3910.000000	97.825356
3909.000000	97.822140
3908.000000	97.817942
3907.000000	97.814896
3906.000000	97.818289
3905.000000	97.832860
3904.000000	97.855975
3903.000000	97.876114
3902.000000	97.882835
3901.000000	97.875759
3900.000000	97.862193
3899.000000	97.851217
3898.000000	97.846832
3897.000000	97.846099
3896.000000	97.844584
3895.000000	97.840205
3894.000000	97.834805
3893.000000	97.831907
3892.000000	97.832749
3891.000000	97.834732
3890.000000	97.835542
3889.000000	97.834438
3888.000000	97.832030
3887.000000	97.830432
3886.000000	97.830749
3885.000000	97.832373
3884.000000	97.833974
3883.000000	97.833605
3882.000000	97.830530
3881.000000	97.825937
3880.000000	97.821342
3879.000000	97.817899
3878.000000	97.814751
3877.000000	97.810076
3876.000000	97.803847
3875.000000	97.798661
3874.000000	97.798274
3873.000000	97.803972
3872.000000	97.813249
3871.000000	97.821625
3870.000000	97.826113
3869.000000	97.828833
3868.000000	97.833389
3867.000000	97.838557
3866.000000	97.840325
3865.000000	97.837420
3864.000000	97.832022
3863.000000	97.827299
3862.000000	97.825724
3861.000000	97.827033
3860.000000	97.827254
3859.000000	97.822238
3858.000000	97.810348
3857.000000	97.795679
3856.000000	97.787407
3855.000000	97.792324
3854.000000	97.808768
3853.000000	97.819657
3852.000000	97.817854
3851.000000	97.814859
3850.000000	97.817035
3849.000000	97.820814
3848.000000	97.822857
3847.000000	97.821242
3846.000000	97.816474
3845.000000	97.811173
3844.000000	97.807853
3843.000000	97.807312
3842.000000	97.809534
3841.000000	97.812504
3840.000000	97.813597
3839.000000	97.811237
3838.000000	97.805696
3837.000000	97.801287
3836.000000	97.802118
3835.000000	97.807878
3834.000000	97.815505
3833.000000	97.821340
3832.000000	97.822137
3831.000000	97.818118
3830.000000	97.812733
3829.000000	97.810528
3828.000000	97.813509
3827.000000	97.819705
3826.000000	97.826603
3825.000000	97.833100
3824.000000	97.838799
3823.000000	97.841064
3822.000000	97.837725
3821.000000	97.830826
3820.000000	97.824536
3819.000000	97.820795
3818.000000	97.818355
3817.000000	97.816001
3816.000000	97.811893
3815.000000	97.807879
3814.000000	97.808347
3813.000000	97.813526
3812.000000	97.820488
3811.000000	97.825756
3810.000000	97.827903
3809.000000	97.827404
3808.000000	97.824693
3807.000000	97.819469
3806.000000	97.813242
3805.000000	97.807512
3804.000000	97.802774
3803.000000	97.798264
3802.000000	97.794700
3801.000000	97.795451
3800.000000	97.804831
3799.000000	97.818703
3798.000000	97.828871
3797.000000	97.830535
3796.000000	97.824560
3795.000000	97.815919
3794.000000	97.809019
3793.000000	97.805928
3792.000000	97.806589
3791.000000	97.809295
3790.000000	97.812047
3789.000000	97.813771
3788.000000	97.813619
3787.000000	97.811161
3786.000000	97.806910
3785.000000	97.802056
3784.000000	97.797379
3783.000000	97.792483
3782.000000	97.786859
3781.000000	97.781956
3780.000000	97.781090
3779.000000	97.785320
3778.000000	97.792545
3777.000000	97.800004
3776.000000	97.806392
3775.000000	97.811432
3774.000000	97.815969
3773.000000	97.821693
3772.000000	97.829121
3771.000000	97.836409
3770.000000	97.840967
3769.000000	97.842281
3768.000000	97.840857
3767.000000	97.837070
3766.000000	97.831636
3765.000000	97.826883
3764.000000	97.825621
3763.000000	97.827639
3762.000000	97.829826
3761.000000	97.829495
3760.000000	97.827596
3759.000000	97.826474
3758.000000	97.828276
3757.000000	97.834404
3756.000000	97.843751
3755.000000	97.853840
3754.000000	97.865359
3753.000000	97.883430
3752.000000	97.910270
3751.000000	97.934217
3750.000000	97.937905
3749.000000	97.921466
3748.000000	97.896846
3747.000000	97.872831
3746.000000	97.853450
3745.000000	97.839560
3744.000000	97.832692
3743.000000	97.839010
3742.000000	97.858350
3741.000000	97.882899
3740.000000	97.904054
3739.000000	97.916491
3738.000000	97.917843
3737.000000	97.911790
3736.000000	97.904824
3735.000000	97.900792
3734.000000	97.900505
3733.000000	97.899936
3732.000000	97.893663
3731.000000	97.881941
3730.000000	97.870597
3729.000000	97.865044
3728.000000	97.865925
3727.000000	97.869528
3726.000000	97.870682
3725.000000	97.867339
3724.000000	97.861223
3723.000000	97.855665
3722.000000	97.854101
3721.000000	97.856451
3720.000000	97.860547
3719.000000	97.864031
3718.000000	97.865834
3717.000000	97.866613
3716.000000	97.867218
3715.000000	97.867556
3714.000000	97.865661
3713.000000	97.858106
3712.000000	97.844435
3711.000000	97.830162
3710.000000	97.823634
3709.000000	97.828933
3708.000000	97.841907
3707.000000	97.855745
3706.000000	97.866246
3705.000000	97.872099
3704.000000	97.874199
3703.000000	97.874696
3702.000000	97.874553
3701.000000	97.872295
3700.000000	97.865901
3699.000000	97.855581
3698.000000	97.843813
3697.000000	97.833959
3696.000000	97.828147
3695.000000	97.824583
3694.000000	97.818971
3693.000000	97.809086
3692.000000	97.799631
3691.000000	97.800108
3690.000000	97.813700
3689.000000	97.827928
3688.000000	97.829717
3687.000000	97.822849
3686.000000	97.816678
3685.000000	97.815221
3684.000000	97.818057
3683.000000	97.822259
3682.000000	97.823696
3681.000000	97.819717
3680.000000	97.810330
3679.000000	97.798799
3678.000000	97.790162
3677.000000	97.785738
3676.000000	97.781925
3675.000000	97.775589
3674.000000	97.772723
3673.000000	97.774977
3672.000000	97.776742
3671.000000	97.769195
3670.000000	97.748796
3669.000000	97.726416
3668.000000	97.716795
3667.000000	97.719714
3666.000000	97.726487
3665.000000	97.730218
3664.000000	97.728721
3663.000000	97.723156
3662.000000	97.716821
3661.000000	97.713345
3660.000000	97.713548
3659.000000	97.715735
3658.000000	97.717345
3657.000000	97.715881
3656.000000	97.709428
3655.000000	97.698360
3654.000000	97.684864
3653.000000	97.670707
3652.000000	97.658885
3651.000000	97.654603
3650.000000	97.657228
3649.000000	97.650307
3648.000000	97.625220
3647.000000	97.599143
3646.000000	97.586545
3645.000000	97.583963
3644.000000	97.581899
3643.000000	97.574068
3642.000000	97.559881
3641.000000	97.543144
3640.000000	97.527128
3639.000000	97.512551
3638.000000	97.499532
3637.000000	97.488605
3636.000000	97.479739
3635.000000	97.472727
3634.000000	97.469633
3633.000000	97.473589
3632.000000	97.484366
3631.000000	97.495902
3630.000000	97.498385
3629.000000	97.484302
3628.000000	97.460280
3627.000000	97.442774
3626.000000	97.434576
3625.000000	97.429494
3624.000000	97.422312
3623.000000	97.411361
3622.000000	97.397040
3621.000000	97.380089
3620.000000	97.359765
3619.000000	97.334989
3618.000000	97.308153
3617.000000	97.285347
3616.000000	97.269497
3615.000000	97.257901
3614.000000	97.245996
3613.000000	97.232278
3612.000000	97.220417
3611.000000	97.213014
3610.000000	97.205727
3609.000000	97.190267
3608.000000	97.164639
3607.000000	97.137612
3606.000000	97.119577
3605.000000	97.112702
3604.000000	97.110903
3603.000000	97.107170
3602.000000	97.097647
3601.000000	97.082425
3600.000000	97.065108
3599.000000	97.049805
3598.000000	97.036585
3597.000000	97.021486
3596.000000	97.000345
3595.000000	96.972920
3594.000000	96.945501
3593.000000	96.925404
3592.000000	96.914381
3591.000000	96.907633
3590.000000	96.898980
3589.000000	96.884460
3588.000000	96.862137
3587.000000	96.832179
3586.000000	96.802187
3585.000000	96.778878
3584.000000	96.760023
3583.000000	96.741302
3582.000000	96.722210
3581.000000	96.703970
3580.000000	96.686019
3579.000000	96.665576
3578.000000	96.641353
3577.000000	96.615460
3576.000000	96.591717
3575.000000	96.571776
3574.000000	96.554242
3573.000000	96.536150
3572.000000	96.514008
3571.000000	96.485610
3570.000000	96.452787
3569.000000	96.422931
3568.000000	96.402366
3567.000000	96.386782
3566.000000	96.367939
3565.000000	96.347045
3564.000000	96.326128
3563.000000	96.302335
3562.000000	96.274145
3561.000000	96.244717
3560.000000	96.218454
3559.000000	96.196512
3558.000000	96.176094
3557.000000	96.154210
3556.000000	96.130525
3555.000000	96.106484
3554.000000	96.082593
3553.000000	96.057982
3552.000000	96.032281
3551.000000	96.007287
3550.000000	95.985543
3549.000000	95.968003
3548.000000	95.953500
3547.000000	95.938420
3546.000000	95.917694
3545.000000	95.889444
3544.000000	95.857891
3543.000000	95.828949
3542.000000	95.805524
3541.000000	95.786392
3540.000000	95.768015
3539.000000	95.747893
3538.000000	95.726545
3537.000000	95.706780
3536.000000	95.690182
3535.000000	95.675781
3534.000000	95.661672
3533.000000	95.646698
3532.000000	95.631008
3531.000000	95.615939
3530.000000	95.603929
3529.000000	95.597071
3528.000000	95.594760
3527.000000	95.593549
3526.000000	95.589863
3525.000000	95.581284
3524.000000	95.565938
3523.000000	95.543594
3522.000000	95.517987
3521.000000	95.495323
3520.000000	95.479180
3519.000000	95.468522
3518.000000	95.460316
3517.000000	95.452918
3516.000000	95.446534
3515.000000	95.441081
3514.000000	95.435471
3513.000000	95.428358
3512.000000	95.419045
3511.000000	95.408025
3510.000000	95.396908
3509.000000	95.387217
3508.000000	95.378891
3507.000000	95.370749
3506.000000	95.362540
3505.000000	95.356012
3504.000000	95.352228
3503.000000	95.349167
3502.000000	95.343855
3501.000000	95.335004
3500.000000	95.322030
3499.000000	95.304138
3498.000000	95.282481
3497.000000	95.261227
3496.000000	95.245139
3495.000000	95.236006
3494.000000	95.232120
3493.000000	95.230377
3492.000000	95.228083
3491.000000	95.224026
3490.000000	95.218859
3489.000000	95.213551
3488.000000	95.207114
3487.000000	95.197101
3486.000000	95.182902
3485.000000	95.167113
3484.000000	95.152804
3483.000000	95.140518
3482.000000	95.128910
3481.000000	95.117504
3480.000000	95.107189
3479.000000	95.098402
3478.000000	95.090375
3477.000000	95.082425
3476.000000	95.075053
3475.000000	95.069599
3474.000000	95.066855
3473.000000	95.065565
3472.000000	95.062134
3471.000000	95.052949
3470.000000	95.038016
3469.000000	95.021437
3468.000000	95.007763
3467.000000	94.998453
3466.000000	94.991656
3465.000000	94.984159
3464.000000	94.972814
3463.000000	94.956076
3462.000000	94.936113
3461.000000	94.918253
3460.000000	94.906264
3459.000000	94.898415
3458.000000	94.889749
3457.000000	94.878186
3456.000000	94.866438
3455.000000	94.858179
3454.000000	94.853713
3453.000000	94.849792
3452.000000	94.842788
3451.000000	94.831238
3450.000000	94.816691
3449.000000	94.802670
3448.000000	94.792116
3447.000000	94.784977
3446.000000	94.778679
3445.000000	94.770385
3444.000000	94.758225
3443.000000	94.741474
3442.000000	94.720928
3441.000000	94.699025
3440.000000	94.678197
3439.000000	94.659273
3438.000000	94.642119
3437.000000	94.627279
3436.000000	94.615404
3435.000000	94.605533
3434.000000	94.595260
3433.000000	94.582756
3432.000000	94.568114
3431.000000	94.552313
3430.000000	94.536250
3429.000000	94.520557
3428.000000	94.505286
3427.000000	94.489488
3426.000000	94.471752
3425.000000	94.451429
3424.000000	94.428865
3423.000000	94.404772
3422.000000	94.379855
3421.000000	94.354644
3420.000000	94.329171
3419.000000	94.303451
3418.000000	94.278886
3417.000000	94.258007
3416.000000	94.241775
3415.000000	94.227610
3414.000000	94.211411
3413.000000	94.191323
3412.000000	94.168357
3411.000000	94.143978
3410.000000	94.118664
3409.000000	94.092651
3408.000000	94.066641
3407.000000	94.041580
3406.000000	94.018313
3405.000000	93.997305
3404.000000	93.977824
3403.000000	93.958060
3402.000000	93.937165
3401.000000	93.916527
3400.000000	93.898218
3399.000000	93.882613
3398.000000	93.868687
3397.000000	93.856012
3396.000000	93.844943
3395.000000	93.835021
3394.000000	93.825011
3393.000000	93.814958
3392.000000	93.807009
3391.000000	93.803245
3390.000000	93.803083
3389.000000	93.803798
3388.000000	93.803398
3387.000000	93.802346
3386.000000	93.802225
3385.000000	93.803193
3384.000000	93.803456
3383.000000	93.801408
3382.000000	93.797394
3381.000000	93.792566
3380.000000	93.786668
3379.000000	93.777754
3378.000000	93.764253
3377.000000	93.746864
3376.000000	93.728837
3375.000000	93.714652
3374.000000	93.707235
3373.000000	93.705158
3372.000000	93.703074
3371.000000	93.696283
3370.000000	93.684742
3369.000000	93.671628
3368.000000	93.658620
3367.000000	93.644409
3366.000000	93.627713
3365.000000	93.609610
3364.000000	93.592148
3363.000000	93.576305
3362.000000	93.561778
3361.000000	93.547098
3360.000000	93.529379
3359.000000	93.505832
3358.000000	93.476915
3357.000000	93.447011
3356.000000	93.420848
3355.000000	93.399737
3354.000000	93.381686
3353.000000	93.363859
3352.000000	93.343883
3351.000000	93.320097
3350.000000	93.292440
3349.000000	93.263117
3348.000000	93.235446
3347.000000	93.211913
3346.000000	93.192981
3345.000000	93.176755
3344.000000	93.159428
3343.000000	93.137220
3342.000000	93.109250
3341.000000	93.078256
3340.000000	93.048222
3339.000000	93.021725
3338.000000	92.999315
3337.000000	92.979999
3336.000000	92.961775
3335.000000	92.942761
3334.000000	92.922466
3333.000000	92.901266
3332.000000	92.878701
3331.000000	92.853835
3330.000000	92.827585
3329.000000	92.802855
3328.000000	92.781348
3327.000000	92.761792
3326.000000	92.742315
3325.000000	92.723045
3324.000000	92.704904
3323.000000	92.687158
3322.000000	92.668312
3321.000000	92.648635
3320.000000	92.629910
3319.000000	92.612932
3318.000000	92.596610
3317.000000	92.579449
3316.000000	92.561125
3315.000000	92.542947
3314.000000	92.527769
3313.000000	92.518836
3312.000000	92.516977
3311.000000	92.518809
3310.000000	92.518772
3309.000000	92.513354
3308.000000	92.503244
3307.000000	92.491744
3306.000000	92.481786
3305.000000	92.474142
3304.000000	92.467385
3303.000000	92.459300
3302.000000	92.448814
3301.000000	92.436729
3300.000000	92.424459
3299.000000	92.412600
3298.000000	92.401211
3297.000000	92.390874
3296.000000	92.382860
3295.000000	92.378050
3294.000000	92.375678
3293.000000	92.373266
3292.000000	92.368333
3291.000000	92.361096
3290.000000	92.355165
3289.000000	92.354225
3288.000000	92.357892
3287.000000	92.361989
3286.000000	92.363206
3285.000000	92.362223
3284.000000	92.362009
3283.000000	92.364419
3282.000000	92.369095
3281.000000	92.374620
3280.000000	92.379784
3279.000000	92.384482
3278.000000	92.390082
3277.000000	92.398354
3276.000000	92.409816
3275.000000	92.423710
3274.000000	92.439129
3273.000000	92.454602
3272.000000	92.466936
3271.000000	92.473035
3270.000000	92.473935
3269.000000	92.474941
3268.000000	92.480573
3267.000000	92.490837
3266.000000	92.503366
3265.000000	92.517291
3264.000000	92.533128
3263.000000	92.550389
3262.000000	92.567586
3261.000000	92.583983
3260.000000	92.599487
3259.000000	92.613276
3258.000000	92.624276
3257.000000	92.633160
3256.000000	92.642403
3255.000000	92.653969
3254.000000	92.667606
3253.000000	92.681818
3252.000000	92.696170
3251.000000	92.712211
3250.000000	92.731902
3249.000000	92.754513
3248.000000	92.775528
3247.000000	92.789909
3246.000000	92.796916
3245.000000	92.800981
3244.000000	92.807450
3243.000000	92.818219
3242.000000	92.831548
3241.000000	92.844451
3240.000000	92.854818
3239.000000	92.862861
3238.000000	92.871360
3237.000000	92.883288
3236.000000	92.898212
3235.000000	92.912281
3234.000000	92.922531
3233.000000	92.929874
3232.000000	92.937232
3231.000000	92.946049
3230.000000	92.956032
3229.000000	92.966914
3228.000000	92.978678
3227.000000	92.990740
3226.000000	93.002289
3225.000000	93.013117
3224.000000	93.023360
3223.000000	93.032843
3222.000000	93.041451
3221.000000	93.049402
3220.000000	93.056441
3219.000000	93.061710
3218.000000	93.065368
3217.000000	93.069621
3216.000000	93.077115
3215.000000	93.088640
3214.000000	93.102939
3213.000000	93.118066
3212.000000	93.132120
3211.000000	93.143532
3210.000000	93.151967
3209.000000	93.158745
3208.000000	93.165392
3207.000000	93.171973
3206.000000	93.177623
3205.000000	93.182415
3204.000000	93.188028
3203.000000	93.196815
3202.000000	93.210526
3201.000000	93.229042
3200.000000	93.249201
3199.000000	93.265771
3198.000000	93.275444
3197.000000	93.280477
3196.000000	93.287431
3195.000000	93.301253
3194.000000	93.320739
3193.000000	93.339862
3192.000000	93.353461
3191.000000	93.361823
3190.000000	93.369833
3189.000000	93.381953
3188.000000	93.398497
3187.000000	93.416947
3186.000000	93.435789
3185.000000	93.455939
3184.000000	93.478655
3183.000000	93.503521
3182.000000	93.528688
3181.000000	93.552123
3180.000000	93.572486
3179.000000	93.589902
3178.000000	93.606274
3177.000000	93.623753
3176.000000	93.642464
3175.000000	93.660817
3174.000000	93.678115
3173.000000	93.695367
3172.000000	93.713040
3171.000000	93.729651
3170.000000	93.743836
3169.000000	93.756500
3168.000000	93.769685
3167.000000	93.784234
3166.000000	93.800155
3165.000000	93.818553
3164.000000	93.841302
3163.000000	93.868599
3162.000000	93.897919
3161.000000	93.925698
3160.000000	93.949372
3159.000000	93.968077
3158.000000	93.982610
3157.000000	93.995152
3156.000000	94.008231
3155.000000	94.023239
3154.000000	94.039830
3153.000000	94.056535
3152.000000	94.071817
3151.000000	94.084964
3150.000000	94.096726
3149.000000	94.109172
3148.000000	94.124521
3147.000000	94.143725
3146.000000	94.165842
3145.000000	94.188406
3144.000000	94.208651
3143.000000	94.225352
3142.000000	94.239611
3141.000000	94.253320
3140.000000	94.266777
3139.000000	94.278681
3138.000000	94.288546
3137.000000	94.297976
3136.000000	94.308978
3135.000000	94.321809
3134.000000	94.335042
3133.000000	94.347100
3132.000000	94.357191
3131.000000	94.365317
3130.000000	94.372322
3129.000000	94.379697
3128.000000	94.388594
3127.000000	94.398765
3126.000000	94.408900
3125.000000	94.418038
3124.000000	94.426393
3123.000000	94.434970
3122.000000	94.444476
3121.000000	94.454289
3120.000000	94.462311
3119.000000	94.466417
3118.000000	94.466410
3117.000000	94.464138
3116.000000	94.461374
3115.000000	94.458349
3114.000000	94.454818
3113.000000	94.451555
3112.000000	94.449604
3111.000000	94.448278
3110.000000	94.445235
3109.000000	94.438924
3108.000000	94.430417
3107.000000	94.422444
3106.000000	94.417148
3105.000000	94.414711
3104.000000	94.413625
3103.000000	94.411954
3102.000000	94.408692
3101.000000	94.404189
3100.000000	94.399292
3099.000000	94.394305
3098.000000	94.388741
3097.000000	94.381650
3096.000000	94.372118
3095.000000	94.360117
3094.000000	94.347100
3093.000000	94.335045
3092.000000	94.324675
3091.000000	94.315356
3090.000000	94.306861
3089.000000	94.300131
3088.000000	94.295879
3087.000000	94.293519
3086.000000	94.292235
3085.000000	94.291831
3084.000000	94.291411
3083.000000	94.288566
3082.000000	94.281592
3081.000000	94.272009
3080.000000	94.263004
3079.000000	94.255546
3078.000000	94.247784
3077.000000	94.238730
3076.000000	94.230809
3075.000000	94.227761
3074.000000	94.230774
3073.000000	94.237574
3072.000000	94.245099
3071.000000	94.252019
3070.000000	94.258466
3069.000000	94.263875
3068.000000	94.266186
3067.000000	94.263948
3066.000000	94.258837
3065.000000	94.255098
3064.000000	94.256228
3063.000000	94.263000
3062.000000	94.274742
3061.000000	94.291059
3060.000000	94.311305
3059.000000	94.333384
3058.000000	94.354356
3057.000000	94.372320
3056.000000	94.387342
3055.000000	94.400872
3054.000000	94.414581
3053.000000	94.428967
3052.000000	94.442714
3051.000000	94.454067
3050.000000	94.463432
3049.000000	94.474021
3048.000000	94.489161
3047.000000	94.509408
3046.000000	94.532601
3045.000000	94.555901
3044.000000	94.577322
3043.000000	94.596222
3042.000000	94.613113
3041.000000	94.628636
3040.000000	94.642405
3039.000000	94.653872
3038.000000	94.664388
3037.000000	94.676967
3036.000000	94.693184
3035.000000	94.711483
3034.000000	94.729428
3033.000000	94.746275
3032.000000	94.761983
3031.000000	94.775027
3030.000000	94.783348
3029.000000	94.787390
3028.000000	94.790638
3027.000000	94.796596
3026.000000	94.805973
3025.000000	94.816769
3024.000000	94.826362
3023.000000	94.833543
3022.000000	94.839156
3021.000000	94.844947
3020.000000	94.851410
3019.000000	94.856887
3018.000000	94.859100
3017.000000	94.857113
3016.000000	94.851283
3015.000000	94.842044
3014.000000	94.829588
3013.000000	94.814560
3012.000000	94.798209
3011.000000	94.782008
3010.000000	94.767455
3009.000000	94.755813
3008.000000	94.747672
3007.000000	94.743037
3006.000000	94.742025
3005.000000	94.744504
3004.000000	94.748878
3003.000000	94.752641
3002.000000	94.755277
3001.000000	94.759493
3000.000000	94.768162
2999.000000	94.780613
2998.000000	94.792912
2997.000000	94.801029
2996.000000	94.802405
2995.000000	94.795669
2994.000000	94.781164
2993.000000	94.761812
2992.000000	94.741325
2991.000000	94.720478
2990.000000	94.696317
2989.000000	94.665572
2988.000000	94.628316
2987.000000	94.587886
2986.000000	94.547766
2985.000000	94.508901
2984.000000	94.469430
2983.000000	94.426644
2982.000000	94.379255
2981.000000	94.327815
2980.000000	94.273261
2979.000000	94.215810
2978.000000	94.155648
2977.000000	94.093643
2976.000000	94.029965
2975.000000	93.962457
2974.000000	93.887433
2973.000000	93.802070
2972.000000	93.705450
2971.000000	93.597678
2970.000000	93.479400
2969.000000	93.352005
2968.000000	93.217140
2967.000000	93.075906
2966.000000	92.929299
2965.000000	92.779663
2964.000000	92.630466
2963.000000	92.484561
2962.000000	92.343455
2961.000000	92.208506
2960.000000	92.082019
2959.000000	91.966738
2958.000000	91.865603
2957.000000	91.782319
2956.000000	91.721633
2955.000000	91.687588
2954.000000	91.680812
2953.000000	91.697026
2952.000000	91.727372
2951.000000	91.760763
2950.000000	91.786288
2949.000000	91.794935
2948.000000	91.779741
2947.000000	91.735818
2946.000000	91.661023
2945.000000	91.556172
2944.000000	91.424395
2943.000000	91.269412
2942.000000	91.094241
2941.000000	90.899888
2940.000000	90.684957
2939.000000	90.447232
2938.000000	90.186012
2937.000000	89.902819
2936.000000	89.599270
2935.000000	89.276073
2934.000000	88.935230
2933.000000	88.581839
2932.000000	88.222035
2931.000000	87.859043
2930.000000	87.492627
2929.000000	87.121726
2928.000000	86.746539
2927.000000	86.369602
2926.000000	85.997140
2925.000000	85.639969
2924.000000	85.310566
2923.000000	85.019077
2922.000000	84.772843
2921.000000	84.579135
2920.000000	84.448081
2919.000000	84.393146
2918.000000	84.431841
2917.000000	84.584532
2916.000000	84.867087
2915.000000	85.280053
2914.000000	85.800884
2913.000000	86.386384
2912.000000	86.983940
2911.000000	87.547639
2910.000000	88.050130
2909.000000	88.484106
2908.000000	88.854812
2907.000000	89.170944
2906.000000	89.441606
2905.000000	89.676646
2904.000000	89.885706
2903.000000	90.076039
2902.000000	90.250984
2901.000000	90.412862
2900.000000	90.564278
2899.000000	90.707841
2898.000000	90.846326
2897.000000	90.983057
2896.000000	91.120883
2895.000000	91.259816
2894.000000	91.396870
2893.000000	91.528935
2892.000000	91.655201
2891.000000	91.776345
2890.000000	91.892451
2889.000000	92.002723
2888.000000	92.106451
2887.000000	92.202801
2886.000000	92.289868
2885.000000	92.365118
2884.000000	92.427363
2883.000000	92.477762
2882.000000	92.518297
2881.000000	92.549456
2880.000000	92.569392
2879.000000	92.575172
2878.000000	92.564648
2877.000000	92.537662
2876.000000	92.496608
2875.000000	92.446739
2874.000000	92.395817
2873.000000	92.351802
2872.000000	92.319524
2871.000000	92.299026
2870.000000	92.286625
2869.000000	92.276578
2868.000000	92.261401
2867.000000	92.231839
2866.000000	92.178225
2865.000000	92.092376
2864.000000	91.967735
2863.000000	91.799436
2862.000000	91.585994
2861.000000	91.331175
2860.000000	91.042423
2859.000000	90.726552
2858.000000	90.387813
2857.000000	90.030638
2856.000000	89.663029
2855.000000	89.295810
2854.000000	88.940992
2853.000000	88.613067
2852.000000	88.335660
2851.000000	88.148986
2850.000000	88.106694
2849.000000	88.257588
2848.000000	88.618137
2847.000000	89.155506
2846.000000	89.796141
2845.000000	90.455580
2844.000000	91.067753
2843.000000	91.599136
2842.000000	92.045316
2841.000000	92.417745
2840.000000	92.731668
2839.000000	92.998524
2838.000000	93.224944
2837.000000	93.415811
2836.000000	93.576551
2835.000000	93.712694
2834.000000	93.829016
2833.000000	93.929983
2832.000000	94.020451
2831.000000	94.104578
2830.000000	94.183603
2829.000000	94.255989
2828.000000	94.320126
2827.000000	94.376871
2826.000000	94.429615
2825.000000	94.482056
2824.000000	94.535887
2823.000000	94.590008
2822.000000	94.641765
2821.000000	94.689177
2820.000000	94.732140
2819.000000	94.771723
2818.000000	94.808537
2817.000000	94.841983
2816.000000	94.871025
2815.000000	94.895669
2814.000000	94.917764
2813.000000	94.940010
2812.000000	94.963716
2811.000000	94.987620
2810.000000	95.009329
2809.000000	95.027861
2808.000000	95.044300
2807.000000	95.060395
2806.000000	95.077588
2805.000000	95.097107
2804.000000	95.119344
2803.000000	95.142419
2802.000000	95.162791
2801.000000	95.178566
2800.000000	95.191428
2799.000000	95.204313
2798.000000	95.218042
2797.000000	95.231646
2796.000000	95.245247
2795.000000	95.260622
2794.000000	95.278624
2793.000000	95.297667
2792.000000	95.315520
2791.000000	95.331547
2790.000000	95.346388
2789.000000	95.360173
2788.000000	95.372149
2787.000000	95.382016
2786.000000	95.390956
2785.000000	95.401147
2784.000000	95.414347
2783.000000	95.430752
2782.000000	95.448884
2781.000000	95.466575
2780.000000	95.482299
2779.000000	95.495735
2778.000000	95.507280
2777.000000	95.517339
2776.000000	95.526218
2775.000000	95.534575
2774.000000	95.543692
2773.000000	95.554905
2772.000000	95.568313
2771.000000	95.582077
2770.000000	95.593617
2769.000000	95.602058
2768.000000	95.609297
2767.000000	95.618111
2766.000000	95.629181
2765.000000	95.640422
2764.000000	95.649377
2763.000000	95.655900
2762.000000	95.662231
2761.000000	95.670612
2760.000000	95.681118
2759.000000	95.691866
2758.000000	95.701097
2757.000000	95.708748
2756.000000	95.715978
2755.000000	95.723691
2754.000000	95.732021
2753.000000	95.741023
2752.000000	95.751027
2751.000000	95.761945
2750.000000	95.772599
2749.000000	95.781163
2748.000000	95.786391
2747.000000	95.788609
2746.000000	95.789793
2745.000000	95.792477
2744.000000	95.798043
2743.000000	95.805980
2742.000000	95.814938
2741.000000	95.824057
2740.000000	95.832682
2739.000000	95.839451
2738.000000	95.843203
2737.000000	95.844959
2736.000000	95.847551
2735.000000	95.852528
2734.000000	95.858400
2733.000000	95.862750
2732.000000	95.865248
2731.000000	95.867715
2730.000000	95.871916
2729.000000	95.878188
2728.000000	95.885691
2727.000000	95.893031
2726.000000	95.898996
2725.000000	95.903663
2724.000000	95.908741
2723.000000	95.916069
2722.000000	95.925727
2721.000000	95.935983
2720.000000	95.944785
2719.000000	95.950973
2718.000000	95.954679
2717.000000	95.957451
2716.000000	95.961657
2715.000000	95.968622
2714.000000	95.977163
2713.000000	95.984602
2712.000000	95.989411
2711.000000	95.992453
2710.000000	95.995660
2709.000000	96.000092
2708.000000	96.005523
2707.000000	96.011485
2706.000000	96.018144
2705.000000	96.025790
2704.000000	96.033629
2703.000000	96.039864
2702.000000	96.043603
2701.000000	96.046220
2700.000000	96.049747
2699.000000	96.054011
2698.000000	96.056617
2697.000000	96.056060
2696.000000	96.053695
2695.000000	96.052191
2694.000000	96.053164
2693.000000	96.056873
2692.000000	96.062843
2691.000000	96.069645
2690.000000	96.075053
2689.000000	96.077649
2688.000000	96.077862
2687.000000	96.076799
2686.000000	96.074916
2685.000000	96.072622
2684.000000	96.070858
2683.000000	96.069742
2682.000000	96.067793
2681.000000	96.064296
2680.000000	96.061613
2679.000000	96.062979
2678.000000	96.068078
2677.000000	96.072830
2676.000000	96.074077
2675.000000	96.073007
2674.000000	96.073428
2673.000000	96.077838
2672.000000	96.085556
2671.000000	96.093426
2670.000000	96.097792
2669.000000	96.096927
2668.000000	96.092576
2667.000000	96.088613
2666.000000	96.087506
2665.000000	96.088396
2664.000000	96.088884
2663.000000	96.088000
2662.000000	96.086955
2661.000000	96.087703
2660.000000	96.091486
2659.000000	96.098365
2658.000000	96.107144
2657.000000	96.115483
2656.000000	96.120850
2655.000000	96.122230
2654.000000	96.121238
2653.000000	96.121307
2652.000000	96.125288
2651.000000	96.133507
2650.000000	96.143975
2649.000000	96.154263
2648.000000	96.163107
2647.000000	96.170721
2646.000000	96.178181
2645.000000	96.186300
2644.000000	96.194364
2643.000000	96.200167
2642.000000	96.202337
2641.000000	96.202681
2640.000000	96.205084
2639.000000	96.211666
2638.000000	96.221002
2637.000000	96.230413
2636.000000	96.238677
2635.000000	96.245789
2634.000000	96.251590
2633.000000	96.255945
2632.000000	96.259515
2631.000000	96.263223
2630.000000	96.267627
2629.000000	96.273683
2628.000000	96.283057
2627.000000	96.296297
2626.000000	96.311140
2625.000000	96.323821
2624.000000	96.332079
2623.000000	96.336776
2622.000000	96.341322
2621.000000	96.349457
2620.000000	96.361738
2619.000000	96.373565
2618.000000	96.378700
2617.000000	96.376304
2616.000000	96.372838
2615.000000	96.375440
2614.000000	96.385130
2613.000000	96.397950
2612.000000	96.410568
2611.000000	96.422071
2610.000000	96.431986
2609.000000	96.439898
2608.000000	96.446513
2607.000000	96.452639
2606.000000	96.457528
2605.000000	96.460366
2604.000000	96.462563
2603.000000	96.466279
2602.000000	96.471473
2601.000000	96.476730
2600.000000	96.481876
2599.000000	96.487190
2598.000000	96.491030
2597.000000	96.491404
2596.000000	96.489598
2595.000000	96.489382
2594.000000	96.492836
2593.000000	96.499286
2592.000000	96.507620
2591.000000	96.516671
2590.000000	96.523951
2589.000000	96.527379
2588.000000	96.528373
2587.000000	96.530149
2586.000000	96.532956
2585.000000	96.534213
2584.000000	96.533644
2583.000000	96.534869
2582.000000	96.540616
2581.000000	96.549111
2580.000000	96.556661
2579.000000	96.562182
2578.000000	96.568023
2577.000000	96.577296
2576.000000	96.590725
2575.000000	96.605425
2574.000000	96.617364
2573.000000	96.625712
2572.000000	96.633076
2571.000000	96.640075
2570.000000	96.642337
2569.000000	96.636196
2568.000000	96.625572
2567.000000	96.619027
2566.000000	96.620790
2565.000000	96.628382
2564.000000	96.638183
2563.000000	96.648764
2562.000000	96.658321
2561.000000	96.663416
2560.000000	96.662054
2559.000000	96.655544
2558.000000	96.646778
2557.000000	96.639314
2556.000000	96.637788
2555.000000	96.645112
2554.000000	96.658030
2553.000000	96.668678
2552.000000	96.672088
2551.000000	96.670195
2550.000000	96.668228
2549.000000	96.669824
2548.000000	96.675866
2547.000000	96.684506
2546.000000	96.691097
2545.000000	96.691092
2544.000000	96.684678
2543.000000	96.676696
2542.000000	96.671258
2541.000000	96.668625
2540.000000	96.667771
2539.000000	96.669007
2538.000000	96.672677
2537.000000	96.677760
2536.000000	96.683621
2535.000000	96.691455
2534.000000	96.702226
2533.000000	96.713959
2532.000000	96.722356
2531.000000	96.724097
2530.000000	96.719641
2529.000000	96.713298
2528.000000	96.710016
2527.000000	96.710877
2526.000000	96.712178
2525.000000	96.709808
2524.000000	96.703282
2523.000000	96.694536
2522.000000	96.684798
2521.000000	96.675298
2520.000000	96.669476
2519.000000	96.670854
2518.000000	96.678611
2517.000000	96.687786
2516.000000	96.694290
2515.000000	96.697844
2514.000000	96.700308
2513.000000	96.703013
2512.000000	96.705527
2511.000000	96.705536
2510.000000	96.700716
2509.000000	96.692413
2508.000000	96.686287
2507.000000	96.687044
2506.000000	96.693549
2505.000000	96.701448
2504.000000	96.709381
2503.000000	96.719695
2502.000000	96.733534
2501.000000	96.748098
2500.000000	96.759010
2499.000000	96.763781
2498.000000	96.763740
2497.000000	96.763893
2496.000000	96.769113
2495.000000	96.778273
2494.000000	96.783707
2493.000000	96.779578
2492.000000	96.769628
2491.000000	96.763867
2490.000000	96.768747
2489.000000	96.782454
2488.000000	96.797917
2487.000000	96.807589
2486.000000	96.807700
2485.000000	96.802033
2484.000000	96.800216
2483.000000	96.808494
2482.000000	96.823117
2481.000000	96.835970
2480.000000	96.844604
2479.000000	96.852329
2478.000000	96.860194
2477.000000	96.864856
2476.000000	96.864674
2475.000000	96.863039
2474.000000	96.864235
2473.000000	96.869081
2472.000000	96.875136
2471.000000	96.878405
2470.000000	96.875409
2469.000000	96.867164
2468.000000	96.860804
2467.000000	96.863590
2466.000000	96.874963
2465.000000	96.887159
2464.000000	96.893325
2463.000000	96.891955
2462.000000	96.884647
2461.000000	96.874077
2460.000000	96.864263
2459.000000	96.858660
2458.000000	96.856965
2457.000000	96.856670
2456.000000	96.858085
2455.000000	96.864713
2454.000000	96.878013
2453.000000	96.894690
2452.000000	96.909746
2451.000000	96.920090
2450.000000	96.925004
2449.000000	96.925235
2448.000000	96.922096
2447.000000	96.916544
2446.000000	96.909870
2445.000000	96.905744
2444.000000	96.908559
2443.000000	96.917554
2442.000000	96.925730
2441.000000	96.927846
2440.000000	96.926783
2439.000000	96.928435
2438.000000	96.933635
2437.000000	96.939567
2436.000000	96.946067
2435.000000	96.954518
2434.000000	96.962264
2433.000000	96.964333
2432.000000	96.960512
2431.000000	96.955688
2430.000000	96.953181
2429.000000	96.952250
2428.000000	96.951959
2427.000000	96.953314
2426.000000	96.957364
2425.000000	96.964273
2424.000000	96.973543
2423.000000	96.982276
2422.000000	96.985240
2421.000000	96.980684
2420.000000	96.974462
2419.000000	96.974115
2418.000000	96.980223
2417.000000	96.987493
2416.000000	96.992421
2415.000000	96.995207
2414.000000	96.996047
2413.000000	96.995033
2412.000000	96.994913
2411.000000	96.998789
2410.000000	97.005150
2409.000000	97.009326
2408.000000	97.009475
2407.000000	97.007622
2406.000000	97.005915
2405.000000	97.005560
2404.000000	97.007792
2403.000000	97.011881
2402.000000	97.013929
2401.000000	97.011628
2400.000000	97.008185
2399.000000	97.007423
2398.000000	97.007659
2397.000000	97.005449
2396.000000	97.002795
2395.000000	97.004693
2394.000000	97.011040
2393.000000	97.016906
2392.000000	97.019564
2391.000000	97.019900
2390.000000	97.017686
2389.000000	97.011178
2388.000000	97.001536
2387.000000	96.991875
2386.000000	96.983332
2385.000000	96.975973
2384.000000	96.972868
2383.000000	96.978930
2382.000000	96.994651
2381.000000	97.016682
2380.000000	97.041916
2379.000000	97.065823
2378.000000	97.079149
2377.000000	97.072937
2376.000000	97.048596
2375.000000	97.017944
2374.000000	96.994842
2373.000000	96.989779
2372.000000	97.007558
2371.000000	97.040764
2370.000000	97.070198
2369.000000	97.082300
2368.000000	97.080651
2367.000000	97.075021
2366.000000	97.065813
2365.000000	97.049541
2364.000000	97.031432
2363.000000	97.016392
2362.000000	96.999489
2361.000000	96.977852
2360.000000	96.956416
2359.000000	96.944361
2358.000000	96.946518
2357.000000	96.960011
2356.000000	96.976365
2355.000000	96.980941
2354.000000	96.978825
2353.000000	96.994861
2352.000000	97.031776
2351.000000	97.055730
2350.000000	97.036171
2349.000000	96.979921
2348.000000	96.917117
2347.000000	96.881171
2346.000000	96.882949
2345.000000	96.896923
2344.000000	96.897793
2343.000000	96.888445
2342.000000	96.891070
2341.000000	96.914520
2340.000000	96.940755
2339.000000	96.948446
2338.000000	96.937208
2337.000000	96.923671
2336.000000	96.920343
2335.000000	96.929003
2334.000000	96.948516
2333.000000	96.979297
2332.000000	97.013346
2331.000000	97.036530
2330.000000	97.033953
2329.000000	97.005483
2328.000000	96.959343
2327.000000	96.908117
2326.000000	96.864655
2325.000000	96.837400
2324.000000	96.833743
2323.000000	96.853229
2322.000000	96.886506
2321.000000	96.913602
2320.000000	96.916846
2319.000000	96.895162
2318.000000	96.860877
2317.000000	96.832391
2316.000000	96.823448
2315.000000	96.840415
2314.000000	96.875305
2313.000000	96.910898
2312.000000	96.933559
2311.000000	96.943662
2310.000000	96.948793
2309.000000	96.952704
2308.000000	96.954431
2307.000000	96.953296
2306.000000	96.951351
2305.000000	96.950979
2304.000000	96.955037
2303.000000	96.963778
2302.000000	96.971894
2301.000000	96.972804
2300.000000	96.967788
2299.000000	96.966981
2298.000000	96.975611
2297.000000	96.988119
2296.000000	96.995794
2295.000000	96.997143
2294.000000	96.994869
2293.000000	96.989311
2292.000000	96.980950
2291.000000	96.973986
2290.000000	96.973751
2289.000000	96.980694
2288.000000	96.991896
2287.000000	97.002996
2286.000000	97.008404
2285.000000	97.003888
2284.000000	96.994437
2283.000000	96.992886
2282.000000	97.007461
2281.000000	97.034347
2280.000000	97.065453
2279.000000	97.096391
2278.000000	97.123108
2277.000000	97.139549
2276.000000	97.144325
2275.000000	97.144447
2274.000000	97.146271
2273.000000	97.148721
2272.000000	97.148370
2271.000000	97.144943
2270.000000	97.138752
2269.000000	97.130228
2268.000000	97.125252
2267.000000	97.131972
2266.000000	97.148466
2265.000000	97.163044
2264.000000	97.170908
2263.000000	97.180620
2262.000000	97.198540
2261.000000	97.217033
2260.000000	97.225284
2259.000000	97.222584
2258.000000	97.215936
2257.000000	97.213082
2256.000000	97.222846
2255.000000	97.250467
2254.000000	97.284911
2253.000000	97.302229
2252.000000	97.290668
2251.000000	97.264810
2250.000000	97.246614
2249.000000	97.242076
2248.000000	97.242248
2247.000000	97.239177
2246.000000	97.232914
2245.000000	97.227883
2244.000000	97.229040
2243.000000	97.236819
2242.000000	97.244244
2241.000000	97.245340
2240.000000	97.246250
2239.000000	97.257712
2238.000000	97.277078
2237.000000	97.290891
2236.000000	97.295526
2235.000000	97.299545
2234.000000	97.304051
2233.000000	97.299370
2232.000000	97.285789
2231.000000	97.278364
2230.000000	97.283388
2229.000000	97.288657
2228.000000	97.286345
2227.000000	97.287460
2226.000000	97.302356
2225.000000	97.322871
2224.000000	97.335243
2223.000000	97.336044
2222.000000	97.325704
2221.000000	97.303123
2220.000000	97.278457
2219.000000	97.274027
2218.000000	97.298076
2217.000000	97.330393
2216.000000	97.346328
2215.000000	97.343352
2214.000000	97.333044
2213.000000	97.321668
2212.000000	97.312014
2211.000000	97.311273
2210.000000	97.322580
2209.000000	97.337180
2208.000000	97.344971
2207.000000	97.344035
2206.000000	97.333990
2205.000000	97.313987
2204.000000	97.294296
2203.000000	97.293003
2202.000000	97.310973
2201.000000	97.325736
2200.000000	97.321719
2199.000000	97.310614
2198.000000	97.308956
2197.000000	97.311617
2196.000000	97.303709
2195.000000	97.286512
2194.000000	97.274717
2193.000000	97.275379
2192.000000	97.283269
2191.000000	97.292360
2190.000000	97.301565
2189.000000	97.312884
2188.000000	97.330020
2187.000000	97.354900
2186.000000	97.384433
2185.000000	97.416399
2184.000000	97.454188
2183.000000	97.493905
2182.000000	97.513460
2181.000000	97.496014
2180.000000	97.460910
2179.000000	97.446058
2178.000000	97.461320
2177.000000	97.484179
2176.000000	97.498827
2175.000000	97.512670
2174.000000	97.532698
2173.000000	97.552640
2172.000000	97.568181
2171.000000	97.579174
2170.000000	97.574327
2169.000000	97.539766
2168.000000	97.487199
2167.000000	97.448528
2166.000000	97.438975
2165.000000	97.448106
2164.000000	97.465240
2163.000000	97.485839
2162.000000	97.496638
2161.000000	97.495059
2160.000000	97.525702
2159.000000	97.643028
2158.000000	97.820602
2157.000000	97.964425
2156.000000	98.026169
2155.000000	98.027711
2154.000000	97.986808
2153.000000	97.898344
2152.000000	97.782975
2151.000000	97.691092
2150.000000	97.648493
2149.000000	97.636597
2148.000000	97.633214
2147.000000	97.637120
2146.000000	97.645265
2145.000000	97.641114
2144.000000	97.618919
2143.000000	97.592122
2142.000000	97.569164
2141.000000	97.545726
2140.000000	97.525081
2139.000000	97.520583
2138.000000	97.532301
2137.000000	97.544008
2136.000000	97.547733
2135.000000	97.549705
2134.000000	97.548864
2133.000000	97.534090
2132.000000	97.507348
2131.000000	97.486789
2130.000000	97.481595
2129.000000	97.481323
2128.000000	97.472979
2127.000000	97.453506
2126.000000	97.424325
2125.000000	97.389088
2124.000000	97.358917
2123.000000	97.344767
2122.000000	97.341855
2121.000000	97.334296
2120.000000	97.316820
2119.000000	97.298928
2118.000000	97.286978
2117.000000	97.276496
2116.000000	97.264119
2115.000000	97.254044
2114.000000	97.250363
2113.000000	97.254958
2112.000000	97.273234
2111.000000	97.308000
2110.000000	97.346682
2109.000000	97.368794
2108.000000	97.367693
2107.000000	97.352174
2106.000000	97.328190
2105.000000	97.296250
2104.000000	97.265626
2103.000000	97.250576
2102.000000	97.249393
2101.000000	97.245539
2100.000000	97.233339
2099.000000	97.226292
2098.000000	97.236696
2097.000000	97.262400
2096.000000	97.296091
2095.000000	97.330619
2094.000000	97.353534
2093.000000	97.354791
2092.000000	97.342540
2091.000000	97.334968
2090.000000	97.336746
2089.000000	97.339686
2088.000000	97.343613
2087.000000	97.355405
2086.000000	97.367602
2085.000000	97.361899
2084.000000	97.337910
2083.000000	97.316447
2082.000000	97.308233
2081.000000	97.301106
2080.000000	97.284718
2079.000000	97.267132
2078.000000	97.259049
2077.000000	97.260564
2076.000000	97.271761
2075.000000	97.297289
2074.000000	97.333466
2073.000000	97.368023
2072.000000	97.397378
2071.000000	97.426684
2070.000000	97.449828
2069.000000	97.452675
2068.000000	97.441343
2067.000000	97.442201
2066.000000	97.466765
2065.000000	97.497922
2064.000000	97.516985
2063.000000	97.521756
2062.000000	97.512792
2061.000000	97.489742
2060.000000	97.466431
2059.000000	97.461278
2058.000000	97.468137
2057.000000	97.464016
2056.000000	97.447520
2055.000000	97.437948
2054.000000	97.432893
2053.000000	97.405296
2052.000000	97.353871
2051.000000	97.319011
2050.000000	97.331755
2049.000000	97.374848
2048.000000	97.415300
2047.000000	97.450619
2046.000000	97.494028
2045.000000	97.541731
2044.000000	97.585122
2043.000000	97.628579
2042.000000	97.671858
2041.000000	97.701272
2040.000000	97.715927
2039.000000	97.731793
2038.000000	97.747649
2037.000000	97.743983
2036.000000	97.726036
2035.000000	97.725779
2034.000000	97.747302
2033.000000	97.757659
2032.000000	97.747827
2031.000000	97.749394
2030.000000	97.776808
2029.000000	97.809244
2028.000000	97.841661
2027.000000	97.895053
2026.000000	97.960107
2025.000000	97.989326
2024.000000	97.965011
2023.000000	97.920546
2022.000000	97.878771
2021.000000	97.828842
2020.000000	97.777477
2019.000000	97.761314
2018.000000	97.788544
2017.000000	97.819983
2016.000000	97.830485
2015.000000	97.835700
2014.000000	97.841521
2013.000000	97.828384
2012.000000	97.798170
2011.000000	97.780260
2010.000000	97.779363
2009.000000	97.771133
2008.000000	97.761522
2007.000000	97.788675
2006.000000	97.849390
2005.000000	97.889097
2004.000000	97.881749
2003.000000	97.859361
2002.000000	97.848704
2001.000000	97.838707
2000.000000	97.821817
1999.000000	97.813523
1998.000000	97.818251
1997.000000	97.816976
1996.000000	97.802375
1995.000000	97.790020
1994.000000	97.787240
1993.000000	97.785887
1992.000000	97.791847
1991.000000	97.820023
1990.000000	97.850658
1989.000000	97.840362
1988.000000	97.784691
1987.000000	97.723822
1986.000000	97.683211
1985.000000	97.655863
1984.000000	97.644747
1983.000000	97.668687
1982.000000	97.715264
1981.000000	97.742368
1980.000000	97.740866
1979.000000	97.744088
1978.000000	97.763190
1977.000000	97.771740
1976.000000	97.775194
1975.000000	97.818249
1974.000000	97.896877
1973.000000	97.944510
1972.000000	97.929254
1971.000000	97.891528
1970.000000	97.866123
1969.000000	97.836551
1968.000000	97.789724
1967.000000	97.755350
1966.000000	97.758142
1965.000000	97.782900
1964.000000	97.813595
1963.000000	97.854443
1962.000000	97.896041
1961.000000	97.911536
1960.000000	97.903547
1959.000000	97.907324
1958.000000	97.931617
1957.000000	97.943538
1956.000000	97.923542
1955.000000	97.889216
1954.000000	97.856410
1953.000000	97.819242
1952.000000	97.779858
1951.000000	97.758954
1950.000000	97.761225
1949.000000	97.767875
1948.000000	97.772770
1947.000000	97.788348
1946.000000	97.809910
1945.000000	97.812898
1944.000000	97.795195
1943.000000	97.784713
1942.000000	97.790945
1941.000000	97.791732
1940.000000	97.780331
1939.000000	97.778700
1938.000000	97.797235
1937.000000	97.815823
1936.000000	97.815239
1935.000000	97.801923
1934.000000	97.788371
1933.000000	97.773449
1932.000000	97.757130
1931.000000	97.750682
1930.000000	97.754408
1929.000000	97.755402
1928.000000	97.750466
1927.000000	97.747306
1926.000000	97.743268
1925.000000	97.725873
1924.000000	97.703479
1923.000000	97.700077
1922.000000	97.713629
1921.000000	97.718573
1920.000000	97.708966
1919.000000	97.705734
1918.000000	97.714337
1917.000000	97.710105
1916.000000	97.685904
1915.000000	97.666424
1914.000000	97.666908
1913.000000	97.675353
1912.000000	97.678607
1911.000000	97.683194
1910.000000	97.694718
1909.000000	97.705435
1908.000000	97.712924
1907.000000	97.726200
1906.000000	97.743472
1905.000000	97.746153
1904.000000	97.730206
1903.000000	97.712569
1902.000000	97.700756
1901.000000	97.687527
1900.000000	97.674262
1899.000000	97.675013
1898.000000	97.692507
1897.000000	97.709407
1896.000000	97.715426
1895.000000	97.719048
1894.000000	97.723562
1893.000000	97.720037
1892.000000	97.709188
1891.000000	97.706388
1890.000000	97.715792
1889.000000	97.719982
1888.000000	97.711120
1887.000000	97.701659
1886.000000	97.698585
1885.000000	97.697840
1884.000000	97.701633
1883.000000	97.717883
1882.000000	97.739148
1881.000000	97.747380
1880.000000	97.740214
1879.000000	97.731511
1878.000000	97.727615
1877.000000	97.720434
1876.000000	97.709898
1875.000000	97.711633
1874.000000	97.731205
1873.000000	97.754254
1872.000000	97.770146
1871.000000	97.783966
1870.000000	97.800058
1869.000000	97.807979
1868.000000	97.804062
1867.000000	97.802638
1866.000000	97.803226
1865.000000	97.791540
1864.000000	97.771783
1863.000000	97.763305
1862.000000	97.770391
1861.000000	97.776318
1860.000000	97.771997
1859.000000	97.766830
1858.000000	97.765665
1857.000000	97.762309
1856.000000	97.759045
1855.000000	97.768424
1854.000000	97.789538
1853.000000	97.808067
1852.000000	97.818518
1851.000000	97.825451
1850.000000	97.832453
1849.000000	97.839072
1848.000000	97.851823
1847.000000	97.877934
1846.000000	97.905998
1845.000000	97.912820
1844.000000	97.897057
1843.000000	97.881296
1842.000000	97.870479
1841.000000	97.854301
1840.000000	97.836875
1839.000000	97.833288
1838.000000	97.844179
1837.000000	97.850206
1836.000000	97.844477
1835.000000	97.842045
1834.000000	97.849269
1833.000000	97.852978
1832.000000	97.840585
1831.000000	97.822958
1830.000000	97.823383
1829.000000	97.838753
1828.000000	97.848923
1827.000000	97.848917
1826.000000	97.848459
1825.000000	97.854048
1824.000000	97.863851
1823.000000	97.875797
1822.000000	97.883852
1821.000000	97.881735
1820.000000	97.874495
1819.000000	97.876547
1818.000000	97.889853
1817.000000	97.895878
1816.000000	97.887456
1815.000000	97.876277
1814.000000	97.866877
1813.000000	97.850252
1812.000000	97.825346
1811.000000	97.813559
1810.000000	97.823433
1809.000000	97.831195
1808.000000	97.822876
1807.000000	97.811748
1806.000000	97.806207
1805.000000	97.794298
1804.000000	97.771859
1803.000000	97.754626
1802.000000	97.754258
1801.000000	97.758060
1800.000000	97.750985
1799.000000	97.744426
1798.000000	97.748574
1797.000000	97.755370
1796.000000	97.761461
1795.000000	97.771178
1794.000000	97.782807
1793.000000	97.787151
1792.000000	97.784102
1791.000000	97.789288
1790.000000	97.803385
1789.000000	97.808557
1788.000000	97.800939
1787.000000	97.795394
1786.000000	97.803682
1785.000000	97.818766
1784.000000	97.830496
1783.000000	97.835017
1782.000000	97.832486
1781.000000	97.827884
1780.000000	97.826158
1779.000000	97.834083
1778.000000	97.848943
1777.000000	97.865133
1776.000000	97.886699
1775.000000	97.912798
1774.000000	97.931873
1773.000000	97.934810
1772.000000	97.926373
1771.000000	97.919802
1770.000000	97.914911
1769.000000	97.896594
1768.000000	97.866652
1767.000000	97.845356
1766.000000	97.838282
1765.000000	97.827587
1764.000000	97.800954
1763.000000	97.769500
1762.000000	97.751838
1761.000000	97.742194
1760.000000	97.718506
1759.000000	97.676426
1758.000000	97.619531
1757.000000	97.553460
1756.000000	97.486432
1755.000000	97.425368
1754.000000	97.367318
1753.000000	97.300275
1752.000000	97.217648
1751.000000	97.123892
1750.000000	97.017089
1749.000000	96.883141
1748.000000	96.732844
1747.000000	96.596208
1746.000000	96.482807
1745.000000	96.375278
1744.000000	96.263272
1743.000000	96.165864
1742.000000	96.098409
1741.000000	96.046987
1740.000000	96.008347
1739.000000	96.010699
1738.000000	96.057368
1737.000000	96.119919
1736.000000	96.185905
1735.000000	96.294820
1734.000000	96.468514
1733.000000	96.606292
1732.000000	96.637020
1731.000000	96.619001
1730.000000	96.614342
1729.000000	96.635383
1728.000000	96.665354
1727.000000	96.689784
1726.000000	96.706585
1725.000000	96.714526
1724.000000	96.712764
1723.000000	96.713729
1722.000000	96.720860
1721.000000	96.719820
1720.000000	96.697751
1719.000000	96.671561
1718.000000	96.671673
1717.000000	96.656040
1716.000000	96.572649
1715.000000	96.452731
1714.000000	96.331850
1713.000000	96.213847
1712.000000	96.104408
1711.000000	96.017638
1710.000000	95.960219
1709.000000	95.921439
1708.000000	95.882348
1707.000000	95.839410
1706.000000	95.808066
1705.000000	95.792638
1704.000000	95.791447
1703.000000	95.798800
1702.000000	95.787749
1701.000000	95.722232
1700.000000	95.632836
1699.000000	95.568584
1698.000000	95.489363
1697.000000	95.332584
1696.000000	95.114697
1695.000000	94.927059
1694.000000	94.787865
1693.000000	94.638819
1692.000000	94.469827
1691.000000	94.309976
1690.000000	94.176468
1689.000000	94.064282
1688.000000	93.968724
1687.000000	93.883121
1686.000000	93.773031
1685.000000	93.574116
1684.000000	93.308595
1683.000000	93.088639
1682.000000	92.915536
1681.000000	92.720809
1680.000000	92.505541
1679.000000	92.310484
1678.000000	92.141080
1677.000000	91.951565
1676.000000	91.701653
1675.000000	91.426707
1674.000000	91.187494
1673.000000	90.974658
1672.000000	90.744178
1671.000000	90.484831
1670.000000	90.200165
1669.000000	89.901563
1668.000000	89.617257
1667.000000	89.369926
1666.000000	89.152184
1665.000000	88.927014
1664.000000	88.662858
1663.000000	88.375686
1662.000000	88.105469
1661.000000	87.860919
1660.000000	87.624409
1659.000000	87.402155
1658.000000	87.213453
1657.000000	87.068905
1656.000000	86.946952
1655.000000	86.813827
1654.000000	86.637217
1653.000000	86.446983
1652.000000	86.303147
1651.000000	86.169806
1650.000000	86.019765
1649.000000	85.868009
1648.000000	85.731360
1647.000000	85.644911
1646.000000	85.625778
1645.000000	85.619455
1644.000000	85.585214
1643.000000	85.543689
1642.000000	85.519587
1641.000000	85.508270
1640.000000	85.496206
1639.000000	85.485401
1638.000000	85.479496
1637.000000	85.466907
1636.000000	85.442492
1635.000000	85.421252
1634.000000	85.399196
1633.000000	85.346482
1632.000000	85.273597
1631.000000	85.215571
1630.000000	85.188688
1629.000000	85.193495
1628.000000	85.228613
1627.000000	85.291238
1626.000000	85.370206
1625.000000	85.460726
1624.000000	85.583170
1623.000000	85.760256
1622.000000	85.960825
1621.000000	86.135596
1620.000000	86.283602
1619.000000	86.444041
1618.000000	86.668007
1617.000000	86.984619
1616.000000	87.335779
1615.000000	87.621431
1614.000000	87.829462
1613.000000	88.016353
1612.000000	88.228721
1611.000000	88.473716
1610.000000	88.727339
1609.000000	88.971219
1608.000000	89.205759
1607.000000	89.428193
1606.000000	89.627117
1605.000000	89.805643
1604.000000	89.977445
1603.000000	90.145607
1602.000000	90.298934
1601.000000	90.430578
1600.000000	90.546263
1599.000000	90.648515
1598.000000	90.733507
1597.000000	90.804230
1596.000000	90.874080
1595.000000	90.948968
1594.000000	91.016979
1593.000000	91.067775
1592.000000	91.105218
1591.000000	91.131677
1590.000000	91.136922
1589.000000	91.114014
1588.000000	91.066719
1587.000000	90.995471
1586.000000	90.890816
1585.000000	90.750507
1584.000000	90.581195
1583.000000	90.378062
1582.000000	90.134752
1581.000000	89.870164
1580.000000	89.621376
1579.000000	89.405707
1578.000000	89.213124
1577.000000	89.036750
1576.000000	88.908862
1575.000000	88.848230
1574.000000	88.817222
1573.000000	88.790018
1572.000000	88.770015
1571.000000	88.766811
1570.000000	88.786355
1569.000000	88.817234
1568.000000	88.827417
1567.000000	88.793016
1566.000000	88.716407
1565.000000	88.623063
1564.000000	88.543156
1563.000000	88.488534
1562.000000	88.443222
1561.000000	88.361160
1560.000000	88.201494
1559.000000	88.000724
1558.000000	87.829815
1557.000000	87.690193
1556.000000	87.523842
1555.000000	87.319366
1554.000000	87.114905
1553.000000	86.920928
1552.000000	86.731281
1551.000000	86.532632
1550.000000	86.336470
1549.000000	86.155251
1548.000000	85.988450
1547.000000	85.813177
1546.000000	85.612048
1545.000000	85.387508
1544.000000	85.154670
1543.000000	84.926050
1542.000000	84.704658
1541.000000	84.492277
1540.000000	84.363765
1539.000000	84.399351
1538.000000	84.526557
1537.000000	84.650348
1536.000000	84.782349
1535.000000	84.983332
1534.000000	85.312019
1533.000000	85.718704
1532.000000	86.058498
1531.000000	86.295085
1530.000000	86.483988
1529.000000	86.666131
1528.000000	86.863457
1527.000000	87.087515
1526.000000	87.323847
1525.000000	87.527664
1524.000000	87.678247
1523.000000	87.816757
1522.000000	88.001551
1521.000000	88.201777
1520.000000	88.333061
1519.000000	88.398990
1518.000000	88.467598
1517.000000	88.578417
1516.000000	88.714567
1515.000000	88.842565
1514.000000	88.956550
1513.000000	89.065548
1512.000000	89.183294
1511.000000	89.322087
1510.000000	89.481475
1509.000000	89.651695
1508.000000	89.847706
1507.000000	90.098777
1506.000000	90.346326
1505.000000	90.491029
1504.000000	90.526548
1503.000000	90.532600
1502.000000	90.573038
1501.000000	90.647116
1500.000000	90.735717
1499.000000	90.836184
1498.000000	90.962228
1497.000000	91.088906
1496.000000	91.176504
1495.000000	91.231416
1494.000000	91.270492
1493.000000	91.290279
1492.000000	91.294820
1491.000000	91.317454
1490.000000	91.374246
1489.000000	91.406745
1488.000000	91.378920
1487.000000	91.333738
1486.000000	91.286648
1485.000000	91.213896
1484.000000	91.106825
1483.000000	90.976778
1482.000000	90.833369
1481.000000	90.666067
1480.000000	90.473464
1479.000000	90.271765
1478.000000	90.068009
1477.000000	89.854679
1476.000000	89.638964
1475.000000	89.435019
1474.000000	89.214354
1473.000000	88.912638
1472.000000	88.541029
1471.000000	88.201362
1470.000000	87.926511
1469.000000	87.680711
1468.000000	87.454948
1467.000000	87.265830
1466.000000	87.120388
1465.000000	87.009624
1464.000000	86.927583
1463.000000	86.875119
1462.000000	86.839731
1461.000000	86.804224
1460.000000	86.765427
1459.000000	86.728486
1458.000000	86.685289
1457.000000	86.594401
1456.000000	86.456757
1455.000000	86.322885
1454.000000	86.209999
1453.000000	86.117465
1452.000000	86.050634
1451.000000	86.009812
1450.000000	85.985423
1449.000000	85.959013
1448.000000	85.931258
1447.000000	85.914738
1446.000000	85.905435
1445.000000	85.889349
1444.000000	85.864446
1443.000000	85.845591
1442.000000	85.839842
1441.000000	85.838954
1440.000000	85.836780
1439.000000	85.837685
1438.000000	85.848786
1437.000000	85.871914
1436.000000	85.899454
1435.000000	85.916999
1434.000000	85.920330
1433.000000	85.916121
1432.000000	85.918629
1431.000000	85.940903
1430.000000	85.981406
1429.000000	86.017831
1428.000000	86.031804
1427.000000	86.022803
1426.000000	85.994989
1425.000000	85.957397
1424.000000	85.919034
1423.000000	85.887200
1422.000000	85.861287
1421.000000	85.828583
1420.000000	85.785420
1419.000000	85.752398
1418.000000	85.739374
1417.000000	85.728391
1416.000000	85.716501
1415.000000	85.719427
1414.000000	85.743142
1413.000000	85.779528
1412.000000	85.821615
1411.000000	85.869435
1410.000000	85.922078
1409.000000	85.971242
1408.000000	86.014073
1407.000000	86.058912
1406.000000	86.112139
1405.000000	86.172431
1404.000000	86.230696
1403.000000	86.279382
1402.000000	86.315832
1401.000000	86.344667
1400.000000	86.385024
1399.000000	86.451562
1398.000000	86.529867
1397.000000	86.596106
1396.000000	86.653145
1395.000000	86.719145
1394.000000	86.797394
1393.000000	86.874454
1392.000000	86.940830
1391.000000	87.003675
1390.000000	87.071660
1389.000000	87.145370
1388.000000	87.224416
1387.000000	87.303651
1386.000000	87.367112
1385.000000	87.407720
1384.000000	87.439893
1383.000000	87.484983
1382.000000	87.547461
1381.000000	87.611434
1380.000000	87.667792
1379.000000	87.724421
1378.000000	87.789150
1377.000000	87.862960
1376.000000	87.954675
1375.000000	88.080893
1374.000000	88.238605
1373.000000	88.397801
1372.000000	88.537218
1371.000000	88.660693
1370.000000	88.779228
1369.000000	88.902639
1368.000000	89.033482
1367.000000	89.166687
1366.000000	89.295618
1365.000000	89.421841
1364.000000	89.561998
1363.000000	89.727882
1362.000000	89.897514
1361.000000	90.037902
1360.000000	90.145371
1359.000000	90.235703
1358.000000	90.317300
1357.000000	90.387941
1356.000000	90.445980
1355.000000	90.493497
1354.000000	90.529060
1353.000000	90.546788
1352.000000	90.549703
1351.000000	90.549183
1350.000000	90.547889
1349.000000	90.540704
1348.000000	90.524153
1347.000000	90.500723
1346.000000	90.471530
1345.000000	90.434724
1344.000000	90.392184
1343.000000	90.350695
1342.000000	90.315275
1341.000000	90.287069
1340.000000	90.264894
1339.000000	90.244617
1338.000000	90.224250
1337.000000	90.209054
1336.000000	90.209261
1335.000000	90.232661
1334.000000	90.276530
1333.000000	90.331756
1332.000000	90.395474
1331.000000	90.470769
1330.000000	90.555271
1329.000000	90.639971
1328.000000	90.719770
1327.000000	90.794327
1326.000000	90.859460
1325.000000	90.909380
1324.000000	90.943836
1323.000000	90.968550
1322.000000	90.988030
1321.000000	91.003398
1320.000000	91.017162
1319.000000	91.033592
1318.000000	91.053089
1317.000000	91.072707
1316.000000	91.094127
1315.000000	91.123932
1314.000000	91.164429
1313.000000	91.210344
1312.000000	91.257744
1311.000000	91.308980
1310.000000	91.365497
1309.000000	91.422219
1308.000000	91.473577
1307.000000	91.518756
1306.000000	91.557948
1305.000000	91.590974
1304.000000	91.619908
1303.000000	91.649534
1302.000000	91.681464
1301.000000	91.712931
1300.000000	91.743688
1299.000000	91.778286
1298.000000	91.817561
1297.000000	91.853685
1296.000000	91.878451
1295.000000	91.890990
1294.000000	91.894200
1293.000000	91.887844
1292.000000	91.869637
1291.000000	91.839498
1290.000000	91.798621
1289.000000	91.748856
1288.000000	91.695690
1287.000000	91.646517
1286.000000	91.602913
1285.000000	91.559937
1284.000000	91.515984
1283.000000	91.476958
1282.000000	91.447316
1281.000000	91.424577
1280.000000	91.407416
1279.000000	91.400556
1278.000000	91.406823
1277.000000	91.421267
1276.000000	91.438469
1275.000000	91.459148
1274.000000	91.484683
1273.000000	91.511258
1272.000000	91.533847
1271.000000	91.550530
1270.000000	91.559379
1269.000000	91.557542
1268.000000	91.546831
1267.000000	91.533658
1266.000000	91.520092
1265.000000	91.500218
1264.000000	91.469459
1263.000000	91.431353
1262.000000	91.390439
1261.000000	91.345946
1260.000000	91.296845
1259.000000	91.245692
1258.000000	91.193806
1257.000000	91.139078
1256.000000	91.082578
1255.000000	91.028806
1254.000000	90.975806
1253.000000	90.914095
1252.000000	90.839560
1251.000000	90.758462
1250.000000	90.675367
1249.000000	90.586095
1248.000000	90.488045
1247.000000	90.387669
1246.000000	90.291663
1245.000000	90.198748
1244.000000	90.106247
1243.000000	90.016232
1242.000000	89.929508
1241.000000	89.843257
1240.000000	89.760950
1239.000000	89.694400
1238.000000	89.648283
1237.000000	89.613356
1236.000000	89.581950
1235.000000	89.560292
1234.000000	89.558940
1233.000000	89.580011
1232.000000	89.621985
1231.000000	89.686034
1230.000000	89.769931
1229.000000	89.866000
1228.000000	89.971528
1227.000000	90.093270
1226.000000	90.234401
1225.000000	90.385982
1224.000000	90.538189
1223.000000	90.690218
1222.000000	90.843117
1221.000000	90.991876
1220.000000	91.130963
1219.000000	91.259034
1218.000000	91.372834
1217.000000	91.464479
1216.000000	91.531427
1215.000000	91.581692
1214.000000	91.621681
1213.000000	91.647390
1212.000000	91.653311
1211.000000	91.642392
1210.000000	91.620089
1209.000000	91.585165
1208.000000	91.536088
1207.000000	91.480014
1206.000000	91.427357
1205.000000	91.382950
1204.000000	91.348967
1203.000000	91.329760
1202.000000	91.327076
1201.000000	91.337555
1200.000000	91.360214
1199.000000	91.399475
1198.000000	91.455113
1197.000000	91.517881
1196.000000	91.581441
1195.000000	91.649228
1194.000000	91.723464
1193.000000	91.796402
1192.000000	91.859946
1191.000000	91.916431
1190.000000	91.972643
1189.000000	92.029802
1188.000000	92.085452
1187.000000	92.137875
1186.000000	92.182054
1185.000000	92.209333
1184.000000	92.217474
1183.000000	92.214981
1182.000000	92.209990
1181.000000	92.201103
1180.000000	92.184951
1179.000000	92.163821
1178.000000	92.139382
1177.000000	92.107522
1176.000000	92.065628
1175.000000	92.017625
1174.000000	91.966156
1173.000000	91.908575
1172.000000	91.845686
1171.000000	91.784337
1170.000000	91.726082
1169.000000	91.663469
1168.000000	91.593532
1167.000000	91.524169
1166.000000	91.461053
1165.000000	91.400184
1164.000000	91.340421
1163.000000	91.290224
1162.000000	91.252650
1161.000000	91.216748
1160.000000	91.173870
1159.000000	91.131050
1158.000000	91.098839
1157.000000	91.076782
1156.000000	91.060842
1155.000000	91.053195
1154.000000	91.054370
1153.000000	91.056761
1152.000000	91.055492
1151.000000	91.056028
1150.000000	91.062330
1149.000000	91.068748
1148.000000	91.072589
1147.000000	91.082346
1146.000000	91.104481
1145.000000	91.133704
1144.000000	91.164919
1143.000000	91.202304
1142.000000	91.247494
1141.000000	91.291832
1140.000000	91.330009
1139.000000	91.368975
1138.000000	91.414064
1137.000000	91.458456
1136.000000	91.495530
1135.000000	91.528657
1134.000000	91.559137
1133.000000	91.577260
1132.000000	91.576504
1131.000000	91.564429
1130.000000	91.549115
1129.000000	91.527509
1128.000000	91.497028
1127.000000	91.465896
1126.000000	91.439697
1125.000000	91.410049
1124.000000	91.369406
1123.000000	91.325185
1122.000000	91.287201
1121.000000	91.251906
1120.000000	91.210962
1119.000000	91.164924
1118.000000	91.117486
1117.000000	91.067026
1116.000000	91.014395
1115.000000	90.968169
1114.000000	90.932322
1113.000000	90.900801
1112.000000	90.873516
1111.000000	90.863603
1110.000000	90.879056
1109.000000	90.910052
1108.000000	90.944309
1107.000000	90.981561
1106.000000	91.022377
1105.000000	91.058583
1104.000000	91.086143
1103.000000	91.113010
1102.000000	91.143648
1101.000000	91.168818
1100.000000	91.182062
1099.000000	91.193119
1098.000000	91.210481
1097.000000	91.228916
1096.000000	91.243657
1095.000000	91.261757
1094.000000	91.286161
1093.000000	91.303321
1092.000000	91.299972
1091.000000	91.279412
1090.000000	91.249623
1089.000000	91.209806
1088.000000	91.160421
1087.000000	91.111572
1086.000000	91.069001
1085.000000	91.025770
1084.000000	90.980147
1083.000000	90.947037
1082.000000	90.939690
1081.000000	90.954443
1080.000000	90.986224
1079.000000	91.042537
1078.000000	91.127775
1077.000000	91.229380
1076.000000	91.332287
1075.000000	91.434870
1074.000000	91.539528
1073.000000	91.641948
1072.000000	91.740351
1071.000000	91.839839
1070.000000	91.936644
1069.000000	92.013393
1068.000000	92.062031
1067.000000	92.096891
1066.000000	92.134681
1065.000000	92.175071
1064.000000	92.211581
1063.000000	92.246339
1062.000000	92.282041
1061.000000	92.313996
1060.000000	92.341242
1059.000000	92.372261
1058.000000	92.410293
1057.000000	92.447192
1056.000000	92.480066
1055.000000	92.517846
1054.000000	92.562450
1053.000000	92.601019
1052.000000	92.626702
1051.000000	92.649565
1050.000000	92.675782
1049.000000	92.695707
1048.000000	92.704633
1047.000000	92.714364
1046.000000	92.731606
1045.000000	92.745248
1044.000000	92.747031
1043.000000	92.745139
1042.000000	92.745124
1041.000000	92.736259
1040.000000	92.709578
1039.000000	92.670368
1038.000000	92.621481
1037.000000	92.554023
1036.000000	92.469448
1035.000000	92.391067
1034.000000	92.338198
1033.000000	92.306665
1032.000000	92.289124
1031.000000	92.294627
1030.000000	92.330794
1029.000000	92.386340
1028.000000	92.447509
1027.000000	92.515802
1026.000000	92.593720
1025.000000	92.670670
1024.000000	92.739463
1023.000000	92.809420
1022.000000	92.887259
1021.000000	92.961511
1020.000000	93.021878
1019.000000	93.077452
1018.000000	93.139812
1017.000000	93.203721
1016.000000	93.261190
1015.000000	93.319123
1014.000000	93.386770
1013.000000	93.459229
1012.000000	93.528888
1011.000000	93.600338
1010.000000	93.680058
1009.000000	93.763786
1008.000000	93.845832
1007.000000	93.928242
1006.000000	94.011042
1005.000000	94.088003
1004.000000	94.161723
1003.000000	94.246778
1002.000000	94.347567
1001.000000	94.450002
1000.000000	94.544789
999.000000	94.641015
998.000000	94.744926
997.000000	94.844367
996.000000	94.927904
995.000000	95.002264
994.000000	95.077244
993.000000	95.149853
992.000000	95.216993
991.000000	95.286020
990.000000	95.358673
989.000000	95.420955
988.000000	95.464561
987.000000	95.502625
986.000000	95.549237
985.000000	95.597966
984.000000	95.635216
983.000000	95.660182
982.000000	95.677597
981.000000	95.685462
980.000000	95.684333
979.000000	95.684379
978.000000	95.689232
977.000000	95.687666
976.000000	95.673861
975.000000	95.661013
974.000000	95.661599
973.000000	95.671081
972.000000	95.684021
971.000000	95.708422
970.000000	95.748778
969.000000	95.792653
968.000000	95.830712
967.000000	95.872974
966.000000	95.929290
965.000000	95.989513
964.000000	96.040077
963.000000	96.083879
962.000000	96.127264
961.000000	96.163387
960.000000	96.187137
959.000000	96.211614
958.000000	96.250668
957.000000	96.297540
956.000000	96.338326
955.000000	96.374681
954.000000	96.415754
953.000000	96.459555
952.000000	96.498794
951.000000	96.535091
950.000000	96.571828
949.000000	96.603018
948.000000	96.622536
947.000000	96.634482
946.000000	96.643120
945.000000	96.644940
944.000000	96.641307
943.000000	96.644212
942.000000	96.657831
941.000000	96.669743
940.000000	96.672843
939.000000	96.679108
938.000000	96.699059
937.000000	96.724455
936.000000	96.746458
935.000000	96.773526
934.000000	96.815108
933.000000	96.863465
932.000000	96.908038
931.000000	96.952894
930.000000	97.003879
929.000000	97.053307
928.000000	97.092749
927.000000	97.127097
926.000000	97.161073
925.000000	97.186842
924.000000	97.199843
923.000000	97.211981
922.000000	97.233331
921.000000	97.255871
920.000000	97.270452
919.000000	97.284841
918.000000	97.309217
917.000000	97.338468
916.000000	97.365104
915.000000	97.395063
914.000000	97.435071
913.000000	97.477899
912.000000	97.515449
911.000000	97.552267
910.000000	97.592045
909.000000	97.625472
908.000000	97.646346
907.000000	97.664328
906.000000	97.687269
905.000000	97.706698
904.000000	97.715525
903.000000	97.723918
902.000000	97.742391
901.000000	97.765702
900.000000	97.787466
899.000000	97.812901
898.000000	97.841282
897.000000	97.856012
896.000000	97.849838
895.000000	97.842889
894.000000	97.856718
893.000000	97.886410
892.000000	97.915457
891.000000	97.940695
890.000000	97.964479
889.000000	97.978042
888.000000	97.971642
887.000000	97.945987
886.000000	97.898117
885.000000	97.811130
884.000000	97.673701
883.000000	97.491559
882.000000	97.258937
881.000000	96.937809
880.000000	96.487560
879.000000	95.907391
878.000000	95.238790
877.000000	94.546772
876.000000	93.915156
875.000000	93.435442
874.000000	93.174862
873.000000	93.160562
872.000000	93.397921
871.000000	93.866078
870.000000	94.481563
869.000000	95.108631
868.000000	95.636922
867.000000	96.038835
866.000000	96.340381
865.000000	96.566046
864.000000	96.732148
863.000000	96.862547
862.000000	96.975656
861.000000	97.069139
860.000000	97.138911
859.000000	97.196335
858.000000	97.249858
857.000000	97.288565
856.000000	97.304570
855.000000	97.312781
854.000000	97.328703
853.000000	97.345473
852.000000	97.350225
851.000000	97.345252
850.000000	97.337404
849.000000	97.328376
848.000000	97.330392
847.000000	97.366354
846.000000	97.436059
845.000000	97.507450
844.000000	97.558940
843.000000	97.604645
842.000000	97.659845
841.000000	97.710781
840.000000	97.741532
839.000000	97.762874
838.000000	97.789986
837.000000	97.815440
836.000000	97.828700
835.000000	97.838784
834.000000	97.854417
833.000000	97.864960
832.000000	97.864024
831.000000	97.868215
830.000000	97.889244
829.000000	97.910934
828.000000	97.917222
827.000000	97.918425
826.000000	97.925675
825.000000	97.927277
824.000000	97.916194
823.000000	97.911008
822.000000	97.921350
821.000000	97.924418
820.000000	97.903599
819.000000	97.878346
818.000000	97.868659
817.000000	97.861655
816.000000	97.842118
815.000000	97.827298
814.000000	97.840461
813.000000	97.872430
812.000000	97.898389
811.000000	97.912176
810.000000	97.919283
809.000000	97.917348
808.000000	97.907273
807.000000	97.902513
806.000000	97.905936
805.000000	97.900600
804.000000	97.882041
803.000000	97.872240
802.000000	97.882731
801.000000	97.894407
800.000000	97.894400
799.000000	97.899610
798.000000	97.919820
797.000000	97.932578
796.000000	97.921660
795.000000	97.906888
794.000000	97.907923
793.000000	97.911219
792.000000	97.900890
791.000000	97.889899
790.000000	97.892032
789.000000	97.894126
788.000000	97.885002
787.000000	97.881428
786.000000	97.895913
785.000000	97.908466
784.000000	97.899912
783.000000	97.884685
782.000000	97.881647
781.000000	97.880705
780.000000	97.868197
779.000000	97.857995
778.000000	97.866622
777.000000	97.882248
776.000000	97.887611
775.000000	97.889147
774.000000	97.895717
773.000000	97.894431
772.000000	97.876645
771.000000	97.862381
770.000000	97.869501
769.000000	97.883022
768.000000	97.883933
767.000000	97.883314
766.000000	97.897934
765.000000	97.916277
764.000000	97.919037
763.000000	97.911631
762.000000	97.907677
761.000000	97.902593
760.000000	97.890849
759.000000	97.886303
758.000000	97.897304
757.000000	97.904037
756.000000	97.887503
755.000000	97.859252
754.000000	97.838234
753.000000	97.822555
752.000000	97.808076
751.000000	97.806845
750.000000	97.819808
749.000000	97.818720
748.000000	97.785375
747.000000	97.743382
746.000000	97.722401
745.000000	97.715852
744.000000	97.703016
743.000000	97.686752
742.000000	97.677677
741.000000	97.665347
740.000000	97.636910
739.000000	97.603895
738.000000	97.581601
737.000000	97.563147
736.000000	97.538690
735.000000	97.515792
734.000000	97.493931
733.000000	97.445857
732.000000	97.354553
731.000000	97.245871
730.000000	97.153844
729.000000	97.074205
728.000000	96.984245
727.000000	96.884525
726.000000	96.787502
725.000000	96.689177
724.000000	96.584765
723.000000	96.490326
722.000000	96.420744
721.000000	96.368675
720.000000	96.331245
719.000000	96.327354
718.000000	96.357552
717.000000	96.371867
716.000000	96.307854
715.000000	96.151110
714.000000	95.945283
713.000000	95.762932
712.000000	95.677717
711.000000	95.727969
710.000000	95.877469
709.000000	96.035920
708.000000	96.142189
707.000000	96.208597
706.000000	96.265104
705.000000	96.303060
704.000000	96.306083
703.000000	96.290822
702.000000	96.280921
701.000000	96.271706
700.000000	96.252758
699.000000	96.238696
698.000000	96.241105
697.000000	96.240217
696.000000	96.222272
695.000000	96.210181
694.000000	96.228932
693.000000	96.265106
692.000000	96.287952
691.000000	96.292324
690.000000	96.284489
689.000000	96.256788
688.000000	96.209967
687.000000	96.168157
686.000000	96.144392
685.000000	96.118365
684.000000	96.073092
683.000000	96.026925
682.000000	95.996786
681.000000	95.960773
680.000000	95.888047
679.000000	95.782234
678.000000	95.664493
677.000000	95.529646
676.000000	95.370477
675.000000	95.213847
674.000000	95.085257
673.000000	94.977398
672.000000	94.891347
671.000000	94.875055
670.000000	94.967834
669.000000	95.142983
668.000000	95.255581
667.000000	95.151018
666.000000	94.982852
665.000000	94.883359
664.000000	94.836127
663.000000	94.848615
662.000000	94.913067
661.000000	94.982866
660.000000	95.019715
659.000000	95.043189
658.000000	95.082141
657.000000	95.117850
656.000000	95.134831
655.000000	95.167058
654.000000	95.229188
653.000000	95.268977
652.000000	95.252048
651.000000	95.222503
650.000000	95.228920
649.000000	95.250654
648.000000	95.254961
647.000000	95.256206
646.000000	95.264226
645.000000	95.247424
644.000000	95.196512
643.000000	95.158147
642.000000	95.163528
641.000000	95.180171
640.000000	95.178183
639.000000	95.182980
638.000000	95.209228
637.000000	95.212486
636.000000	95.161244
635.000000	95.092275
634.000000	95.045729
633.000000	95.008021
632.000000	94.963738
631.000000	94.940357
630.000000	94.949030
629.000000	94.945664
628.000000	94.905064
627.000000	94.870062
626.000000	94.873649
625.000000	94.879289
624.000000	94.854219
623.000000	94.831249
622.000000	94.844323
621.000000	94.864786
620.000000	94.856747
619.000000	94.837777
618.000000	94.833943
617.000000	94.829934
616.000000	94.813136
615.000000	94.809578
614.000000	94.824023
613.000000	94.808998
612.000000	94.742880
611.000000	94.673431
610.000000	94.630503
609.000000	94.568732
608.000000	94.452246
607.000000	94.324803
606.000000	94.233323
605.000000	94.156677
604.000000	94.071034
603.000000	94.009015
602.000000	93.990814
601.000000	93.970177
600.000000	93.917361
599.000000	93.882476
598.000000	93.914572
597.000000	93.985450
596.000000	94.056371
595.000000	94.143719
594.000000	94.259127
593.000000	94.355024
592.000000	94.395046
591.000000	94.415668
590.000000	94.452483
589.000000	94.477662
588.000000	94.472138
587.000000	94.482741
586.000000	94.544501
585.000000	94.614696
584.000000	94.647855
583.000000	94.666874
582.000000	94.696422
581.000000	94.702881
580.000000	94.669052
579.000000	94.651916
578.000000	94.696338
577.000000	94.763492
576.000000	94.805349
575.000000	94.835798
574.000000	94.867026
573.000000	94.858460
572.000000	94.796613
571.000000	94.740223
570.000000	94.722834
569.000000	94.690698
568.000000	94.610873
567.000000	94.548648
566.000000	94.554201
565.000000	94.568746
564.000000	94.528064
563.000000	94.462680
562.000000	94.417464
561.000000	94.365234
560.000000	94.286622
559.000000	94.245182
558.000000	94.286500
557.000000	94.350800
556.000000	94.376655
555.000000	94.400469
554.000000	94.460948
553.000000	94.504485
552.000000	94.484600
551.000000	94.458391
550.000000	94.485230
549.000000	94.522581
548.000000	94.528524
547.000000	94.565027
546.000000	94.686149
545.000000	94.817414
544.000000	94.868833
543.000000	94.871271
542.000000	94.889486
541.000000	94.896294
540.000000	94.845856
539.000000	94.784722
538.000000	94.775408
537.000000	94.784297
536.000000	94.750252
535.000000	94.690252
534.000000	94.638102
533.000000	94.561819
532.000000	94.447160
531.000000	94.368321
530.000000	94.370552
529.000000	94.382210
528.000000	94.346499
527.000000	94.334727
526.000000	94.415583
525.000000	94.504366
524.000000	94.497236
523.000000	94.443891
522.000000	94.443825
521.000000	94.497178
520.000000	94.565320
519.000000	94.674892
518.000000	94.838296
517.000000	94.958886
516.000000	94.967747
515.000000	94.948954
514.000000	94.992142
513.000000	95.053681
512.000000	95.072173
511.000000	95.100854
510.000000	95.206651
509.000000	95.334599
508.000000	95.402927
507.000000	95.438118
506.000000	95.496706
505.000000	95.551389
504.000000	95.574761
503.000000	95.627829
502.000000	95.737747
501.000000	95.800173
500.000000	95.752526
499.000000	95.693495
498.000000	95.717091
497.000000	95.775053
496.000000	95.801270
495.000000	95.845715
494.000000	95.953559
493.000000	96.029528
492.000000	95.975728
491.000000	95.862429
490.000000	95.815492
489.000000	95.838055
488.000000	95.886483
487.000000	95.984193
486.000000	96.128343
485.000000	96.214085
484.000000	96.195305
483.000000	96.191176
482.000000	96.275863
481.000000	96.338555
480.000000	96.293656
479.000000	96.247140
478.000000	96.304868
477.000000	96.370438
476.000000	96.315415
475.000000	96.208016
474.000000	96.190255
473.000000	96.243750
472.000000	96.268840
471.000000	96.300749
470.000000	96.403913
469.000000	96.489587
468.000000	96.464863
467.000000	96.418055
466.000000	96.476408
465.000000	96.587443
464.000000	96.644989
463.000000	96.684104
462.000000	96.769471
461.000000	96.842623
460.000000	96.867298
459.000000	96.989484
458.000000	97.319576
457.000000	97.631860
456.000000	97.674989
455.000000	97.578622
454.000000	97.558513
453.000000	97.612463
452.000000	97.662163
451.000000	97.771900
450.000000	97.994841
