PE IR       SUBTECH     SPECTRUM    ASCII       PEDS        4.00        
   -1
msmeh_8_side1_002_1.ASC
23/09/08
14:27:50.00
23/09/08
14:52:56.00
uco
Sample 002 By uco Date Friday, September 08 2023
450.000000
#HDR
-1
-1
#GR
cm-1
%T
1.0
0.0
4000.000000
-1.000000
3551
8
98.784446
83.155706
#DATA
4000.000000	98.699578
3999.000000	98.697523
3998.000000	98.696882
3997.000000	98.698034
3996.000000	98.700224
3995.000000	98.701485
3994.000000	98.699665
3993.000000	98.694160
3992.000000	98.686455
3991.000000	98.678914
3990.000000	98.673381
3989.000000	98.670778
3988.000000	98.671133
3987.000000	98.673150
3986.000000	98.673960
3985.000000	98.670623
3984.000000	98.662635
3983.000000	98.652937
3982.000000	98.645793
3981.000000	98.643507
3980.000000	98.645556
3979.000000	98.650360
3978.000000	98.656937
3977.000000	98.664658
3976.000000	98.672396
3975.000000	98.678838
3974.000000	98.683561
3973.000000	98.686920
3972.000000	98.688740
3971.000000	98.687730
3970.000000	98.682766
3969.000000	98.674667
3968.000000	98.666092
3967.000000	98.659741
3966.000000	98.656615
3965.000000	98.655951
3964.000000	98.656390
3963.000000	98.656993
3962.000000	98.657467
3961.000000	98.657773
3960.000000	98.657897
3959.000000	98.657703
3958.000000	98.656867
3957.000000	98.655266
3956.000000	98.653272
3955.000000	98.651658
3954.000000	98.650832
3953.000000	98.650220
3952.000000	98.648875
3951.000000	98.646682
3950.000000	98.645111
3949.000000	98.646238
3948.000000	98.650758
3947.000000	98.657211
3946.000000	98.662902
3945.000000	98.665528
3944.000000	98.664343
3943.000000	98.660601
3942.000000	98.657183
3941.000000	98.656371
3940.000000	98.658144
3939.000000	98.660838
3938.000000	98.662668
3937.000000	98.662981
3936.000000	98.662210
3935.000000	98.661131
3934.000000	98.660162
3933.000000	98.658979
3932.000000	98.657091
3931.000000	98.654370
3930.000000	98.651535
3929.000000	98.649582
3928.000000	98.648481
3927.000000	98.647387
3926.000000	98.645428
3925.000000	98.642557
3924.000000	98.639651
3923.000000	98.637957
3922.000000	98.638681
3921.000000	98.642682
3920.000000	98.649286
3919.000000	98.655745
3918.000000	98.658652
3917.000000	98.656939
3916.000000	98.652859
3915.000000	98.649106
3914.000000	98.646307
3913.000000	98.643461
3912.000000	98.640011
3911.000000	98.636671
3910.000000	98.634696
3909.000000	98.634870
3908.000000	98.637165
3907.000000	98.641944
3906.000000	98.650541
3905.000000	98.663940
3904.000000	98.679563
3903.000000	98.690214
3902.000000	98.689429
3901.000000	98.678195
3900.000000	98.663822
3899.000000	98.653423
3898.000000	98.648380
3897.000000	98.645477
3896.000000	98.642452
3895.000000	98.639751
3894.000000	98.638478
3893.000000	98.639001
3892.000000	98.641233
3891.000000	98.645339
3890.000000	98.650764
3889.000000	98.656095
3888.000000	98.660554
3887.000000	98.663714
3886.000000	98.664524
3885.000000	98.662595
3884.000000	98.658329
3883.000000	98.652615
3882.000000	98.646920
3881.000000	98.643074
3880.000000	98.641994
3879.000000	98.641617
3878.000000	98.638229
3877.000000	98.631377
3876.000000	98.624338
3875.000000	98.621594
3874.000000	98.625751
3873.000000	98.634179
3872.000000	98.640177
3871.000000	98.638919
3870.000000	98.632721
3869.000000	98.629011
3868.000000	98.631108
3867.000000	98.636594
3866.000000	98.642258
3865.000000	98.645691
3864.000000	98.645721
3863.000000	98.643492
3862.000000	98.641283
3861.000000	98.640172
3860.000000	98.638894
3859.000000	98.636260
3858.000000	98.632216
3857.000000	98.627971
3856.000000	98.624360
3855.000000	98.620373
3854.000000	98.616768
3853.000000	98.617697
3852.000000	98.622128
3851.000000	98.625003
3850.000000	98.626101
3849.000000	98.627432
3848.000000	98.629769
3847.000000	98.631959
3846.000000	98.632149
3845.000000	98.629037
3844.000000	98.622828
3843.000000	98.615443
3842.000000	98.609314
3841.000000	98.605667
3840.000000	98.604956
3839.000000	98.608284
3838.000000	98.616443
3837.000000	98.628746
3836.000000	98.642879
3835.000000	98.655698
3834.000000	98.664121
3833.000000	98.665555
3832.000000	98.658790
3831.000000	98.645479
3830.000000	98.628818
3829.000000	98.612188
3828.000000	98.599167
3827.000000	98.593875
3826.000000	98.598667
3825.000000	98.610976
3824.000000	98.624439
3823.000000	98.632239
3822.000000	98.631021
3821.000000	98.625005
3820.000000	98.621429
3819.000000	98.621143
3818.000000	98.621126
3817.000000	98.620351
3816.000000	98.618310
3815.000000	98.614822
3814.000000	98.609775
3813.000000	98.604186
3812.000000	98.601221
3811.000000	98.603328
3810.000000	98.610128
3809.000000	98.618869
3808.000000	98.626852
3807.000000	98.633312
3806.000000	98.638934
3805.000000	98.643150
3804.000000	98.645005
3803.000000	98.644110
3802.000000	98.640623
3801.000000	98.636215
3800.000000	98.632563
3799.000000	98.627481
3798.000000	98.619458
3797.000000	98.610166
3796.000000	98.602686
3795.000000	98.598188
3794.000000	98.595192
3793.000000	98.592458
3792.000000	98.590634
3791.000000	98.590742
3790.000000	98.592796
3789.000000	98.595810
3788.000000	98.598259
3787.000000	98.599041
3786.000000	98.598139
3785.000000	98.596513
3784.000000	98.595244
3783.000000	98.594774
3782.000000	98.595073
3781.000000	98.596884
3780.000000	98.601665
3779.000000	98.609629
3778.000000	98.618185
3777.000000	98.623537
3776.000000	98.624033
3775.000000	98.620940
3774.000000	98.616968
3773.000000	98.614664
3772.000000	98.615827
3771.000000	98.621110
3770.000000	98.629166
3769.000000	98.636885
3768.000000	98.640996
3767.000000	98.640409
3766.000000	98.635951
3765.000000	98.629166
3764.000000	98.621900
3763.000000	98.616070
3762.000000	98.612871
3761.000000	98.611898
3760.000000	98.610906
3759.000000	98.607765
3758.000000	98.602784
3757.000000	98.597912
3756.000000	98.594526
3755.000000	98.594154
3754.000000	98.601380
3753.000000	98.623548
3752.000000	98.663138
3751.000000	98.707347
3750.000000	98.734598
3749.000000	98.737723
3748.000000	98.726083
3747.000000	98.710083
3746.000000	98.694337
3745.000000	98.680250
3744.000000	98.670651
3743.000000	98.665273
3742.000000	98.660724
3741.000000	98.657793
3740.000000	98.658348
3739.000000	98.661280
3738.000000	98.662077
3737.000000	98.656573
3736.000000	98.645423
3735.000000	98.635345
3734.000000	98.633255
3733.000000	98.638005
3732.000000	98.643163
3731.000000	98.644835
3730.000000	98.644126
3729.000000	98.644278
3728.000000	98.645975
3727.000000	98.645423
3726.000000	98.637862
3725.000000	98.623938
3724.000000	98.610780
3723.000000	98.605570
3722.000000	98.609766
3721.000000	98.618634
3720.000000	98.626267
3719.000000	98.630188
3718.000000	98.631439
3717.000000	98.632241
3716.000000	98.633927
3715.000000	98.636380
3714.000000	98.638807
3713.000000	98.639987
3712.000000	98.638890
3711.000000	98.636419
3710.000000	98.634620
3709.000000	98.634107
3708.000000	98.632934
3707.000000	98.629812
3706.000000	98.625891
3705.000000	98.622864
3704.000000	98.621194
3703.000000	98.619969
3702.000000	98.618423
3701.000000	98.617440
3700.000000	98.617820
3699.000000	98.618354
3698.000000	98.617130
3697.000000	98.613343
3696.000000	98.608265
3695.000000	98.604065
3694.000000	98.602306
3693.000000	98.603280
3692.000000	98.606710
3691.000000	98.612023
3690.000000	98.617124
3689.000000	98.618802
3688.000000	98.615990
3687.000000	98.610459
3686.000000	98.604039
3685.000000	98.598810
3684.000000	98.596712
3683.000000	98.597611
3682.000000	98.598119
3681.000000	98.594346
3680.000000	98.585802
3679.000000	98.575588
3678.000000	98.567313
3677.000000	98.562134
3676.000000	98.559761
3675.000000	98.560587
3674.000000	98.562934
3673.000000	98.562197
3672.000000	98.559266
3671.000000	98.557308
3670.000000	98.555171
3669.000000	98.549380
3668.000000	98.538299
3667.000000	98.523544
3666.000000	98.509909
3665.000000	98.501556
3664.000000	98.499399
3663.000000	98.500615
3662.000000	98.500463
3661.000000	98.495833
3660.000000	98.487651
3659.000000	98.480093
3658.000000	98.476904
3657.000000	98.478092
3656.000000	98.480134
3655.000000	98.479094
3654.000000	98.474129
3653.000000	98.467160
3652.000000	98.460831
3651.000000	98.457298
3650.000000	98.455781
3649.000000	98.449769
3648.000000	98.435439
3647.000000	98.419178
3646.000000	98.406500
3645.000000	98.395993
3644.000000	98.384278
3643.000000	98.370213
3642.000000	98.355279
3641.000000	98.342181
3640.000000	98.332182
3639.000000	98.324467
3638.000000	98.317927
3637.000000	98.312069
3636.000000	98.306867
3635.000000	98.302737
3634.000000	98.300921
3633.000000	98.302671
3632.000000	98.307691
3631.000000	98.312460
3630.000000	98.310523
3629.000000	98.298214
3628.000000	98.280751
3627.000000	98.263646
3626.000000	98.246541
3625.000000	98.229779
3624.000000	98.214751
3623.000000	98.202450
3622.000000	98.193169
3621.000000	98.186286
3620.000000	98.180158
3619.000000	98.172963
3618.000000	98.163238
3617.000000	98.150445
3616.000000	98.135988
3615.000000	98.122496
3614.000000	98.111958
3613.000000	98.105148
3612.000000	98.102020
3611.000000	98.100801
3610.000000	98.097508
3609.000000	98.086683
3608.000000	98.065356
3607.000000	98.036938
3606.000000	98.007806
3605.000000	97.982194
3604.000000	97.961434
3603.000000	97.946293
3602.000000	97.937641
3601.000000	97.934549
3600.000000	97.933137
3599.000000	97.928293
3598.000000	97.916817
3597.000000	97.898610
3596.000000	97.876274
3595.000000	97.853974
3594.000000	97.836711
3593.000000	97.827597
3592.000000	97.826075
3591.000000	97.827772
3590.000000	97.825648
3589.000000	97.812757
3588.000000	97.788181
3587.000000	97.760070
3586.000000	97.737710
3585.000000	97.721809
3584.000000	97.707742
3583.000000	97.692239
3582.000000	97.674588
3581.000000	97.655447
3580.000000	97.636538
3579.000000	97.619154
3578.000000	97.602770
3577.000000	97.585314
3576.000000	97.565855
3575.000000	97.546201
3574.000000	97.529325
3573.000000	97.516533
3572.000000	97.506351
3571.000000	97.496183
3570.000000	97.483894
3569.000000	97.468836
3568.000000	97.451802
3567.000000	97.433924
3566.000000	97.415606
3565.000000	97.397195
3564.000000	97.379093
3563.000000	97.361912
3562.000000	97.345992
3561.000000	97.330832
3560.000000	97.315474
3559.000000	97.299683
3558.000000	97.284020
3557.000000	97.269006
3556.000000	97.254022
3555.000000	97.237223
3554.000000	97.216937
3553.000000	97.194072
3552.000000	97.172493
3551.000000	97.155982
3550.000000	97.145011
3549.000000	97.137099
3548.000000	97.128791
3547.000000	97.116549
3546.000000	97.097987
3545.000000	97.074488
3544.000000	97.051386
3543.000000	97.033035
3542.000000	97.018605
3541.000000	97.003714
3540.000000	96.985357
3539.000000	96.964614
3538.000000	96.944525
3537.000000	96.926713
3536.000000	96.910881
3535.000000	96.896758
3534.000000	96.884847
3533.000000	96.874808
3532.000000	96.864691
3531.000000	96.852265
3530.000000	96.837106
3529.000000	96.820951
3528.000000	96.805830
3527.000000	96.792197
3526.000000	96.779262
3525.000000	96.766451
3524.000000	96.753663
3523.000000	96.740231
3522.000000	96.724863
3521.000000	96.707448
3520.000000	96.690304
3519.000000	96.676428
3518.000000	96.666124
3517.000000	96.655922
3516.000000	96.642182
3515.000000	96.625057
3514.000000	96.608369
3513.000000	96.595347
3512.000000	96.585475
3511.000000	96.575537
3510.000000	96.563294
3509.000000	96.549503
3508.000000	96.536473
3507.000000	96.525807
3506.000000	96.518022
3505.000000	96.513218
3504.000000	96.510175
3503.000000	96.505161
3502.000000	96.493675
3501.000000	96.474152
3500.000000	96.449165
3499.000000	96.422889
3498.000000	96.398262
3497.000000	96.376249
3496.000000	96.357280
3495.000000	96.342529
3494.000000	96.333440
3493.000000	96.329998
3492.000000	96.329550
3491.000000	96.327656
3490.000000	96.320847
3489.000000	96.309263
3488.000000	96.296484
3487.000000	96.286103
3486.000000	96.278234
3485.000000	96.269777
3484.000000	96.257971
3483.000000	96.243270
3482.000000	96.229015
3481.000000	96.218251
3480.000000	96.210815
3479.000000	96.203601
3478.000000	96.193348
3477.000000	96.178811
3476.000000	96.160508
3475.000000	96.139578
3474.000000	96.117764
3473.000000	96.098029
3472.000000	96.083409
3471.000000	96.074226
3470.000000	96.067244
3469.000000	96.058729
3468.000000	96.048073
3467.000000	96.037702
3466.000000	96.029495
3465.000000	96.022536
3464.000000	96.014557
3463.000000	96.004632
3462.000000	95.993933
3461.000000	95.984082
3460.000000	95.975301
3459.000000	95.966302
3458.000000	95.955898
3457.000000	95.944485
3456.000000	95.933346
3455.000000	95.922480
3454.000000	95.910320
3453.000000	95.895987
3452.000000	95.880910
3451.000000	95.866931
3450.000000	95.853652
3449.000000	95.839103
3448.000000	95.822781
3447.000000	95.806827
3446.000000	95.793956
3445.000000	95.785000
3444.000000	95.778642
3443.000000	95.772325
3442.000000	95.763475
3441.000000	95.751484
3440.000000	95.738652
3439.000000	95.727964
3438.000000	95.719795
3437.000000	95.711713
3436.000000	95.701506
3435.000000	95.689097
3434.000000	95.675503
3433.000000	95.661158
3432.000000	95.646164
3431.000000	95.631030
3430.000000	95.616582
3429.000000	95.603472
3428.000000	95.591845
3427.000000	95.580906
3426.000000	95.568866
3425.000000	95.554441
3424.000000	95.538697
3423.000000	95.524437
3422.000000	95.513112
3421.000000	95.502942
3420.000000	95.490789
3419.000000	95.475547
3418.000000	95.459080
3417.000000	95.444261
3416.000000	95.432893
3415.000000	95.425144
3414.000000	95.420060
3413.000000	95.415940
3412.000000	95.410136
3411.000000	95.399334
3410.000000	95.381443
3409.000000	95.358033
3408.000000	95.334269
3407.000000	95.315446
3406.000000	95.303433
3405.000000	95.296497
3404.000000	95.291615
3403.000000	95.285957
3402.000000	95.276959
3401.000000	95.262869
3400.000000	95.244316
3399.000000	95.224627
3398.000000	95.207818
3397.000000	95.196039
3396.000000	95.188662
3395.000000	95.183148
3394.000000	95.176629
3393.000000	95.167494
3392.000000	95.156277
3391.000000	95.144911
3390.000000	95.134740
3389.000000	95.125481
3388.000000	95.116040
3387.000000	95.105614
3386.000000	95.093604
3385.000000	95.078969
3384.000000	95.060490
3383.000000	95.037995
3382.000000	95.013143
3381.000000	94.988784
3380.000000	94.967474
3379.000000	94.950126
3378.000000	94.935731
3377.000000	94.922087
3376.000000	94.906727
3375.000000	94.887588
3374.000000	94.863764
3373.000000	94.836521
3372.000000	94.809205
3371.000000	94.785048
3370.000000	94.764398
3369.000000	94.744439
3368.000000	94.721859
3367.000000	94.695518
3366.000000	94.666499
3365.000000	94.636518
3364.000000	94.606980
3363.000000	94.578947
3362.000000	94.552726
3361.000000	94.527086
3360.000000	94.499470
3359.000000	94.467555
3358.000000	94.430866
3357.000000	94.391125
3356.000000	94.351366
3355.000000	94.314647
3354.000000	94.282841
3353.000000	94.255778
3352.000000	94.231071
3351.000000	94.205026
3350.000000	94.174445
3349.000000	94.138136
3348.000000	94.097080
3347.000000	94.053661
3346.000000	94.010874
3345.000000	93.971499
3344.000000	93.936856
3343.000000	93.905919
3342.000000	93.876422
3341.000000	93.847337
3340.000000	93.819592
3339.000000	93.793837
3338.000000	93.768096
3337.000000	93.738640
3336.000000	93.703323
3335.000000	93.663539
3334.000000	93.622902
3333.000000	93.584479
3332.000000	93.549389
3331.000000	93.517412
3330.000000	93.488424
3329.000000	93.463110
3328.000000	93.442098
3327.000000	93.424391
3326.000000	93.407143
3325.000000	93.387322
3324.000000	93.363543
3323.000000	93.336264
3322.000000	93.306912
3321.000000	93.277250
3320.000000	93.248903
3319.000000	93.222746
3318.000000	93.198929
3317.000000	93.177845
3316.000000	93.160552
3315.000000	93.147397
3314.000000	93.136575
3313.000000	93.125293
3312.000000	93.112474
3311.000000	93.099642
3310.000000	93.088887
3309.000000	93.080407
3308.000000	93.072347
3307.000000	93.062576
3306.000000	93.050266
3305.000000	93.035993
3304.000000	93.020624
3303.000000	93.004355
3302.000000	92.987211
3301.000000	92.970586
3300.000000	92.957474
3299.000000	92.950071
3298.000000	92.947356
3297.000000	92.945891
3296.000000	92.943389
3295.000000	92.940755
3294.000000	92.940042
3293.000000	92.941194
3292.000000	92.941621
3291.000000	92.938771
3290.000000	92.932363
3289.000000	92.924007
3288.000000	92.915479
3287.000000	92.908005
3286.000000	92.902489
3285.000000	92.899176
3284.000000	92.896974
3283.000000	92.894396
3282.000000	92.891955
3281.000000	92.892799
3280.000000	92.899717
3279.000000	92.911879
3278.000000	92.925641
3277.000000	92.938301
3276.000000	92.950008
3275.000000	92.962001
3274.000000	92.974469
3273.000000	92.986625
3272.000000	92.997549
3271.000000	93.006164
3270.000000	93.011461
3269.000000	93.013921
3268.000000	93.015991
3267.000000	93.020208
3266.000000	93.027212
3265.000000	93.036158
3264.000000	93.046368
3263.000000	93.057580
3262.000000	93.069269
3261.000000	93.081207
3260.000000	93.094629
3259.000000	93.111545
3258.000000	93.132340
3257.000000	93.154692
3256.000000	93.175084
3255.000000	93.191320
3254.000000	93.204036
3253.000000	93.216383
3252.000000	93.231933
3251.000000	93.251696
3250.000000	93.272789
3249.000000	93.290547
3248.000000	93.302365
3247.000000	93.309490
3246.000000	93.315648
3245.000000	93.324462
3244.000000	93.337749
3243.000000	93.354852
3242.000000	93.372881
3241.000000	93.388312
3240.000000	93.399432
3239.000000	93.407667
3238.000000	93.416321
3237.000000	93.427896
3236.000000	93.442214
3235.000000	93.456764
3234.000000	93.468754
3233.000000	93.477147
3232.000000	93.483227
3231.000000	93.489294
3230.000000	93.496861
3229.000000	93.505940
3228.000000	93.515499
3227.000000	93.524390
3226.000000	93.532185
3225.000000	93.539718
3224.000000	93.548969
3223.000000	93.561978
3222.000000	93.579409
3221.000000	93.599648
3220.000000	93.618889
3219.000000	93.632695
3218.000000	93.638978
3217.000000	93.640226
3216.000000	93.642135
3215.000000	93.648811
3214.000000	93.659145
3213.000000	93.668940
3212.000000	93.676362
3211.000000	93.684294
3210.000000	93.696923
3209.000000	93.715153
3208.000000	93.735862
3207.000000	93.754911
3206.000000	93.770110
3205.000000	93.781723
3204.000000	93.791172
3203.000000	93.799651
3202.000000	93.807747
3201.000000	93.816123
3200.000000	93.825975
3199.000000	93.838399
3198.000000	93.853408
3197.000000	93.870224
3196.000000	93.888460
3195.000000	93.908266
3194.000000	93.929027
3193.000000	93.948621
3192.000000	93.964618
3191.000000	93.976275
3190.000000	93.985333
3189.000000	93.995091
3188.000000	94.008309
3187.000000	94.025267
3186.000000	94.043621
3185.000000	94.060982
3184.000000	94.077937
3183.000000	94.097625
3182.000000	94.121857
3181.000000	94.148488
3180.000000	94.173539
3179.000000	94.195197
3178.000000	94.214800
3177.000000	94.234115
3176.000000	94.253005
3175.000000	94.270255
3174.000000	94.285717
3173.000000	94.300818
3172.000000	94.317233
3171.000000	94.335517
3170.000000	94.354972
3169.000000	94.374423
3168.000000	94.393209
3167.000000	94.411811
3166.000000	94.431728
3165.000000	94.454572
3164.000000	94.480811
3163.000000	94.509019
3162.000000	94.536163
3161.000000	94.559029
3160.000000	94.576065
3159.000000	94.588639
3158.000000	94.600586
3157.000000	94.615881
3156.000000	94.635832
3155.000000	94.658313
3154.000000	94.680129
3153.000000	94.700065
3152.000000	94.719166
3151.000000	94.738122
3150.000000	94.755689
3149.000000	94.770420
3148.000000	94.783018
3147.000000	94.795682
3146.000000	94.809349
3145.000000	94.822932
3144.000000	94.835432
3143.000000	94.847807
3142.000000	94.862035
3141.000000	94.878747
3140.000000	94.896338
3139.000000	94.912253
3138.000000	94.924884
3137.000000	94.934417
3136.000000	94.942211
3135.000000	94.949665
3134.000000	94.957818
3133.000000	94.967709
3132.000000	94.980167
3131.000000	94.994563
3130.000000	95.008547
3129.000000	95.020142
3128.000000	95.029856
3127.000000	95.039527
3126.000000	95.049145
3125.000000	95.056288
3124.000000	95.059168
3123.000000	95.058925
3122.000000	95.058216
3121.000000	95.058581
3120.000000	95.060156
3119.000000	95.062981
3118.000000	95.066987
3117.000000	95.070870
3116.000000	95.072278
3115.000000	95.069842
3114.000000	95.064593
3113.000000	95.059004
3112.000000	95.054827
3111.000000	95.051956
3110.000000	95.049153
3109.000000	95.045491
3108.000000	95.040622
3107.000000	95.033863
3106.000000	95.024027
3105.000000	95.010983
3104.000000	94.996745
3103.000000	94.983999
3102.000000	94.973552
3101.000000	94.964009
3100.000000	94.953529
3099.000000	94.941099
3098.000000	94.926540
3097.000000	94.910961
3096.000000	94.897379
3095.000000	94.889012
3094.000000	94.885850
3093.000000	94.883794
3092.000000	94.878145
3091.000000	94.867261
3090.000000	94.852529
3089.000000	94.835963
3088.000000	94.819069
3087.000000	94.803205
3086.000000	94.789515
3085.000000	94.778478
3084.000000	94.770381
3083.000000	94.766089
3082.000000	94.766056
3081.000000	94.768376
3080.000000	94.769020
3079.000000	94.764850
3078.000000	94.756059
3077.000000	94.745264
3076.000000	94.734920
3075.000000	94.726232
3074.000000	94.720005
3073.000000	94.717259
3072.000000	94.718445
3071.000000	94.722430
3070.000000	94.727104
3069.000000	94.731339
3068.000000	94.736002
3067.000000	94.742498
3066.000000	94.750253
3065.000000	94.756495
3064.000000	94.759215
3063.000000	94.760092
3062.000000	94.763711
3061.000000	94.773703
3060.000000	94.790021
3059.000000	94.809915
3058.000000	94.830685
3057.000000	94.851119
3056.000000	94.871050
3055.000000	94.890830
3054.000000	94.911338
3053.000000	94.933262
3052.000000	94.955847
3051.000000	94.977014
3050.000000	94.995435
3049.000000	95.012249
3048.000000	95.030065
3047.000000	95.050381
3046.000000	95.072362
3045.000000	95.093860
3044.000000	95.113234
3043.000000	95.130419
3042.000000	95.146657
3041.000000	95.163239
3040.000000	95.180363
3039.000000	95.197569
3038.000000	95.215132
3037.000000	95.234110
3036.000000	95.254549
3035.000000	95.274619
3034.000000	95.292568
3033.000000	95.308970
3032.000000	95.325826
3031.000000	95.343724
3030.000000	95.361312
3029.000000	95.377590
3028.000000	95.393153
3027.000000	95.408481
3026.000000	95.422496
3025.000000	95.434088
3024.000000	95.444374
3023.000000	95.456127
3022.000000	95.470995
3021.000000	95.487987
3020.000000	95.504317
3019.000000	95.516978
3018.000000	95.523906
3017.000000	95.524862
3016.000000	95.521570
3015.000000	95.516457
3014.000000	95.510760
3013.000000	95.504066
3012.000000	95.495626
3011.000000	95.485922
3010.000000	95.476866
3009.000000	95.470364
3008.000000	95.466601
3007.000000	95.463756
3006.000000	95.459879
3005.000000	95.455004
3004.000000	95.450715
3003.000000	95.447536
3002.000000	95.443830
3001.000000	95.438009
3000.000000	95.430888
2999.000000	95.424923
2998.000000	95.421539
2997.000000	95.420112
2996.000000	95.418881
2995.000000	95.415685
2994.000000	95.407858
2993.000000	95.392840
2992.000000	95.369832
2991.000000	95.340530
2990.000000	95.308165
2989.000000	95.275675
2988.000000	95.244521
2987.000000	95.214533
2986.000000	95.184799
2985.000000	95.154920
2984.000000	95.124986
2983.000000	95.094240
2982.000000	95.060729
2981.000000	95.023434
2980.000000	94.984409
2979.000000	94.947445
2978.000000	94.914203
2977.000000	94.882535
2976.000000	94.848633
2975.000000	94.810014
2974.000000	94.766022
2973.000000	94.716532
2972.000000	94.661205
2971.000000	94.599859
2970.000000	94.533163
2969.000000	94.462694
2968.000000	94.390109
2967.000000	94.315949
2966.000000	94.239260
2965.000000	94.159100
2964.000000	94.076425
2963.000000	93.994323
2962.000000	93.916417
2961.000000	93.845363
2960.000000	93.782679
2959.000000	93.728914
2958.000000	93.683876
2957.000000	93.647102
2956.000000	93.618801
2955.000000	93.599956
2954.000000	93.591353
2953.000000	93.592670
2952.000000	93.602007
2951.000000	93.615498
2950.000000	93.626643
2949.000000	93.627514
2948.000000	93.612008
2947.000000	93.578567
2946.000000	93.529186
2945.000000	93.465472
2944.000000	93.386576
2943.000000	93.290780
2942.000000	93.178643
2941.000000	93.053479
2940.000000	92.918958
2939.000000	92.776646
2938.000000	92.625435
2937.000000	92.462985
2936.000000	92.287616
2935.000000	92.100458
2934.000000	91.906523
2933.000000	91.712995
2932.000000	91.525107
2931.000000	91.343360
2930.000000	91.165565
2929.000000	90.991549
2928.000000	90.826096
2927.000000	90.678077
2926.000000	90.557280
2925.000000	90.471346
2924.000000	90.423425
2923.000000	90.413014
2922.000000	90.439379
2921.000000	90.503768
2920.000000	90.607229
2919.000000	90.746307
2918.000000	90.913346
2917.000000	91.100711
2916.000000	91.303819
2915.000000	91.519273
2914.000000	91.741374
2913.000000	91.961782
2912.000000	92.171653
2911.000000	92.364374
2910.000000	92.537104
2909.000000	92.691299
2908.000000	92.831519
2907.000000	92.962120
2906.000000	93.084404
2905.000000	93.196505
2904.000000	93.296172
2903.000000	93.383645
2902.000000	93.462724
2901.000000	93.539110
2900.000000	93.617680
2899.000000	93.699301
2898.000000	93.780572
2897.000000	93.856815
2896.000000	93.925618
2895.000000	93.987803
2894.000000	94.045901
2893.000000	94.102313
2892.000000	94.158461
2891.000000	94.214572
2890.000000	94.269750
2889.000000	94.322479
2888.000000	94.371196
2887.000000	94.414677
2886.000000	94.452542
2885.000000	94.485676
2884.000000	94.515437
2883.000000	94.541731
2882.000000	94.562029
2881.000000	94.572929
2880.000000	94.572771
2879.000000	94.562868
2878.000000	94.546892
2877.000000	94.529331
2876.000000	94.513233
2875.000000	94.498389
2874.000000	94.482495
2873.000000	94.465107
2872.000000	94.449884
2871.000000	94.441436
2870.000000	94.440227
2869.000000	94.441642
2868.000000	94.439677
2867.000000	94.429529
2866.000000	94.406612
2865.000000	94.365675
2864.000000	94.302664
2863.000000	94.216890
2862.000000	94.109857
2861.000000	93.982726
2860.000000	93.836608
2859.000000	93.675802
2858.000000	93.509445
2857.000000	93.349407
2856.000000	93.206983
2855.000000	93.091685
2854.000000	93.013104
2853.000000	92.981528
2852.000000	93.005081
2851.000000	93.086196
2850.000000	93.221009
2849.000000	93.401814
2848.000000	93.618564
2847.000000	93.857831
2846.000000	94.102498
2845.000000	94.335870
2844.000000	94.546815
2843.000000	94.731929
2842.000000	94.893310
2841.000000	95.034904
2840.000000	95.160450
2839.000000	95.272115
2838.000000	95.369872
2837.000000	95.452807
2836.000000	95.521913
2835.000000	95.581098
2834.000000	95.634986
2833.000000	95.685827
2832.000000	95.732938
2831.000000	95.774837
2830.000000	95.811427
2829.000000	95.844575
2828.000000	95.876891
2827.000000	95.909884
2826.000000	95.943008
2825.000000	95.974410
2824.000000	96.002566
2823.000000	96.027206
2822.000000	96.049158
2821.000000	96.069896
2820.000000	96.091013
2819.000000	96.113336
2818.000000	96.136189
2817.000000	96.157846
2816.000000	96.176948
2815.000000	96.193449
2814.000000	96.208422
2813.000000	96.223156
2812.000000	96.238172
2811.000000	96.252838
2810.000000	96.266239
2809.000000	96.278700
2808.000000	96.291723
2807.000000	96.305850
2806.000000	96.319423
2805.000000	96.330467
2804.000000	96.339289
2803.000000	96.347964
2802.000000	96.357646
2801.000000	96.367916
2800.000000	96.378674
2799.000000	96.390884
2798.000000	96.404943
2797.000000	96.419749
2796.000000	96.434178
2795.000000	96.448275
2794.000000	96.461953
2793.000000	96.473543
2792.000000	96.481040
2791.000000	96.484705
2790.000000	96.487639
2789.000000	96.493556
2788.000000	96.504088
2787.000000	96.517836
2786.000000	96.531679
2785.000000	96.543294
2784.000000	96.552735
2783.000000	96.561693
2782.000000	96.571520
2781.000000	96.582441
2780.000000	96.594315
2779.000000	96.607097
2778.000000	96.620353
2777.000000	96.633218
2776.000000	96.645230
2775.000000	96.656586
2774.000000	96.667377
2773.000000	96.677270
2772.000000	96.686193
2771.000000	96.694600
2770.000000	96.702728
2769.000000	96.710290
2768.000000	96.717129
2767.000000	96.723352
2766.000000	96.728579
2765.000000	96.732154
2764.000000	96.734741
2763.000000	96.738848
2762.000000	96.746635
2761.000000	96.757336
2760.000000	96.767548
2759.000000	96.774184
2758.000000	96.777202
2757.000000	96.779790
2756.000000	96.785895
2755.000000	96.796773
2754.000000	96.809555
2753.000000	96.819470
2752.000000	96.823800
2751.000000	96.823496
2750.000000	96.821384
2749.000000	96.819924
2748.000000	96.820757
2747.000000	96.824880
2746.000000	96.832159
2745.000000	96.841421
2744.000000	96.851995
2743.000000	96.864576
2742.000000	96.879456
2741.000000	96.894164
2740.000000	96.904140
2739.000000	96.906464
2738.000000	96.902757
2737.000000	96.898252
2736.000000	96.897916
2735.000000	96.903180
2734.000000	96.911916
2733.000000	96.921230
2732.000000	96.929997
2731.000000	96.938596
2730.000000	96.946898
2729.000000	96.953498
2728.000000	96.957170
2727.000000	96.958533
2726.000000	96.959987
2725.000000	96.964215
2724.000000	96.972412
2723.000000	96.983107
2722.000000	96.992663
2721.000000	96.997957
2720.000000	96.999249
2719.000000	96.999821
2718.000000	97.002423
2717.000000	97.006684
2716.000000	97.010477
2715.000000	97.013108
2714.000000	97.016370
2713.000000	97.022599
2712.000000	97.032119
2711.000000	97.042462
2710.000000	97.049948
2709.000000	97.052503
2708.000000	97.051442
2707.000000	97.050454
2706.000000	97.052708
2705.000000	97.058851
2704.000000	97.067270
2703.000000	97.075493
2702.000000	97.081460
2701.000000	97.084564
2700.000000	97.086053
2699.000000	97.087815
2698.000000	97.090398
2697.000000	97.092701
2696.000000	97.093825
2695.000000	97.094482
2694.000000	97.096070
2693.000000	97.099041
2692.000000	97.102718
2691.000000	97.106215
2690.000000	97.108963
2689.000000	97.110848
2688.000000	97.112481
2687.000000	97.114971
2686.000000	97.118660
2685.000000	97.122178
2684.000000	97.123378
2683.000000	97.121491
2682.000000	97.118213
2681.000000	97.116430
2680.000000	97.117576
2679.000000	97.119985
2678.000000	97.120276
2677.000000	97.117162
2676.000000	97.113891
2675.000000	97.115910
2674.000000	97.125498
2673.000000	97.139098
2672.000000	97.150272
2671.000000	97.155017
2670.000000	97.154070
2669.000000	97.150955
2668.000000	97.148632
2667.000000	97.147828
2666.000000	97.147729
2665.000000	97.147780
2664.000000	97.148500
2663.000000	97.150349
2662.000000	97.152298
2661.000000	97.152498
2660.000000	97.150545
2659.000000	97.148261
2658.000000	97.147806
2657.000000	97.149834
2656.000000	97.154056
2655.000000	97.160553
2654.000000	97.169187
2653.000000	97.178159
2652.000000	97.184786
2651.000000	97.188254
2650.000000	97.190647
2649.000000	97.194646
2648.000000	97.200834
2647.000000	97.207976
2646.000000	97.215426
2645.000000	97.224072
2644.000000	97.234518
2643.000000	97.245286
2642.000000	97.253963
2641.000000	97.260034
2640.000000	97.265447
2639.000000	97.271779
2638.000000	97.277758
2637.000000	97.280821
2636.000000	97.280843
2635.000000	97.281046
2634.000000	97.284888
2633.000000	97.292903
2632.000000	97.302928
2631.000000	97.312518
2630.000000	97.320541
2629.000000	97.327128
2628.000000	97.333044
2627.000000	97.338969
2626.000000	97.344815
2625.000000	97.349715
2624.000000	97.353115
2623.000000	97.355976
2622.000000	97.360683
2621.000000	97.369489
2620.000000	97.382509
2619.000000	97.396762
2618.000000	97.407325
2617.000000	97.410470
2616.000000	97.406650
2615.000000	97.400580
2614.000000	97.397974
2613.000000	97.401480
2612.000000	97.409044
2611.000000	97.415949
2610.000000	97.418857
2609.000000	97.418595
2608.000000	97.419353
2607.000000	97.425063
2606.000000	97.436345
2605.000000	97.450450
2604.000000	97.463263
2603.000000	97.471419
2602.000000	97.473752
2601.000000	97.471954
2600.000000	97.469741
2599.000000	97.470643
2598.000000	97.476186
2597.000000	97.485749
2596.000000	97.497257
2595.000000	97.507714
2594.000000	97.514182
2593.000000	97.515121
2592.000000	97.510686
2591.000000	97.501967
2590.000000	97.491205
2589.000000	97.482830
2588.000000	97.482084
2587.000000	97.490793
2586.000000	97.505265
2585.000000	97.519437
2584.000000	97.529501
2583.000000	97.535176
2582.000000	97.538463
2581.000000	97.542584
2580.000000	97.550223
2579.000000	97.560305
2578.000000	97.567562
2577.000000	97.567753
2576.000000	97.562927
2575.000000	97.559530
2574.000000	97.561721
2573.000000	97.568583
2572.000000	97.577063
2571.000000	97.584966
2570.000000	97.590726
2569.000000	97.592728
2568.000000	97.590232
2567.000000	97.584388
2566.000000	97.578249
2565.000000	97.576188
2564.000000	97.581827
2563.000000	97.594395
2562.000000	97.607603
2561.000000	97.614227
2560.000000	97.612456
2559.000000	97.606851
2558.000000	97.603726
2557.000000	97.606919
2556.000000	97.616747
2555.000000	97.630536
2554.000000	97.643939
2553.000000	97.653611
2552.000000	97.659174
2551.000000	97.662077
2550.000000	97.663429
2549.000000	97.664091
2548.000000	97.665460
2547.000000	97.668060
2546.000000	97.670243
2545.000000	97.670365
2544.000000	97.669342
2543.000000	97.668982
2542.000000	97.668755
2541.000000	97.666605
2540.000000	97.662311
2539.000000	97.657730
2538.000000	97.654606
2537.000000	97.654468
2536.000000	97.659413
2535.000000	97.669650
2534.000000	97.680917
2533.000000	97.687798
2532.000000	97.689695
2531.000000	97.690662
2530.000000	97.693294
2529.000000	97.696247
2528.000000	97.697944
2527.000000	97.699161
2526.000000	97.700657
2525.000000	97.701162
2524.000000	97.699340
2523.000000	97.695937
2522.000000	97.692968
2521.000000	97.692216
2520.000000	97.694861
2519.000000	97.700769
2518.000000	97.707698
2517.000000	97.712752
2516.000000	97.715056
2515.000000	97.716026
2514.000000	97.717986
2513.000000	97.723854
2512.000000	97.736127
2511.000000	97.752666
2510.000000	97.764887
2509.000000	97.764822
2508.000000	97.754715
2507.000000	97.745594
2506.000000	97.744832
2505.000000	97.748879
2504.000000	97.749483
2503.000000	97.744149
2502.000000	97.738179
2501.000000	97.738679
2500.000000	97.748585
2499.000000	97.764570
2498.000000	97.779011
2497.000000	97.785260
2496.000000	97.782911
2495.000000	97.777749
2494.000000	97.776273
2493.000000	97.780697
2492.000000	97.788605
2491.000000	97.795632
2490.000000	97.798687
2489.000000	97.798697
2488.000000	97.800086
2487.000000	97.805661
2486.000000	97.812610
2485.000000	97.815907
2484.000000	97.815053
2483.000000	97.814077
2482.000000	97.815203
2481.000000	97.816952
2480.000000	97.819189
2479.000000	97.825387
2478.000000	97.836977
2477.000000	97.848926
2476.000000	97.854480
2475.000000	97.853024
2474.000000	97.850383
2473.000000	97.852062
2472.000000	97.858340
2471.000000	97.865419
2470.000000	97.869678
2469.000000	97.870871
2468.000000	97.871885
2467.000000	97.875226
2466.000000	97.879558
2465.000000	97.880583
2464.000000	97.875826
2463.000000	97.867676
2462.000000	97.861378
2461.000000	97.860695
2460.000000	97.865012
2459.000000	97.869466
2458.000000	97.868189
2457.000000	97.859233
2456.000000	97.846847
2455.000000	97.837812
2454.000000	97.835313
2453.000000	97.837481
2452.000000	97.841267
2451.000000	97.845796
2450.000000	97.851825
2449.000000	97.859702
2448.000000	97.868693
2447.000000	97.877240
2446.000000	97.883701
2445.000000	97.887391
2444.000000	97.888525
2443.000000	97.886658
2442.000000	97.880956
2441.000000	97.873679
2440.000000	97.871291
2439.000000	97.878480
2438.000000	97.891494
2437.000000	97.900669
2436.000000	97.900328
2435.000000	97.893819
2434.000000	97.888460
2433.000000	97.888110
2432.000000	97.891497
2431.000000	97.895660
2430.000000	97.899340
2429.000000	97.903588
2428.000000	97.909681
2427.000000	97.916535
2426.000000	97.921130
2425.000000	97.922008
2424.000000	97.920753
2423.000000	97.919079
2422.000000	97.916812
2421.000000	97.914716
2420.000000	97.916335
2419.000000	97.923345
2418.000000	97.931088
2417.000000	97.933216
2416.000000	97.929810
2415.000000	97.926417
2414.000000	97.925741
2413.000000	97.925501
2412.000000	97.925232
2411.000000	97.929567
2410.000000	97.941882
2409.000000	97.958338
2408.000000	97.971624
2407.000000	97.978803
2406.000000	97.982742
2405.000000	97.987011
2404.000000	97.991804
2403.000000	97.994687
2402.000000	97.993898
2401.000000	97.990671
2400.000000	97.988248
2399.000000	97.988182
2398.000000	97.988000
2397.000000	97.983726
2396.000000	97.974610
2395.000000	97.963993
2394.000000	97.955598
2393.000000	97.950322
2392.000000	97.946990
2391.000000	97.945168
2390.000000	97.946666
2389.000000	97.953971
2388.000000	97.966609
2387.000000	97.979360
2386.000000	97.986123
2385.000000	97.986339
2384.000000	97.985673
2383.000000	97.989175
2382.000000	97.995891
2381.000000	98.002130
2380.000000	98.007248
2379.000000	98.012935
2378.000000	98.018518
2377.000000	98.020948
2376.000000	98.018842
2375.000000	98.012712
2374.000000	98.002066
2373.000000	97.987024
2372.000000	97.972875
2371.000000	97.967473
2370.000000	97.972977
2369.000000	97.984725
2368.000000	97.998398
2367.000000	98.012867
2366.000000	98.025545
2365.000000	98.032118
2364.000000	98.031992
2363.000000	98.026551
2362.000000	98.012598
2361.000000	97.987358
2360.000000	97.956714
2359.000000	97.933868
2358.000000	97.929164
2357.000000	97.938913
2356.000000	97.954555
2355.000000	97.967120
2354.000000	97.970554
2353.000000	97.966359
2352.000000	97.963225
2351.000000	97.967693
2350.000000	97.974432
2349.000000	97.975147
2348.000000	97.967380
2347.000000	97.955734
2346.000000	97.949109
2345.000000	97.950278
2344.000000	97.955527
2343.000000	97.956661
2342.000000	97.953048
2341.000000	97.951779
2340.000000	97.955457
2339.000000	97.959893
2338.000000	97.958330
2337.000000	97.950907
2336.000000	97.943996
2335.000000	97.945743
2334.000000	97.956000
2333.000000	97.970943
2332.000000	97.984755
2331.000000	97.995601
2330.000000	97.997321
2329.000000	97.988134
2328.000000	97.970626
2327.000000	97.950727
2326.000000	97.931748
2325.000000	97.914708
2324.000000	97.904847
2323.000000	97.908008
2322.000000	97.923044
2321.000000	97.942005
2320.000000	97.956710
2319.000000	97.968335
2318.000000	97.979323
2317.000000	97.991167
2316.000000	97.999764
2315.000000	98.001520
2314.000000	97.993143
2313.000000	97.978309
2312.000000	97.966144
2311.000000	97.966566
2310.000000	97.979846
2309.000000	97.999064
2308.000000	98.017292
2307.000000	98.032279
2306.000000	98.042722
2305.000000	98.047580
2304.000000	98.047897
2303.000000	98.047030
2302.000000	98.045412
2301.000000	98.042379
2300.000000	98.038446
2299.000000	98.035967
2298.000000	98.032941
2297.000000	98.026225
2296.000000	98.017375
2295.000000	98.013077
2294.000000	98.015885
2293.000000	98.021191
2292.000000	98.024255
2291.000000	98.024978
2290.000000	98.024857
2289.000000	98.023931
2288.000000	98.024180
2287.000000	98.029112
2286.000000	98.038285
2285.000000	98.045779
2284.000000	98.047714
2283.000000	98.046139
2282.000000	98.044748
2281.000000	98.045761
2280.000000	98.052647
2279.000000	98.068503
2278.000000	98.088563
2277.000000	98.101890
2276.000000	98.104294
2275.000000	98.103985
2274.000000	98.109759
2273.000000	98.120409
2272.000000	98.129148
2271.000000	98.132279
2270.000000	98.129636
2269.000000	98.123170
2268.000000	98.118878
2267.000000	98.123181
2266.000000	98.133396
2265.000000	98.139437
2264.000000	98.138519
2263.000000	98.139584
2262.000000	98.148294
2261.000000	98.156904
2260.000000	98.156553
2259.000000	98.150993
2258.000000	98.150169
2257.000000	98.155794
2256.000000	98.160928
2255.000000	98.159407
2254.000000	98.149355
2253.000000	98.133118
2252.000000	98.119870
2251.000000	98.123330
2250.000000	98.148696
2249.000000	98.184217
2248.000000	98.210301
2247.000000	98.214984
2246.000000	98.198664
2245.000000	98.170608
2244.000000	98.145618
2243.000000	98.137448
2242.000000	98.148252
2241.000000	98.166866
2240.000000	98.180691
2239.000000	98.186135
2238.000000	98.186041
2237.000000	98.184117
2236.000000	98.184997
2235.000000	98.192150
2234.000000	98.201256
2233.000000	98.202764
2232.000000	98.195588
2231.000000	98.190785
2230.000000	98.196436
2229.000000	98.206272
2228.000000	98.209279
2227.000000	98.203659
2226.000000	98.194973
2225.000000	98.186333
2224.000000	98.177073
2223.000000	98.166817
2222.000000	98.155936
2221.000000	98.145795
2220.000000	98.141833
2219.000000	98.151536
2218.000000	98.176391
2217.000000	98.210391
2216.000000	98.247457
2215.000000	98.283721
2214.000000	98.311355
2213.000000	98.320016
2212.000000	98.308764
2211.000000	98.288630
2210.000000	98.269243
2209.000000	98.250722
2208.000000	98.231429
2207.000000	98.214824
2206.000000	98.204318
2205.000000	98.197928
2204.000000	98.191642
2203.000000	98.182945
2202.000000	98.171438
2201.000000	98.162633
2200.000000	98.168428
2199.000000	98.193019
2198.000000	98.221206
2197.000000	98.233721
2196.000000	98.232901
2195.000000	98.236495
2194.000000	98.247068
2193.000000	98.248568
2192.000000	98.237761
2191.000000	98.235708
2190.000000	98.255645
2189.000000	98.280238
2188.000000	98.286606
2187.000000	98.279417
2186.000000	98.279635
2185.000000	98.290962
2184.000000	98.297925
2183.000000	98.294431
2182.000000	98.295693
2181.000000	98.316260
2180.000000	98.347356
2179.000000	98.364663
2178.000000	98.357907
2177.000000	98.348788
2176.000000	98.372296
2175.000000	98.435100
2174.000000	98.500603
2173.000000	98.526641
2172.000000	98.510427
2171.000000	98.480721
2170.000000	98.456253
2169.000000	98.433757
2168.000000	98.412356
2167.000000	98.403100
2166.000000	98.407088
2165.000000	98.406263
2164.000000	98.387839
2163.000000	98.363015
2162.000000	98.352339
2161.000000	98.371242
2160.000000	98.435522
2159.000000	98.553206
2158.000000	98.691588
2157.000000	98.782228
2156.000000	98.784446
2155.000000	98.718971
2154.000000	98.633723
2153.000000	98.562201
2152.000000	98.513184
2151.000000	98.479521
2150.000000	98.451594
2149.000000	98.428992
2148.000000	98.420492
2147.000000	98.428521
2146.000000	98.439088
2145.000000	98.435607
2144.000000	98.418632
2143.000000	98.401993
2142.000000	98.394743
2141.000000	98.396585
2140.000000	98.404323
2139.000000	98.411233
2138.000000	98.405490
2137.000000	98.381769
2136.000000	98.351467
2135.000000	98.331100
2134.000000	98.324922
2133.000000	98.328085
2132.000000	98.337837
2131.000000	98.349933
2130.000000	98.352538
2129.000000	98.338409
2128.000000	98.318407
2127.000000	98.309199
2126.000000	98.311122
2125.000000	98.310623
2124.000000	98.301420
2123.000000	98.289013
2122.000000	98.276628
2121.000000	98.261267
2120.000000	98.244356
2119.000000	98.232379
2118.000000	98.225183
2117.000000	98.215940
2116.000000	98.204657
2115.000000	98.199876
2114.000000	98.204308
2113.000000	98.210288
2112.000000	98.212516
2111.000000	98.214033
2110.000000	98.215591
2109.000000	98.211345
2108.000000	98.200851
2107.000000	98.194934
2106.000000	98.202573
2105.000000	98.219663
2104.000000	98.235636
2103.000000	98.243786
2102.000000	98.241900
2101.000000	98.231594
2100.000000	98.221757
2099.000000	98.224121
2098.000000	98.240698
2097.000000	98.261026
2096.000000	98.274431
2095.000000	98.277915
2094.000000	98.271471
2093.000000	98.256525
2092.000000	98.241470
2091.000000	98.237668
2090.000000	98.245209
2089.000000	98.250972
2088.000000	98.245677
2087.000000	98.236119
2086.000000	98.235264
2085.000000	98.246548
2084.000000	98.262091
2083.000000	98.272354
2082.000000	98.274832
2081.000000	98.276177
2080.000000	98.286267
2079.000000	98.306179
2078.000000	98.323679
2077.000000	98.326281
2076.000000	98.316654
2075.000000	98.308141
2074.000000	98.308540
2073.000000	98.316934
2072.000000	98.331541
2071.000000	98.350437
2070.000000	98.368791
2069.000000	98.386283
2068.000000	98.411849
2067.000000	98.447157
2066.000000	98.471732
2065.000000	98.462746
2064.000000	98.428138
2063.000000	98.398984
2062.000000	98.390589
2061.000000	98.393280
2060.000000	98.397561
2059.000000	98.405699
2058.000000	98.416794
2057.000000	98.422718
2056.000000	98.422839
2055.000000	98.422871
2054.000000	98.416188
2053.000000	98.389386
2052.000000	98.352151
2051.000000	98.339060
2050.000000	98.372157
2049.000000	98.434976
2048.000000	98.492350
2047.000000	98.524749
2046.000000	98.532344
2045.000000	98.524223
2044.000000	98.518011
2043.000000	98.530226
2042.000000	98.555184
2041.000000	98.571077
2040.000000	98.574702
2039.000000	98.587076
2038.000000	98.617551
2037.000000	98.649509
2036.000000	98.669928
2035.000000	98.687582
2034.000000	98.709021
2033.000000	98.723391
2032.000000	98.724318
2031.000000	98.720056
2030.000000	98.711430
2029.000000	98.689310
2028.000000	98.662420
2027.000000	98.656866
2026.000000	98.676024
2025.000000	98.688897
2024.000000	98.671103
2023.000000	98.635948
2022.000000	98.614605
2021.000000	98.624625
2020.000000	98.660877
2019.000000	98.698526
2018.000000	98.703477
2017.000000	98.660993
2016.000000	98.595509
2015.000000	98.537874
2014.000000	98.486862
2013.000000	98.432093
2012.000000	98.395102
2011.000000	98.410653
2010.000000	98.474920
2009.000000	98.546395
2008.000000	98.595540
2007.000000	98.622170
2006.000000	98.626814
2005.000000	98.609169
2004.000000	98.595229
2003.000000	98.621495
2002.000000	98.686332
2001.000000	98.746546
2000.000000	98.766709
1999.000000	98.745570
1998.000000	98.696045
1997.000000	98.632692
1996.000000	98.579527
1995.000000	98.556738
1994.000000	98.555205
1993.000000	98.548004
1992.000000	98.531216
1991.000000	98.528141
1990.000000	98.547766
1989.000000	98.574783
1988.000000	98.601467
1987.000000	98.630581
1986.000000	98.644214
1985.000000	98.610825
1984.000000	98.537102
1983.000000	98.477283
1982.000000	98.473352
1981.000000	98.512231
1980.000000	98.554937
1979.000000	98.579718
1978.000000	98.582901
1977.000000	98.565757
1976.000000	98.542335
1975.000000	98.535113
1974.000000	98.547382
1973.000000	98.562326
1972.000000	98.573187
1971.000000	98.591111
1970.000000	98.621823
1969.000000	98.658752
1968.000000	98.698449
1967.000000	98.737752
1966.000000	98.757359
1965.000000	98.739045
1964.000000	98.697695
1963.000000	98.668184
1962.000000	98.665092
1961.000000	98.676291
1960.000000	98.689180
1959.000000	98.698461
1958.000000	98.692847
1957.000000	98.664589
1956.000000	98.631407
1955.000000	98.621509
1954.000000	98.636949
1953.000000	98.654095
1952.000000	98.656325
1951.000000	98.645125
1950.000000	98.622284
1949.000000	98.589614
1948.000000	98.566478
1947.000000	98.578173
1946.000000	98.621870
1945.000000	98.666016
1944.000000	98.685814
1943.000000	98.680630
1942.000000	98.658969
1941.000000	98.630206
1940.000000	98.607333
1939.000000	98.596880
1938.000000	98.589873
1937.000000	98.575076
1936.000000	98.558492
1935.000000	98.553838
1934.000000	98.557208
1933.000000	98.552030
1932.000000	98.537299
1931.000000	98.530011
1930.000000	98.536773
1929.000000	98.547229
1928.000000	98.557895
1927.000000	98.575747
1926.000000	98.598144
1925.000000	98.607491
1924.000000	98.596515
1923.000000	98.579470
1922.000000	98.569420
1921.000000	98.562492
1920.000000	98.552273
1919.000000	98.541661
1918.000000	98.532202
1917.000000	98.518678
1916.000000	98.505526
1915.000000	98.503760
1914.000000	98.513340
1913.000000	98.523944
1912.000000	98.531097
1911.000000	98.541471
1910.000000	98.555453
1909.000000	98.559622
1908.000000	98.547533
1907.000000	98.531150
1906.000000	98.525936
1905.000000	98.533523
1904.000000	98.546756
1903.000000	98.559065
1902.000000	98.563986
1901.000000	98.559312
1900.000000	98.554054
1899.000000	98.558837
1898.000000	98.571534
1897.000000	98.579375
1896.000000	98.577056
1895.000000	98.572377
1894.000000	98.572308
1893.000000	98.576410
1892.000000	98.583627
1891.000000	98.592667
1890.000000	98.594369
1889.000000	98.580107
1888.000000	98.561756
1887.000000	98.556555
1886.000000	98.560502
1885.000000	98.558457
1884.000000	98.549192
1883.000000	98.545860
1882.000000	98.552962
1881.000000	98.561682
1880.000000	98.568065
1879.000000	98.577432
1878.000000	98.591362
1877.000000	98.602836
1876.000000	98.607125
1875.000000	98.608362
1874.000000	98.612023
1873.000000	98.620998
1872.000000	98.640590
1871.000000	98.675079
1870.000000	98.713757
1869.000000	98.728587
1868.000000	98.708210
1867.000000	98.676881
1866.000000	98.651772
1865.000000	98.629755
1864.000000	98.612986
1863.000000	98.610152
1862.000000	98.617320
1861.000000	98.619861
1860.000000	98.615454
1859.000000	98.615744
1858.000000	98.623582
1857.000000	98.628746
1856.000000	98.628725
1855.000000	98.632717
1854.000000	98.642622
1853.000000	98.648456
1852.000000	98.648285
1851.000000	98.649477
1850.000000	98.656264
1849.000000	98.666236
1848.000000	98.676737
1847.000000	98.683151
1846.000000	98.672275
1845.000000	98.635668
1844.000000	98.594510
1843.000000	98.586801
1842.000000	98.610654
1841.000000	98.630187
1840.000000	98.631701
1839.000000	98.631314
1838.000000	98.641847
1837.000000	98.652668
1836.000000	98.653530
1835.000000	98.653171
1834.000000	98.660438
1833.000000	98.670013
1832.000000	98.677329
1831.000000	98.688801
1830.000000	98.706736
1829.000000	98.717164
1828.000000	98.713618
1827.000000	98.700727
1826.000000	98.683414
1825.000000	98.666639
1824.000000	98.657070
1823.000000	98.659525
1822.000000	98.665646
1821.000000	98.663319
1820.000000	98.653963
1819.000000	98.650279
1818.000000	98.658049
1817.000000	98.667946
1816.000000	98.674307
1815.000000	98.684462
1814.000000	98.700480
1813.000000	98.712297
1812.000000	98.710908
1811.000000	98.703531
1810.000000	98.702018
1809.000000	98.703781
1808.000000	98.702087
1807.000000	98.698808
1806.000000	98.696425
1805.000000	98.691809
1804.000000	98.685445
1803.000000	98.685271
1802.000000	98.691918
1801.000000	98.694683
1800.000000	98.687667
1799.000000	98.684356
1798.000000	98.694844
1797.000000	98.710227
1796.000000	98.718238
1795.000000	98.715971
1794.000000	98.705211
1793.000000	98.689213
1792.000000	98.673546
1791.000000	98.670567
1790.000000	98.680717
1789.000000	98.685287
1788.000000	98.674434
1787.000000	98.657064
1786.000000	98.644191
1785.000000	98.637906
1784.000000	98.639857
1783.000000	98.652918
1782.000000	98.668142
1781.000000	98.674879
1780.000000	98.672331
1779.000000	98.672856
1778.000000	98.682948
1777.000000	98.697190
1776.000000	98.712622
1775.000000	98.726305
1774.000000	98.730339
1773.000000	98.719328
1772.000000	98.699620
1771.000000	98.691038
1770.000000	98.695829
1769.000000	98.687523
1768.000000	98.658946
1767.000000	98.637474
1766.000000	98.639655
1765.000000	98.645849
1764.000000	98.631864
1763.000000	98.599222
1762.000000	98.564215
1761.000000	98.538676
1760.000000	98.522012
1759.000000	98.505223
1758.000000	98.474027
1757.000000	98.423363
1756.000000	98.369632
1755.000000	98.331330
1754.000000	98.298649
1753.000000	98.247237
1752.000000	98.175120
1751.000000	98.107577
1750.000000	98.060506
1749.000000	98.009514
1748.000000	97.935045
1747.000000	97.853993
1746.000000	97.784003
1745.000000	97.720776
1744.000000	97.656498
1743.000000	97.599473
1742.000000	97.554953
1741.000000	97.511240
1740.000000	97.467630
1739.000000	97.453082
1738.000000	97.476182
1737.000000	97.498175
1736.000000	97.489253
1735.000000	97.477392
1734.000000	97.508714
1733.000000	97.568755
1732.000000	97.615244
1731.000000	97.623792
1730.000000	97.598891
1729.000000	97.556914
1728.000000	97.514838
1727.000000	97.479670
1726.000000	97.445832
1725.000000	97.403435
1724.000000	97.347137
1723.000000	97.288204
1722.000000	97.235659
1721.000000	97.176239
1720.000000	97.093547
1719.000000	96.993216
1718.000000	96.889860
1717.000000	96.769492
1716.000000	96.627545
1715.000000	96.486402
1714.000000	96.361158
1713.000000	96.256796
1712.000000	96.173400
1711.000000	96.110841
1710.000000	96.068661
1709.000000	96.041785
1708.000000	96.019568
1707.000000	95.994118
1706.000000	95.965149
1705.000000	95.930354
1704.000000	95.889733
1703.000000	95.827726
1702.000000	95.709801
1701.000000	95.528283
1700.000000	95.363196
1699.000000	95.313889
1698.000000	95.311317
1697.000000	95.213514
1696.000000	94.995752
1695.000000	94.790981
1694.000000	94.688945
1693.000000	94.617699
1692.000000	94.510056
1691.000000	94.371930
1690.000000	94.231880
1689.000000	94.102191
1688.000000	93.981650
1687.000000	93.857480
1686.000000	93.696711
1685.000000	93.442420
1684.000000	93.092690
1683.000000	92.812848
1682.000000	92.660089
1681.000000	92.508164
1680.000000	92.300511
1679.000000	92.069058
1678.000000	91.834506
1677.000000	91.559386
1676.000000	91.210211
1675.000000	90.847342
1674.000000	90.572677
1673.000000	90.369937
1672.000000	90.143252
1671.000000	89.842308
1670.000000	89.470979
1669.000000	89.075206
1668.000000	88.730228
1667.000000	88.466265
1666.000000	88.243329
1665.000000	87.997642
1664.000000	87.688210
1663.000000	87.336144
1662.000000	87.008973
1661.000000	86.741848
1660.000000	86.511030
1659.000000	86.296873
1658.000000	86.104978
1657.000000	85.933027
1656.000000	85.756771
1655.000000	85.548873
1654.000000	85.292351
1653.000000	84.995715
1652.000000	84.821026
1651.000000	84.808462
1650.000000	84.804247
1649.000000	84.741207
1648.000000	84.613670
1647.000000	84.445587
1646.000000	84.299929
1645.000000	84.216831
1644.000000	84.161860
1643.000000	84.103028
1642.000000	84.037117
1641.000000	83.966801
1640.000000	83.893016
1639.000000	83.816974
1638.000000	83.732554
1637.000000	83.615490
1636.000000	83.450271
1635.000000	83.296893
1634.000000	83.237834
1633.000000	83.232104
1632.000000	83.214637
1631.000000	83.180662
1630.000000	83.155706
1629.000000	83.159569
1628.000000	83.197007
1627.000000	83.266222
1626.000000	83.363891
1625.000000	83.492953
1624.000000	83.670181
1623.000000	83.908352
1622.000000	84.178978
1621.000000	84.437261
1620.000000	84.665410
1619.000000	84.884331
1618.000000	85.151387
1617.000000	85.515006
1616.000000	85.930536
1615.000000	86.304790
1614.000000	86.614596
1613.000000	86.893730
1612.000000	87.180300
1611.000000	87.488042
1610.000000	87.805686
1609.000000	88.123151
1608.000000	88.438527
1607.000000	88.741653
1606.000000	89.017767
1605.000000	89.272543
1604.000000	89.521406
1603.000000	89.763244
1602.000000	89.986433
1601.000000	90.191823
1600.000000	90.387388
1599.000000	90.568820
1598.000000	90.729125
1597.000000	90.877811
1596.000000	91.027810
1595.000000	91.170793
1594.000000	91.288847
1593.000000	91.385191
1592.000000	91.474766
1591.000000	91.554496
1590.000000	91.610227
1589.000000	91.646142
1588.000000	91.677786
1587.000000	91.702517
1586.000000	91.705667
1585.000000	91.688750
1584.000000	91.666087
1583.000000	91.632983
1582.000000	91.578357
1581.000000	91.515171
1580.000000	91.462402
1579.000000	91.405643
1578.000000	91.309430
1577.000000	91.157066
1576.000000	90.976366
1575.000000	90.819529
1574.000000	90.697530
1573.000000	90.580825
1572.000000	90.442258
1571.000000	90.256136
1570.000000	90.002852
1569.000000	89.724408
1568.000000	89.501041
1567.000000	89.319866
1566.000000	89.117338
1565.000000	88.880755
1564.000000	88.653999
1563.000000	88.462313
1562.000000	88.276538
1561.000000	88.050384
1560.000000	87.757489
1559.000000	87.356382
1558.000000	86.964713
1557.000000	86.783809
1556.000000	86.671705
1555.000000	86.511862
1554.000000	86.315997
1553.000000	86.142916
1552.000000	86.005241
1551.000000	85.870783
1550.000000	85.725425
1549.000000	85.591705
1548.000000	85.493296
1547.000000	85.417910
1546.000000	85.347033
1545.000000	85.283213
1544.000000	85.237192
1543.000000	85.209438
1542.000000	85.198858
1541.000000	85.197692
1540.000000	85.178264
1539.000000	85.165218
1538.000000	85.218921
1537.000000	85.299295
1536.000000	85.361458
1535.000000	85.416938
1534.000000	85.505501
1533.000000	85.638785
1532.000000	85.784500
1531.000000	85.922043
1530.000000	86.050815
1529.000000	86.180103
1528.000000	86.322567
1527.000000	86.485964
1526.000000	86.663716
1525.000000	86.834748
1524.000000	86.983438
1523.000000	87.126762
1522.000000	87.302995
1521.000000	87.504520
1520.000000	87.687586
1519.000000	87.847798
1518.000000	88.010215
1517.000000	88.196157
1516.000000	88.392936
1515.000000	88.584276
1514.000000	88.773498
1513.000000	88.972486
1512.000000	89.188939
1511.000000	89.418416
1510.000000	89.646240
1509.000000	89.871886
1508.000000	90.129677
1507.000000	90.435723
1506.000000	90.711201
1505.000000	90.948619
1504.000000	91.162085
1503.000000	91.347447
1502.000000	91.523305
1501.000000	91.701014
1500.000000	91.876932
1499.000000	92.053952
1498.000000	92.251313
1497.000000	92.467516
1496.000000	92.670816
1495.000000	92.850983
1494.000000	93.012844
1493.000000	93.150171
1492.000000	93.267350
1491.000000	93.392471
1490.000000	93.534376
1489.000000	93.646849
1488.000000	93.706927
1487.000000	93.755236
1486.000000	93.819163
1485.000000	93.882455
1484.000000	93.927381
1483.000000	93.953678
1482.000000	93.967562
1481.000000	93.960335
1480.000000	93.923864
1479.000000	93.866541
1478.000000	93.797096
1477.000000	93.713205
1476.000000	93.612803
1475.000000	93.502073
1474.000000	93.359936
1473.000000	93.130437
1472.000000	92.816450
1471.000000	92.529198
1470.000000	92.315422
1469.000000	92.128910
1468.000000	91.936369
1467.000000	91.741046
1466.000000	91.549139
1465.000000	91.359011
1464.000000	91.188268
1463.000000	91.063443
1462.000000	90.971188
1461.000000	90.873321
1460.000000	90.750963
1459.000000	90.601266
1458.000000	90.409653
1457.000000	90.167577
1456.000000	89.974188
1455.000000	89.900012
1454.000000	89.873323
1453.000000	89.840898
1452.000000	89.808711
1451.000000	89.798523
1450.000000	89.813812
1449.000000	89.845414
1448.000000	89.890854
1447.000000	89.952925
1446.000000	90.023500
1445.000000	90.093910
1444.000000	90.163781
1443.000000	90.241774
1442.000000	90.334952
1441.000000	90.437513
1440.000000	90.534630
1439.000000	90.618582
1438.000000	90.709818
1437.000000	90.845056
1436.000000	91.027008
1435.000000	91.213769
1434.000000	91.374183
1433.000000	91.502900
1432.000000	91.608813
1431.000000	91.700843
1430.000000	91.783090
1429.000000	91.855440
1428.000000	91.917183
1427.000000	91.968978
1426.000000	92.009179
1425.000000	92.041011
1424.000000	92.065658
1423.000000	92.080404
1422.000000	92.084506
1421.000000	92.077074
1420.000000	92.064637
1419.000000	92.058969
1418.000000	92.066003
1417.000000	92.077124
1416.000000	92.072802
1415.000000	92.048369
1414.000000	92.016109
1413.000000	91.984700
1412.000000	91.949428
1411.000000	91.904275
1410.000000	91.852496
1409.000000	91.797358
1408.000000	91.736663
1407.000000	91.672513
1406.000000	91.609887
1405.000000	91.554166
1404.000000	91.512769
1403.000000	91.494531
1402.000000	91.497691
1401.000000	91.510989
1400.000000	91.529046
1399.000000	91.551886
1398.000000	91.577068
1397.000000	91.596244
1396.000000	91.602404
1395.000000	91.599933
1394.000000	91.602012
1393.000000	91.617751
1392.000000	91.639440
1391.000000	91.656219
1390.000000	91.666200
1389.000000	91.671063
1388.000000	91.670121
1387.000000	91.663191
1386.000000	91.653352
1385.000000	91.642056
1384.000000	91.627039
1383.000000	91.610972
1382.000000	91.600959
1381.000000	91.597684
1380.000000	91.599030
1379.000000	91.609654
1378.000000	91.637057
1377.000000	91.681825
1376.000000	91.740951
1375.000000	91.813789
1374.000000	91.896017
1373.000000	91.979403
1372.000000	92.060293
1371.000000	92.140622
1370.000000	92.223593
1369.000000	92.313908
1368.000000	92.413269
1367.000000	92.518723
1366.000000	92.626082
1365.000000	92.734039
1364.000000	92.844574
1363.000000	92.953764
1362.000000	93.047548
1361.000000	93.117824
1360.000000	93.169242
1359.000000	93.207380
1358.000000	93.232973
1357.000000	93.244725
1356.000000	93.241264
1355.000000	93.221438
1354.000000	93.184974
1353.000000	93.133654
1352.000000	93.071371
1351.000000	93.002276
1350.000000	92.925725
1349.000000	92.840478
1348.000000	92.747841
1347.000000	92.650634
1346.000000	92.549844
1345.000000	92.446790
1344.000000	92.347073
1343.000000	92.257676
1342.000000	92.179471
1341.000000	92.106350
1340.000000	92.032351
1339.000000	91.959186
1338.000000	91.896152
1337.000000	91.851797
1336.000000	91.831313
1335.000000	91.838433
1334.000000	91.872061
1333.000000	91.925330
1332.000000	91.991801
1331.000000	92.070061
1330.000000	92.159531
1329.000000	92.255171
1328.000000	92.348924
1327.000000	92.434154
1326.000000	92.506975
1325.000000	92.567179
1324.000000	92.617324
1323.000000	92.659985
1322.000000	92.695657
1321.000000	92.723970
1320.000000	92.746500
1319.000000	92.767067
1318.000000	92.789105
1317.000000	92.814683
1316.000000	92.846144
1315.000000	92.885809
1314.000000	92.933107
1313.000000	92.984448
1312.000000	93.037484
1311.000000	93.092832
1310.000000	93.150238
1309.000000	93.206408
1308.000000	93.258317
1307.000000	93.305933
1306.000000	93.348994
1305.000000	93.385071
1304.000000	93.412859
1303.000000	93.435829
1302.000000	93.459570
1301.000000	93.486610
1300.000000	93.515246
1299.000000	93.541666
1298.000000	93.560256
1297.000000	93.564204
1296.000000	93.550340
1295.000000	93.522120
1294.000000	93.485122
1293.000000	93.439954
1292.000000	93.382982
1291.000000	93.313327
1290.000000	93.234686
1289.000000	93.151171
1288.000000	93.064994
1287.000000	92.978231
1286.000000	92.893756
1285.000000	92.814734
1284.000000	92.745559
1283.000000	92.691268
1282.000000	92.652895
1281.000000	92.625244
1280.000000	92.603615
1279.000000	92.589415
1278.000000	92.586503
1277.000000	92.595050
1276.000000	92.611826
1275.000000	92.633539
1274.000000	92.655570
1273.000000	92.670984
1272.000000	92.675842
1271.000000	92.673832
1270.000000	92.670902
1269.000000	92.666733
1268.000000	92.655914
1267.000000	92.635056
1266.000000	92.604677
1265.000000	92.565392
1264.000000	92.518104
1263.000000	92.467095
1262.000000	92.416602
1261.000000	92.364354
1260.000000	92.303459
1259.000000	92.230740
1258.000000	92.149009
1257.000000	92.061007
1256.000000	91.967197
1255.000000	91.868805
1254.000000	91.767618
1253.000000	91.662549
1252.000000	91.550358
1251.000000	91.430494
1250.000000	91.305531
1249.000000	91.177553
1248.000000	91.047641
1247.000000	90.917049
1246.000000	90.785587
1245.000000	90.650529
1244.000000	90.511535
1243.000000	90.374960
1242.000000	90.248893
1241.000000	90.135630
1240.000000	90.033225
1239.000000	89.942066
1238.000000	89.864969
1237.000000	89.804096
1236.000000	89.761281
1235.000000	89.739373
1234.000000	89.740777
1233.000000	89.765761
1232.000000	89.816048
1231.000000	89.895157
1230.000000	90.002572
1229.000000	90.132285
1228.000000	90.277968
1227.000000	90.438143
1226.000000	90.613894
1225.000000	90.804819
1224.000000	91.008901
1223.000000	91.221411
1222.000000	91.433088
1221.000000	91.632281
1220.000000	91.811273
1219.000000	91.968945
1218.000000	92.107219
1217.000000	92.225559
1216.000000	92.319594
1215.000000	92.385104
1214.000000	92.421138
1213.000000	92.431222
1212.000000	92.420508
1211.000000	92.391937
1210.000000	92.346499
1209.000000	92.286320
1208.000000	92.217719
1207.000000	92.148194
1206.000000	92.080991
1205.000000	92.016287
1204.000000	91.958797
1203.000000	91.920091
1202.000000	91.910916
1201.000000	91.934521
1200.000000	91.987658
1199.000000	92.065324
1198.000000	92.161522
1197.000000	92.269651
1196.000000	92.385305
1195.000000	92.505583
1194.000000	92.626522
1193.000000	92.743839
1192.000000	92.857095
1191.000000	92.969594
1190.000000	93.082685
1189.000000	93.192959
1188.000000	93.296063
1187.000000	93.390523
1186.000000	93.476255
1185.000000	93.552735
1184.000000	93.620022
1183.000000	93.679291
1182.000000	93.730381
1181.000000	93.770286
1180.000000	93.797617
1179.000000	93.816365
1178.000000	93.832325
1177.000000	93.847098
1176.000000	93.857645
1175.000000	93.861154
1174.000000	93.857471
1173.000000	93.848319
1172.000000	93.837184
1171.000000	93.828732
1170.000000	93.825157
1169.000000	93.822994
1168.000000	93.816370
1167.000000	93.803682
1166.000000	93.789147
1165.000000	93.778413
1164.000000	93.775101
1163.000000	93.781225
1162.000000	93.797580
1161.000000	93.823879
1160.000000	93.860130
1159.000000	93.907497
1158.000000	93.966237
1157.000000	94.032976
1156.000000	94.102744
1155.000000	94.172881
1154.000000	94.243311
1153.000000	94.313798
1152.000000	94.382916
1151.000000	94.449676
1150.000000	94.513923
1149.000000	94.575071
1148.000000	94.632507
1147.000000	94.687770
1146.000000	94.744202
1145.000000	94.803703
1144.000000	94.865476
1143.000000	94.928498
1142.000000	94.993497
1141.000000	95.061606
1140.000000	95.132468
1139.000000	95.204252
1138.000000	95.273722
1137.000000	95.335927
1136.000000	95.386325
1135.000000	95.425290
1134.000000	95.458830
1133.000000	95.491857
1132.000000	95.522474
1131.000000	95.545105
1130.000000	95.557823
1129.000000	95.563933
1128.000000	95.566820
1127.000000	95.567461
1126.000000	95.567457
1125.000000	95.571021
1124.000000	95.581705
1123.000000	95.597940
1122.000000	95.613493
1121.000000	95.622462
1120.000000	95.623259
1119.000000	95.618073
1118.000000	95.609332
1117.000000	95.597660
1116.000000	95.583374
1115.000000	95.568070
1114.000000	95.553236
1113.000000	95.538063
1112.000000	95.520971
1111.000000	95.502601
1110.000000	95.484190
1109.000000	95.463597
1108.000000	95.436452
1107.000000	95.402994
1106.000000	95.370057
1105.000000	95.343866
1104.000000	95.323467
1103.000000	95.303480
1102.000000	95.280861
1101.000000	95.256110
1100.000000	95.229356
1099.000000	95.199524
1098.000000	95.166264
1097.000000	95.130390
1096.000000	95.091755
1095.000000	95.048141
1094.000000	94.996978
1093.000000	94.936904
1092.000000	94.866828
1091.000000	94.784618
1090.000000	94.686697
1089.000000	94.570517
1088.000000	94.438194
1087.000000	94.297520
1086.000000	94.158474
1085.000000	94.028876
1084.000000	93.914803
1083.000000	93.823362
1082.000000	93.762848
1081.000000	93.738664
1080.000000	93.751329
1079.000000	93.796739
1078.000000	93.867369
1077.000000	93.955508
1076.000000	94.054511
1075.000000	94.158426
1074.000000	94.261403
1073.000000	94.359346
1072.000000	94.450146
1071.000000	94.529840
1070.000000	94.590344
1069.000000	94.624819
1068.000000	94.635652
1067.000000	94.633584
1066.000000	94.629115
1065.000000	94.626542
1064.000000	94.627070
1063.000000	94.633645
1062.000000	94.649600
1061.000000	94.675041
1060.000000	94.707402
1059.000000	94.744789
1058.000000	94.786813
1057.000000	94.833615
1056.000000	94.884929
1055.000000	94.939216
1054.000000	94.992867
1053.000000	95.041533
1052.000000	95.082804
1051.000000	95.116362
1050.000000	95.141677
1049.000000	95.158223
1048.000000	95.168827
1047.000000	95.178888
1046.000000	95.190283
1045.000000	95.198979
1044.000000	95.200724
1043.000000	95.196434
1042.000000	95.188061
1041.000000	95.171209
1040.000000	95.136720
1039.000000	95.079440
1038.000000	95.003130
1037.000000	94.915982
1036.000000	94.824944
1035.000000	94.735676
1034.000000	94.655651
1033.000000	94.595126
1032.000000	94.564526
1031.000000	94.569165
1030.000000	94.604977
1029.000000	94.662899
1028.000000	94.737380
1027.000000	94.828577
1026.000000	94.934768
1025.000000	95.046683
1024.000000	95.153423
1023.000000	95.250581
1022.000000	95.339291
1021.000000	95.418916
1020.000000	95.485968
1019.000000	95.539580
1018.000000	95.583425
1017.000000	95.620295
1016.000000	95.649279
1015.000000	95.671544
1014.000000	95.695083
1013.000000	95.729598
1012.000000	95.777603
1011.000000	95.833771
1010.000000	95.891582
1009.000000	95.947362
1008.000000	95.998695
1007.000000	96.044275
1006.000000	96.088499
1005.000000	96.142152
1004.000000	96.213835
1003.000000	96.299965
1002.000000	96.386426
1001.000000	96.461373
1000.000000	96.524864
999.000000	96.585990
998.000000	96.652878
997.000000	96.726973
996.000000	96.804681
995.000000	96.881450
994.000000	96.954218
993.000000	97.022253
992.000000	97.086949
991.000000	97.150030
990.000000	97.211116
989.000000	97.267233
988.000000	97.315351
987.000000	97.355491
986.000000	97.390407
985.000000	97.422242
984.000000	97.449867
983.000000	97.469599
982.000000	97.477997
981.000000	97.473112
980.000000	97.454944
979.000000	97.426318
978.000000	97.393103
977.000000	97.362221
976.000000	97.338489
975.000000	97.323271
974.000000	97.315374
973.000000	97.313434
972.000000	97.318134
971.000000	97.332807
970.000000	97.360496
969.000000	97.399702
968.000000	97.444458
967.000000	97.489336
966.000000	97.534102
965.000000	97.581511
964.000000	97.630925
963.000000	97.676653
962.000000	97.713526
961.000000	97.742829
960.000000	97.771274
959.000000	97.804968
958.000000	97.844989
957.000000	97.887268
956.000000	97.925257
955.000000	97.953769
954.000000	97.972297
953.000000	97.984645
952.000000	97.994740
951.000000	98.003338
950.000000	98.009467
949.000000	98.013547
948.000000	98.016702
947.000000	98.017671
946.000000	98.012619
945.000000	97.999042
944.000000	97.979085
943.000000	97.959112
942.000000	97.946521
941.000000	97.945698
940.000000	97.955066
939.000000	97.968053
938.000000	97.979474
937.000000	97.991974
936.000000	98.013978
935.000000	98.050770
934.000000	98.099285
933.000000	98.152193
932.000000	98.203670
931.000000	98.249351
930.000000	98.284731
929.000000	98.307969
928.000000	98.322793
927.000000	98.334770
926.000000	98.345360
925.000000	98.352288
924.000000	98.354892
923.000000	98.355577
922.000000	98.356399
921.000000	98.357959
920.000000	98.362027
919.000000	98.371783
918.000000	98.388587
917.000000	98.411418
916.000000	98.439836
915.000000	98.474112
914.000000	98.511285
913.000000	98.544529
912.000000	98.568609
911.000000	98.583914
910.000000	98.594315
909.000000	98.603471
908.000000	98.614125
907.000000	98.627575
906.000000	98.641600
905.000000	98.650761
904.000000	98.651054
903.000000	98.643237
902.000000	98.631596
901.000000	98.622038
900.000000	98.621384
899.000000	98.633852
898.000000	98.655843
897.000000	98.678135
896.000000	98.695098
895.000000	98.708388
894.000000	98.719757
893.000000	98.725776
892.000000	98.723850
891.000000	98.718785
890.000000	98.717640
889.000000	98.720276
888.000000	98.720337
887.000000	98.712548
886.000000	98.694121
885.000000	98.661630
884.000000	98.613706
883.000000	98.556240
882.000000	98.498243
881.000000	98.442111
880.000000	98.383338
879.000000	98.320573
878.000000	98.259952
877.000000	98.208701
876.000000	98.169288
875.000000	98.140837
874.000000	98.122044
873.000000	98.111630
872.000000	98.109747
871.000000	98.118315
870.000000	98.136315
869.000000	98.156114
868.000000	98.169282
867.000000	98.176076
866.000000	98.184630
865.000000	98.200342
864.000000	98.220110
863.000000	98.236863
862.000000	98.245768
861.000000	98.246049
860.000000	98.240364
859.000000	98.233098
858.000000	98.226348
857.000000	98.218061
856.000000	98.207949
855.000000	98.203420
854.000000	98.213740
853.000000	98.238284
852.000000	98.266420
851.000000	98.290883
850.000000	98.315863
849.000000	98.350038
848.000000	98.395969
847.000000	98.448781
846.000000	98.501097
845.000000	98.545832
844.000000	98.577425
843.000000	98.595246
842.000000	98.605710
841.000000	98.617767
840.000000	98.635707
839.000000	98.657048
838.000000	98.676967
837.000000	98.693309
836.000000	98.706767
835.000000	98.717584
834.000000	98.724016
833.000000	98.725054
832.000000	98.723186
831.000000	98.721701
830.000000	98.719441
829.000000	98.711932
828.000000	98.699633
827.000000	98.691043
826.000000	98.693763
825.000000	98.704968
824.000000	98.714773
823.000000	98.717240
822.000000	98.713928
821.000000	98.708372
820.000000	98.701464
819.000000	98.691527
818.000000	98.675666
817.000000	98.652241
816.000000	98.625294
815.000000	98.605390
814.000000	98.602441
813.000000	98.617212
812.000000	98.641437
811.000000	98.664997
810.000000	98.681828
809.000000	98.691507
808.000000	98.697737
807.000000	98.704438
806.000000	98.711988
805.000000	98.718286
804.000000	98.723020
803.000000	98.726993
802.000000	98.727186
801.000000	98.718061
800.000000	98.700292
799.000000	98.682800
798.000000	98.672316
797.000000	98.665629
796.000000	98.655913
795.000000	98.642111
794.000000	98.627556
793.000000	98.613367
792.000000	98.598345
791.000000	98.582980
790.000000	98.569869
789.000000	98.561872
788.000000	98.560596
787.000000	98.562469
786.000000	98.555788
785.000000	98.529588
784.000000	98.488761
783.000000	98.452995
782.000000	98.435894
781.000000	98.431372
780.000000	98.425418
779.000000	98.413823
778.000000	98.401749
777.000000	98.393022
776.000000	98.388649
775.000000	98.390676
774.000000	98.398494
773.000000	98.404235
772.000000	98.400079
771.000000	98.388372
770.000000	98.377701
769.000000	98.371084
768.000000	98.364376
767.000000	98.354677
766.000000	98.344226
765.000000	98.336848
764.000000	98.334876
763.000000	98.337725
762.000000	98.339742
761.000000	98.332721
760.000000	98.314606
759.000000	98.292124
758.000000	98.271233
757.000000	98.250160
756.000000	98.226742
755.000000	98.206822
754.000000	98.197827
753.000000	98.197120
752.000000	98.193304
751.000000	98.177554
750.000000	98.150161
749.000000	98.118990
748.000000	98.094763
747.000000	98.082692
746.000000	98.074443
745.000000	98.053968
744.000000	98.016625
743.000000	97.976790
742.000000	97.951448
741.000000	97.942219
740.000000	97.938238
739.000000	97.929125
738.000000	97.907816
737.000000	97.868460
736.000000	97.812076
735.000000	97.751477
734.000000	97.701902
733.000000	97.667811
732.000000	97.642665
731.000000	97.616621
730.000000	97.579507
729.000000	97.523458
728.000000	97.451422
727.000000	97.378313
726.000000	97.315763
725.000000	97.259405
724.000000	97.198118
723.000000	97.131085
722.000000	97.069349
721.000000	97.024717
720.000000	97.002208
719.000000	96.997748
718.000000	96.998367
717.000000	96.990334
716.000000	96.972029
715.000000	96.954307
714.000000	96.944396
713.000000	96.935803
712.000000	96.918397
711.000000	96.890817
710.000000	96.856760
709.000000	96.817625
708.000000	96.775329
707.000000	96.733940
706.000000	96.691469
705.000000	96.639749
704.000000	96.580309
703.000000	96.529985
702.000000	96.502112
701.000000	96.491354
700.000000	96.485045
699.000000	96.478228
698.000000	96.468378
697.000000	96.447307
696.000000	96.412166
695.000000	96.374381
694.000000	96.345248
693.000000	96.321237
692.000000	96.295096
691.000000	96.271919
690.000000	96.258790
689.000000	96.247175
688.000000	96.222404
687.000000	96.186507
686.000000	96.154085
685.000000	96.129444
684.000000	96.103008
683.000000	96.068638
682.000000	96.032432
681.000000	96.004742
680.000000	95.990931
679.000000	95.986017
678.000000	95.973533
677.000000	95.936703
676.000000	95.879714
675.000000	95.826020
674.000000	95.789760
673.000000	95.763049
672.000000	95.738168
671.000000	95.722835
670.000000	95.721131
669.000000	95.709830
668.000000	95.656266
667.000000	95.576027
666.000000	95.525461
665.000000	95.510350
664.000000	95.498422
663.000000	95.471090
662.000000	95.431537
661.000000	95.391050
660.000000	95.356939
659.000000	95.332279
658.000000	95.314387
657.000000	95.293772
656.000000	95.266118
655.000000	95.238300
654.000000	95.216149
653.000000	95.197298
652.000000	95.183646
651.000000	95.185292
650.000000	95.201190
649.000000	95.210517
648.000000	95.196600
647.000000	95.165013
646.000000	95.129003
645.000000	95.093040
644.000000	95.062557
643.000000	95.050849
642.000000	95.059777
641.000000	95.068422
640.000000	95.058220
639.000000	95.037501
638.000000	95.024935
637.000000	95.022318
636.000000	95.019797
635.000000	95.015976
634.000000	95.014945
633.000000	95.012187
632.000000	94.999530
631.000000	94.978018
630.000000	94.954826
629.000000	94.935182
628.000000	94.925029
627.000000	94.929284
626.000000	94.938249
625.000000	94.931758
624.000000	94.908009
623.000000	94.889203
622.000000	94.888855
621.000000	94.892821
620.000000	94.885881
619.000000	94.876150
618.000000	94.876817
617.000000	94.882206
616.000000	94.882138
615.000000	94.883341
614.000000	94.893581
613.000000	94.900496
612.000000	94.887200
611.000000	94.856555
610.000000	94.820833
609.000000	94.782648
608.000000	94.745537
607.000000	94.727761
606.000000	94.741095
605.000000	94.767867
604.000000	94.781876
603.000000	94.780520
602.000000	94.778661
601.000000	94.783868
600.000000	94.796355
599.000000	94.817094
598.000000	94.838681
597.000000	94.844075
596.000000	94.832551
595.000000	94.828970
594.000000	94.848774
593.000000	94.870707
592.000000	94.866903
591.000000	94.843394
590.000000	94.823155
589.000000	94.807260
588.000000	94.785048
587.000000	94.766218
586.000000	94.769285
585.000000	94.786610
584.000000	94.789784
583.000000	94.766129
582.000000	94.728223
581.000000	94.695302
580.000000	94.685506
579.000000	94.712493
578.000000	94.765393
577.000000	94.801862
576.000000	94.784546
575.000000	94.722017
574.000000	94.652361
573.000000	94.594593
572.000000	94.546473
571.000000	94.512205
570.000000	94.498406
569.000000	94.490573
568.000000	94.463194
567.000000	94.412021
566.000000	94.356090
565.000000	94.313780
564.000000	94.295048
563.000000	94.302243
562.000000	94.319606
561.000000	94.317729
560.000000	94.287333
559.000000	94.251249
558.000000	94.226787
557.000000	94.202069
556.000000	94.171901
555.000000	94.168565
554.000000	94.221235
553.000000	94.307269
552.000000	94.383242
551.000000	94.444174
550.000000	94.517747
549.000000	94.611683
548.000000	94.700092
547.000000	94.754579
546.000000	94.764493
545.000000	94.738136
544.000000	94.702984
543.000000	94.692247
542.000000	94.713120
541.000000	94.736553
540.000000	94.733381
539.000000	94.702709
538.000000	94.650901
537.000000	94.570332
536.000000	94.462130
535.000000	94.355219
534.000000	94.275273
533.000000	94.210701
532.000000	94.135834
531.000000	94.047882
530.000000	93.959351
529.000000	93.879699
528.000000	93.828621
527.000000	93.835788
526.000000	93.894135
525.000000	93.947011
524.000000	93.963265
523.000000	93.974959
522.000000	94.013845
521.000000	94.065822
520.000000	94.112602
519.000000	94.174992
518.000000	94.275189
517.000000	94.388284
516.000000	94.481408
515.000000	94.561283
514.000000	94.639783
513.000000	94.702538
512.000000	94.746311
511.000000	94.802587
510.000000	94.889365
509.000000	94.981720
508.000000	95.067159
507.000000	95.177004
506.000000	95.317778
505.000000	95.431727
504.000000	95.477294
503.000000	95.493246
502.000000	95.538172
501.000000	95.604894
500.000000	95.658589
499.000000	95.710390
498.000000	95.783016
497.000000	95.854751
496.000000	95.896213
495.000000	95.926050
494.000000	95.970974
493.000000	96.006366
492.000000	96.001815
491.000000	95.992376
490.000000	96.034696
489.000000	96.121747
488.000000	96.212725
487.000000	96.306391
486.000000	96.417576
485.000000	96.513726
484.000000	96.544026
483.000000	96.519353
482.000000	96.492873
481.000000	96.482141
480.000000	96.477100
479.000000	96.495409
478.000000	96.565207
477.000000	96.669134
476.000000	96.765246
475.000000	96.847134
474.000000	96.931482
473.000000	97.012152
472.000000	97.086474
471.000000	97.194106
470.000000	97.351475
469.000000	97.499821
468.000000	97.580855
467.000000	97.612392
466.000000	97.643420
465.000000	97.671699
464.000000	97.683558
463.000000	97.721508
462.000000	97.823384
461.000000	97.935048
460.000000	97.980391
459.000000	97.982061
458.000000	98.141396
457.000000	98.193382
456.000000	98.191324
455.000000	98.207442
454.000000	98.326121
453.000000	98.505903
452.000000	98.630683
451.000000	98.681759
450.000000	98.738703
