PE UV       SUBTECH     SPECTRUM    ASCII       PEDS        4.00        
   -1
3S-H10-F019.Sample.Raw.asc
22/03/29
15:11:04.00
22/03/29
15:11:04.00
Administrator

250.000000
1
Lambda 750
750N8071901
PerkinElmer UV WinLab 6.0.4.0738 / 1.61.00 Lambda 900

0
0
3350/servo 860.8/2
0
0
UV/VIS
1
1
1
CommonBeamDepol,150mm sphere / downward view
0
0
0
0
Program
Program
3350/servo 860.8/2
3350/0.2 860.8/0.2
3350/0.2 860.8/0.2
0
1
 
 
 
0
 
860.8
319.2
860.8
Front
100
on
 
 
0
0
0
 
0
 
 
 
0
 
 
0
0
0
0
0
 
 
 
 
0
0


0
0
#HDR
-1
-1
#GR
nm
%R
1.0
0.0
2500.000000
-10.000000
226
8
44.240969
3.269002
#DATA
2500.000000	5.628771
2490.000000	5.897687
2480.000000	4.255247
2470.000000	3.269002
2460.000000	6.926857
2450.000000	4.979210
2440.000000	7.094808
2430.000000	8.040231
2420.000000	9.098751
2410.000000	7.853498
2400.000000	8.970211
2390.000000	7.108906
2380.000000	7.275560
2370.000000	6.883503
2360.000000	7.485029
2350.000000	8.328454
2340.000000	6.962811
2330.000000	8.517948
2320.000000	7.119554
2310.000000	6.584705
2300.000000	7.096891
2290.000000	7.188964
2280.000000	7.370886
2270.000000	7.014188
2260.000000	8.280619
2250.000000	8.970260
2240.000000	9.627459
2230.000000	9.724634
2220.000000	10.581568
2210.000000	10.384868
2200.000000	9.755873
2190.000000	9.338060
2180.000000	10.155109
2170.000000	9.012008
2160.000000	9.819196
2150.000000	10.414327
2140.000000	10.861067
2130.000000	10.821633
2120.000000	12.085279
2110.000000	11.954419
2100.000000	12.149662
2090.000000	12.021583
2080.000000	12.245761
2070.000000	11.478224
2060.000000	10.948599
2050.000000	10.071373
2040.000000	9.783461
2030.000000	9.942652
2020.000000	10.486008
2010.000000	10.544954
2000.000000	10.034795
1990.000000	9.858234
1980.000000	9.188880
1970.000000	8.660749
1960.000000	8.064460
1950.000000	7.751838
1940.000000	7.662996
1930.000000	7.971398
1920.000000	8.921022
1910.000000	10.323261
1900.000000	13.322452
1890.000000	16.991745
1880.000000	20.339747
1870.000000	22.980635
1860.000000	24.342142
1850.000000	24.955996
1840.000000	24.670188
1830.000000	24.413386
1820.000000	23.928494
1810.000000	23.587679
1800.000000	23.178323
1790.000000	22.882674
1780.000000	22.381136
1770.000000	21.745852
1760.000000	21.081274
1750.000000	20.809257
1740.000000	20.272129
1730.000000	19.628535
1720.000000	19.855400
1710.000000	20.952231
1700.000000	22.112463
1690.000000	23.076781
1680.000000	24.622790
1670.000000	26.540225
1660.000000	27.825364
1650.000000	28.377953
1640.000000	28.224901
1630.000000	27.898049
1620.000000	27.399098
1610.000000	26.820220
1600.000000	26.184887
1590.000000	25.660517
1580.000000	25.105313
1570.000000	24.582103
1560.000000	24.184697
1550.000000	23.761546
1540.000000	23.119414
1530.000000	22.277729
1520.000000	21.758346
1510.000000	21.522013
1500.000000	21.317787
1490.000000	21.222351
1480.000000	21.452391
1470.000000	21.678244
1460.000000	22.007650
1450.000000	22.582360
1440.000000	23.371875
1430.000000	24.459414
1420.000000	25.935805
1410.000000	27.917330
1400.000000	30.387071
1390.000000	32.823791
1380.000000	34.646466
1370.000000	35.783338
1360.000000	36.631752
1350.000000	37.225905
1340.000000	37.673744
1330.000000	37.951484
1320.000000	38.243703
1310.000000	38.770560
1300.000000	39.262286
1290.000000	39.447688
1280.000000	39.422794
1270.000000	39.321731
1260.000000	39.209316
1250.000000	39.101652
1240.000000	38.761536
1230.000000	38.116274
1220.000000	37.384148
1210.000000	36.830139
1200.000000	36.620664
1190.000000	36.824647
1180.000000	37.400612
1170.000000	38.323784
1160.000000	39.403330
1150.000000	40.314556
1140.000000	41.019860
1130.000000	41.542684
1120.000000	41.859844
1110.000000	41.999027
1100.000000	42.059755
1090.000000	42.031444
1080.000000	41.974762
1070.000000	41.952907
1060.000000	41.993176
1050.000000	42.009904
1040.000000	42.004975
1030.000000	42.071487
1020.000000	42.221554
1010.000000	42.605865
1000.000000	42.981798
990.000000	43.080177
980.000000	43.128516
970.000000	43.312655
960.000000	43.453685
950.000000	43.597298
940.000000	43.577046
930.000000	43.491230
920.000000	43.527795
910.000000	43.615329
900.000000	43.826533
890.000000	44.180102
880.000000	44.230305
870.000000	44.194175
860.000000	44.240969
850.000000	43.252140
840.000000	42.006399
830.000000	42.259592
820.000000	42.379101
810.000000	42.292388
800.000000	42.341190
790.000000	42.218166
780.000000	42.051157
770.000000	42.121516
760.000000	42.064983
750.000000	42.041402
740.000000	41.956693
730.000000	41.784799
720.000000	41.623142
710.000000	41.491174
700.000000	41.361846
690.000000	41.104782
680.000000	40.878397
670.000000	40.631409
660.000000	40.373868
650.000000	40.144559
640.000000	39.780447
630.000000	39.449741
620.000000	39.120327
610.000000	38.725427
600.000000	38.367515
590.000000	38.036453
580.000000	37.650654
570.000000	37.217665
560.000000	36.784427
550.000000	36.343249
540.000000	35.737794
530.000000	35.060234
520.000000	34.236449
510.000000	33.385670
500.000000	32.438143
490.000000	31.342208
480.000000	30.212164
470.000000	29.025144
460.000000	27.523862
450.000000	25.690351
440.000000	23.620869
430.000000	21.390976
420.000000	19.101727
410.000000	17.297463
400.000000	16.186199
390.000000	15.146652
380.000000	13.996974
370.000000	13.001582
360.000000	12.144316
350.000000	11.273125
340.000000	10.328361
330.000000	9.586333
320.000000	9.157136
310.000000	8.436049
300.000000	7.795148
290.000000	7.242437
280.000000	6.993491
270.000000	6.884441
260.000000	6.925362
250.000000	7.028979
