PE UV       SUBTECH     SPECTRUM    ASCII       PEDS        4.00        
   -1
3S-H10-F009.Sample.Raw.asc
22/03/03
15:44:18.00
22/03/03
15:44:18.00
Administrator

250.000000
1
Lambda 750
750N8071901
PerkinElmer UV WinLab 6.0.4.0738 / 1.61.00 Lambda 900

0
0
3350/servo 860.8/2
0
0
UV/VIS
1
1
1
CommonBeamDepol,150mm sphere / downward view
0
0
0
0
Program
Program
3350/servo 860.8/2
3350/0.2 860.8/0.2
3350/0.2 860.8/0.2
0
1
 
 
 
0
 
860.8
319.2
860.8
Front
100
on
 
 
0
0
0
 
0
 
 
 
0
 
 
0
0
0
0
0
 
 
 
 
0
0


0
0
#HDR
-1
-1
#GR
nm
%R
1.0
0.0
2500.000000
-10.000000
226
8
58.520069
5.887879
#DATA
2500.000000	5.887879
2490.000000	6.911010
2480.000000	10.509878
2470.000000	12.959388
2460.000000	11.446388
2450.000000	8.564286
2440.000000	15.020614
2430.000000	17.600663
2420.000000	17.183922
2410.000000	8.871071
2400.000000	14.344638
2390.000000	14.128440
2380.000000	14.580569
2370.000000	11.731537
2360.000000	10.543171
2350.000000	11.958094
2340.000000	11.566033
2330.000000	14.204916
2320.000000	11.090268
2310.000000	18.970225
2300.000000	11.428847
2290.000000	13.257707
2280.000000	14.610755
2270.000000	14.747352
2260.000000	14.212481
2250.000000	14.016633
2240.000000	15.379318
2230.000000	15.630506
2220.000000	17.716221
2210.000000	16.869876
2200.000000	16.462271
2190.000000	15.987799
2180.000000	14.184356
2170.000000	16.214910
2160.000000	14.455404
2150.000000	15.408560
2140.000000	18.126935
2130.000000	18.746556
2120.000000	19.809429
2110.000000	18.525814
2100.000000	19.598872
2090.000000	18.894323
2080.000000	18.541785
2070.000000	17.739764
2060.000000	17.080923
2050.000000	17.724915
2040.000000	15.862806
2030.000000	16.869403
2020.000000	16.263158
2010.000000	16.677732
2000.000000	15.819948
1990.000000	15.762227
1980.000000	14.854158
1970.000000	13.654595
1960.000000	13.159362
1950.000000	13.180581
1940.000000	12.660664
1930.000000	13.342200
1920.000000	14.553822
1910.000000	16.753508
1900.000000	20.611203
1890.000000	25.463102
1880.000000	30.338908
1870.000000	33.942236
1860.000000	35.760928
1850.000000	36.333253
1840.000000	35.710407
1830.000000	35.919007
1820.000000	35.518162
1810.000000	35.145237
1800.000000	34.461295
1790.000000	33.721611
1780.000000	32.836684
1770.000000	32.262334
1760.000000	31.237179
1750.000000	30.824465
1740.000000	29.942494
1730.000000	29.131156
1720.000000	29.990020
1710.000000	31.729757
1700.000000	32.530288
1690.000000	33.949695
1680.000000	35.921367
1670.000000	38.090976
1660.000000	39.423161
1650.000000	40.440592
1640.000000	40.305531
1630.000000	39.830001
1620.000000	39.221861
1610.000000	38.189126
1600.000000	37.341966
1590.000000	36.539930
1580.000000	35.705283
1570.000000	35.139983
1560.000000	34.741674
1550.000000	34.313209
1540.000000	33.645167
1530.000000	32.661617
1520.000000	31.771199
1510.000000	31.105419
1500.000000	30.802437
1490.000000	30.698507
1480.000000	31.078139
1470.000000	31.500736
1460.000000	31.855274
1450.000000	32.538791
1440.000000	33.475069
1430.000000	34.536052
1420.000000	35.916053
1410.000000	38.189598
1400.000000	42.075301
1390.000000	46.247287
1380.000000	49.030125
1370.000000	50.117429
1360.000000	50.774346
1350.000000	51.406859
1340.000000	51.644966
1330.000000	52.485915
1320.000000	53.979439
1310.000000	55.231772
1300.000000	55.717385
1290.000000	56.040984
1280.000000	55.898359
1270.000000	55.676462
1260.000000	55.454593
1250.000000	54.850236
1240.000000	54.028128
1230.000000	53.748578
1220.000000	53.420277
1210.000000	52.870388
1200.000000	52.341918
1190.000000	52.369987
1180.000000	52.853211
1170.000000	53.708151
1160.000000	55.106537
1150.000000	56.336379
1140.000000	57.450983
1130.000000	57.937503
1120.000000	58.065971
1110.000000	57.982373
1100.000000	58.200020
1090.000000	58.176911
1080.000000	58.069007
1070.000000	58.084479
1060.000000	58.074577
1050.000000	57.794821
1040.000000	57.670479
1030.000000	57.591467
1020.000000	57.621859
1010.000000	58.012432
1000.000000	58.447511
990.000000	58.463877
980.000000	58.263303
970.000000	58.425667
960.000000	58.520069
950.000000	58.454063
940.000000	58.168387
930.000000	57.754050
920.000000	57.759287
910.000000	57.774257
900.000000	57.766904
890.000000	57.745094
880.000000	57.825966
870.000000	57.649706
860.000000	56.582836
850.000000	56.855496
840.000000	57.668587
830.000000	57.494423
820.000000	57.111098
810.000000	56.906002
800.000000	56.883844
790.000000	56.772786
780.000000	56.873935
770.000000	56.626258
760.000000	56.373402
750.000000	56.450717
740.000000	56.277597
730.000000	55.718255
720.000000	55.620521
710.000000	55.457596
700.000000	55.174233
690.000000	54.813695
680.000000	54.417821
670.000000	53.998221
660.000000	53.570079
650.000000	53.067307
640.000000	52.442946
630.000000	51.766999
620.000000	51.188295
610.000000	50.482185
600.000000	49.820988
590.000000	49.217514
580.000000	48.489202
570.000000	47.739727
560.000000	47.020004
550.000000	46.257600
540.000000	45.423893
530.000000	44.504907
520.000000	43.576599
510.000000	42.525600
500.000000	41.490672
490.000000	40.337977
480.000000	38.819834
470.000000	36.920460
460.000000	34.928607
450.000000	32.733650
440.000000	30.161450
430.000000	27.265472
420.000000	24.529519
410.000000	22.443081
400.000000	21.199549
390.000000	20.334582
380.000000	19.147552
370.000000	17.850647
360.000000	16.673027
350.000000	15.633798
340.000000	14.691528
330.000000	13.600313
320.000000	12.637324
310.000000	11.468879
300.000000	10.134728
290.000000	9.412677
280.000000	8.986192
270.000000	8.913234
260.000000	8.845557
250.000000	8.894272
