PE UV       SUBTECH     SPECTRUM    ASCII       PEDS        4.00        
   -1
3S-N10-C007.Sample.Raw.asc
22/03/03
16:19:18.00
22/03/03
16:19:18.00
Administrator

250.000000
1
Lambda 750
750N8071901
PerkinElmer UV WinLab 6.0.4.0738 / 1.61.00 Lambda 900

0
0
3350/servo 860.8/2
0
0
UV/VIS
1
1
1
CommonBeamDepol,150mm sphere / downward view
0
0
0
0
Program
Program
3350/servo 860.8/2
3350/0.2 860.8/0.2
3350/0.2 860.8/0.2
0
1
 
 
 
0
 
860.8
319.2
860.8
Front
100
on
 
 
0
0
0
 
0
 
 
 
0
 
 
0
0
0
0
0
 
 
 
 
0
0


0
0
#HDR
-1
-1
#GR
nm
%R
1.0
0.0
2500.000000
-10.000000
226
8
68.985334
17.908737
#DATA
2500.000000	29.204168
2490.000000	39.614585
2480.000000	31.874934
2470.000000	33.340483
2460.000000	35.450458
2450.000000	25.215869
2440.000000	37.316210
2430.000000	32.108793
2420.000000	34.764643
2410.000000	32.905703
2400.000000	37.171958
2390.000000	37.342385
2380.000000	34.940590
2370.000000	35.843688
2360.000000	40.050737
2350.000000	39.021833
2340.000000	35.035406
2330.000000	35.618118
2320.000000	35.247964
2310.000000	35.459471
2300.000000	36.190236
2290.000000	35.098523
2280.000000	35.916032
2270.000000	33.881539
2260.000000	35.596805
2250.000000	36.509338
2240.000000	37.446918
2230.000000	37.623473
2220.000000	39.502179
2210.000000	38.609541
2200.000000	38.874744
2190.000000	37.518240
2180.000000	36.929963
2170.000000	38.135961
2160.000000	39.212062
2150.000000	39.641201
2140.000000	40.312935
2130.000000	41.648651
2120.000000	42.461068
2110.000000	41.642792
2100.000000	42.322947
2090.000000	41.821983
2080.000000	40.767920
2070.000000	40.659625
2060.000000	40.404257
2050.000000	39.985587
2040.000000	38.405070
2030.000000	39.154926
2020.000000	39.575612
2010.000000	39.148036
2000.000000	38.908326
1990.000000	38.380382
1980.000000	37.327601
1970.000000	35.720350
1960.000000	34.259667
1950.000000	33.664224
1940.000000	33.315635
1930.000000	34.361077
1920.000000	36.119322
1910.000000	39.027811
1900.000000	43.239392
1890.000000	47.994262
1880.000000	51.591843
1870.000000	54.511434
1860.000000	56.047488
1850.000000	55.908459
1840.000000	56.054188
1830.000000	55.707531
1820.000000	55.792590
1810.000000	55.688662
1800.000000	55.050868
1790.000000	54.686425
1780.000000	54.135245
1770.000000	53.695972
1760.000000	53.071594
1750.000000	53.052949
1740.000000	52.520717
1730.000000	52.037187
1720.000000	52.591627
1710.000000	53.791979
1700.000000	54.208129
1690.000000	54.930897
1680.000000	55.768712
1670.000000	57.102626
1660.000000	58.001170
1650.000000	58.541480
1640.000000	58.496568
1630.000000	57.996816
1620.000000	57.696270
1610.000000	57.015624
1600.000000	56.425513
1590.000000	55.974376
1580.000000	55.223413
1570.000000	55.036454
1560.000000	54.685185
1550.000000	54.509623
1540.000000	54.124612
1530.000000	53.444158
1520.000000	52.796784
1510.000000	52.266591
1500.000000	51.906180
1490.000000	51.942478
1480.000000	52.334428
1470.000000	52.810144
1460.000000	53.292605
1450.000000	53.876947
1440.000000	54.435965
1430.000000	54.859121
1420.000000	55.512790
1410.000000	56.965109
1400.000000	59.684444
1390.000000	62.552253
1380.000000	64.173117
1370.000000	64.527096
1360.000000	64.772694
1350.000000	64.846770
1340.000000	65.028425
1330.000000	65.742156
1320.000000	66.973253
1310.000000	67.639502
1300.000000	67.626252
1290.000000	67.526321
1280.000000	67.393244
1270.000000	67.276560
1260.000000	67.254656
1250.000000	66.924596
1240.000000	66.565172
1230.000000	66.522851
1220.000000	66.604740
1210.000000	66.469186
1200.000000	66.050885
1190.000000	65.742586
1180.000000	65.792379
1170.000000	66.327143
1160.000000	67.057291
1150.000000	67.608046
1140.000000	67.987396
1130.000000	68.424159
1120.000000	68.635124
1110.000000	68.463836
1100.000000	68.556297
1090.000000	68.479095
1080.000000	68.438138
1070.000000	68.534936
1060.000000	68.553956
1050.000000	68.522099
1040.000000	68.287796
1030.000000	68.203187
1020.000000	68.389722
1010.000000	68.644050
1000.000000	68.910513
990.000000	68.985334
980.000000	68.807187
970.000000	68.814777
960.000000	68.759520
950.000000	68.955022
940.000000	68.729905
930.000000	68.152215
920.000000	68.138118
910.000000	68.496593
900.000000	68.456921
890.000000	68.346507
880.000000	68.694839
870.000000	68.213772
860.000000	67.001394
850.000000	67.495282
840.000000	67.950949
830.000000	67.630031
820.000000	67.542882
810.000000	67.372702
800.000000	67.596491
790.000000	67.496557
780.000000	67.573426
770.000000	67.674895
760.000000	67.680200
750.000000	67.563985
740.000000	67.483325
730.000000	67.384944
720.000000	67.444899
710.000000	67.353662
700.000000	67.379647
690.000000	67.377497
680.000000	67.106251
670.000000	66.834046
660.000000	66.913352
650.000000	66.787588
640.000000	66.680600
630.000000	66.547068
620.000000	66.327603
610.000000	66.127318
600.000000	66.003909
590.000000	65.840821
580.000000	65.543647
570.000000	65.292547
560.000000	64.985047
550.000000	64.587924
540.000000	64.282294
530.000000	63.882130
520.000000	63.488637
510.000000	63.057891
500.000000	62.698483
490.000000	62.527745
480.000000	61.989195
470.000000	60.927802
460.000000	60.065182
450.000000	59.205570
440.000000	57.857474
430.000000	56.351368
420.000000	54.628484
410.000000	52.643755
400.000000	50.920145
390.000000	49.614718
380.000000	48.344896
370.000000	47.066231
360.000000	45.300760
350.000000	43.237887
340.000000	40.906699
330.000000	38.610686
320.000000	36.850580
310.000000	34.505417
300.000000	30.687420
290.000000	25.284653
280.000000	21.023526
270.000000	20.083935
260.000000	19.656420
250.000000	17.908737
