PE UV       SUBTECH     SPECTRUM    ASCII       PEDS        4.00        
   -1
3S-N10-F021.Sample.Raw.asc
22/03/30
16:45:46.00
22/03/30
16:45:46.00
Administrator

250.000000
1
Lambda 750
750N8071901
PerkinElmer UV WinLab 6.0.4.0738 / 1.61.00 Lambda 900

0
0
3350/servo 860.8/2
0
0
UV/VIS
1
1
1
CommonBeamDepol,150mm sphere / downward view
0
0
0
0
Program
Program
3350/servo 860.8/2
3350/0.2 860.8/0.2
3350/0.2 860.8/0.2
0
1
 
 
 
0
 
860.8
319.2
860.8
Front
100
on
 
 
0
0
0
 
0
 
 
 
0
 
 
0
0
0
0
0
 
 
 
 
0
0


0
0
#HDR
-1
-1
#GR
nm
%R
1.0
0.0
2500.000000
-10.000000
226
8
64.306425
10.273844
#DATA
2500.000000	11.433503
2490.000000	12.551357
2480.000000	10.744772
2470.000000	12.572424
2460.000000	13.208088
2450.000000	13.536431
2440.000000	14.885754
2430.000000	13.171880
2420.000000	15.514248
2410.000000	13.703815
2400.000000	14.800893
2390.000000	14.886784
2380.000000	13.766142
2370.000000	16.198534
2360.000000	15.514386
2350.000000	16.250027
2340.000000	14.953720
2330.000000	15.230653
2320.000000	13.995624
2310.000000	14.536712
2300.000000	15.821565
2290.000000	14.326030
2280.000000	14.940897
2270.000000	12.917179
2260.000000	13.761095
2250.000000	16.169964
2240.000000	16.608315
2230.000000	18.574527
2220.000000	18.746991
2210.000000	18.728835
2200.000000	17.744862
2190.000000	16.800274
2180.000000	16.467044
2170.000000	16.311023
2160.000000	17.068996
2150.000000	18.367779
2140.000000	19.085502
2130.000000	20.329656
2120.000000	20.916606
2110.000000	20.931649
2100.000000	21.261234
2090.000000	21.135032
2080.000000	20.834555
2070.000000	19.641814
2060.000000	18.859973
2050.000000	17.846319
2040.000000	17.063665
2030.000000	17.806604
2020.000000	18.168527
2010.000000	18.373555
2000.000000	17.766928
1990.000000	17.186266
1980.000000	16.085535
1970.000000	15.252353
1960.000000	14.351106
1950.000000	13.784365
1940.000000	13.534126
1930.000000	14.413487
1920.000000	15.945929
1910.000000	18.363689
1900.000000	22.992774
1890.000000	28.620552
1880.000000	33.746036
1870.000000	37.869007
1860.000000	39.875056
1850.000000	40.444721
1840.000000	40.587037
1830.000000	40.264696
1820.000000	39.746081
1810.000000	39.258379
1800.000000	38.694999
1790.000000	38.211557
1780.000000	37.715996
1770.000000	37.028490
1760.000000	36.284851
1750.000000	35.731541
1740.000000	35.022539
1730.000000	34.648955
1720.000000	35.296470
1710.000000	36.592050
1700.000000	37.307002
1690.000000	38.060408
1680.000000	39.890088
1670.000000	42.287635
1660.000000	43.893602
1650.000000	44.533782
1640.000000	44.302321
1630.000000	43.759288
1620.000000	43.066401
1610.000000	42.099217
1600.000000	41.103836
1590.000000	40.224905
1580.000000	39.482660
1570.000000	38.763191
1560.000000	38.236844
1550.000000	37.784107
1540.000000	36.869723
1530.000000	35.707305
1520.000000	34.912058
1510.000000	34.406519
1500.000000	34.086729
1490.000000	34.085144
1480.000000	34.449908
1470.000000	34.886871
1460.000000	35.452012
1450.000000	36.314078
1440.000000	37.536536
1430.000000	39.261116
1420.000000	41.691865
1410.000000	44.814136
1400.000000	48.090075
1390.000000	51.092477
1380.000000	53.197306
1370.000000	54.369636
1360.000000	55.364387
1350.000000	56.325600
1340.000000	57.121411
1330.000000	57.723258
1320.000000	58.487021
1310.000000	59.436122
1300.000000	60.034034
1290.000000	60.220344
1280.000000	60.171221
1270.000000	60.059043
1260.000000	59.909700
1250.000000	59.728298
1240.000000	59.487959
1230.000000	59.134384
1220.000000	58.734520
1210.000000	58.146279
1200.000000	57.617588
1190.000000	57.480644
1180.000000	57.866590
1170.000000	58.789938
1160.000000	60.042053
1150.000000	61.132442
1140.000000	61.886195
1130.000000	62.468395
1120.000000	62.843147
1110.000000	62.959244
1100.000000	62.987416
1090.000000	63.005196
1080.000000	62.962023
1070.000000	62.874894
1060.000000	62.759718
1050.000000	62.605954
1040.000000	62.510540
1030.000000	62.466545
1020.000000	62.488123
1010.000000	62.637778
1000.000000	62.848868
990.000000	62.987886
980.000000	63.056116
970.000000	63.161793
960.000000	63.369071
950.000000	63.479699
940.000000	63.469549
930.000000	63.539224
920.000000	63.536393
910.000000	63.569817
900.000000	63.643587
890.000000	63.798380
880.000000	64.040074
870.000000	64.242431
860.000000	64.306425
850.000000	64.226971
840.000000	63.798464
830.000000	63.579440
820.000000	63.446007
810.000000	63.368347
800.000000	63.428798
790.000000	63.345289
780.000000	63.352812
770.000000	63.272158
760.000000	63.168377
750.000000	63.074215
740.000000	62.958301
730.000000	62.853433
720.000000	62.804567
710.000000	62.720073
700.000000	62.368779
690.000000	62.148405
680.000000	61.919043
670.000000	61.625466
660.000000	61.271180
650.000000	60.913223
640.000000	60.487562
630.000000	60.011535
620.000000	59.492548
610.000000	58.980832
600.000000	58.557960
590.000000	58.135382
580.000000	57.537359
570.000000	57.010467
560.000000	56.506800
550.000000	55.969014
540.000000	55.320181
530.000000	54.659252
520.000000	54.000997
510.000000	53.153878
500.000000	52.177662
490.000000	50.922215
480.000000	49.351770
470.000000	47.561551
460.000000	45.421697
450.000000	42.903490
440.000000	39.997080
430.000000	36.672353
420.000000	33.194549
410.000000	30.548757
400.000000	29.154137
390.000000	28.078214
380.000000	26.731549
370.000000	24.988760
360.000000	23.096080
350.000000	21.372377
340.000000	19.722756
330.000000	18.150684
320.000000	16.928028
310.000000	15.440586
300.000000	13.417489
290.000000	11.296867
280.000000	10.424320
270.000000	10.273844
260.000000	10.341413
250.000000	10.299810
