PE UV       SUBTECH     SPECTRUM    ASCII       PEDS        4.00        
   -1
3C-H10-F029.Sample.Raw.asc
22/03/21
16:15:54.00
22/03/21
16:15:54.00
Administrator

250.000000
1
Lambda 750
750N8071901
PerkinElmer UV WinLab 6.0.4.0738 / 1.61.00 Lambda 900

0
0
3350/servo 860.8/2
0
0
UV/VIS
1
1
1
CommonBeamDepol,150mm sphere / downward view
0
0
0
0
Program
Program
3350/servo 860.8/2
3350/0.2 860.8/0.2
3350/0.2 860.8/0.2
0
1
 
 
 
0
 
860.8
319.2
860.8
Front
100
on
 
 
0
0
0
 
0
 
 
 
0
 
 
0
0
0
0
0
 
 
 
 
0
0


0
0
#HDR
-1
-1
#GR
nm
%R
1.0
0.0
2500.000000
-10.000000
226
8
42.990851
9.316692
#DATA
2500.000000	13.466655
2490.000000	14.691765
2480.000000	9.316692
2470.000000	15.081713
2460.000000	11.800371
2450.000000	11.931550
2440.000000	13.067202
2430.000000	13.948645
2420.000000	13.965810
2410.000000	14.989722
2400.000000	14.188074
2390.000000	13.724596
2380.000000	15.892950
2370.000000	15.829199
2360.000000	15.194180
2350.000000	14.796435
2340.000000	15.858459
2330.000000	14.223077
2320.000000	15.275367
2310.000000	14.644624
2300.000000	13.897927
2290.000000	14.522651
2280.000000	13.680899
2270.000000	14.440880
2260.000000	14.211714
2250.000000	15.361514
2240.000000	16.345052
2230.000000	16.746316
2220.000000	16.774122
2210.000000	16.249046
2200.000000	15.940646
2190.000000	16.490410
2180.000000	15.831890
2170.000000	15.974896
2160.000000	16.395434
2150.000000	15.882930
2140.000000	16.531753
2130.000000	17.587626
2120.000000	18.468410
2110.000000	18.225365
2100.000000	18.397951
2090.000000	18.069226
2080.000000	17.796011
2070.000000	17.157529
2060.000000	16.933331
2050.000000	16.582734
2040.000000	16.254009
2030.000000	16.062442
2020.000000	16.485698
2010.000000	16.745800
2000.000000	16.593238
1990.000000	15.977544
1980.000000	15.656213
1970.000000	15.424120
1960.000000	14.811824
1950.000000	14.614105
1940.000000	14.279121
1930.000000	14.808231
1920.000000	15.664946
1910.000000	16.948225
1900.000000	19.155824
1890.000000	21.882480
1880.000000	24.649272
1870.000000	26.828256
1860.000000	28.268148
1850.000000	28.779445
1840.000000	28.627945
1830.000000	28.384202
1820.000000	28.093090
1810.000000	27.856022
1800.000000	27.578029
1790.000000	27.336622
1780.000000	27.039399
1770.000000	26.762443
1760.000000	26.337554
1750.000000	25.979921
1740.000000	25.671432
1730.000000	25.559212
1720.000000	25.912251
1710.000000	26.439928
1700.000000	26.900403
1690.000000	27.310434
1680.000000	28.352800
1670.000000	29.670266
1660.000000	30.709081
1650.000000	31.169117
1640.000000	30.957912
1630.000000	30.738300
1620.000000	30.240049
1610.000000	29.702617
1600.000000	29.171955
1590.000000	28.667434
1580.000000	28.298384
1570.000000	27.967143
1560.000000	27.671808
1550.000000	27.391201
1540.000000	26.887595
1530.000000	26.261861
1520.000000	25.797436
1510.000000	25.540906
1500.000000	25.431150
1490.000000	25.425550
1480.000000	25.683047
1470.000000	25.984829
1460.000000	26.338543
1450.000000	26.860707
1440.000000	27.465794
1430.000000	28.267109
1420.000000	29.327449
1410.000000	31.060818
1400.000000	33.317675
1390.000000	35.463589
1380.000000	36.893778
1370.000000	37.657789
1360.000000	38.203293
1350.000000	38.628138
1340.000000	38.996833
1330.000000	39.465114
1320.000000	40.034276
1310.000000	40.530175
1300.000000	40.852214
1290.000000	40.895358
1280.000000	40.779336
1270.000000	40.647144
1260.000000	40.619336
1250.000000	40.638050
1240.000000	40.491630
1230.000000	40.233284
1220.000000	39.911024
1210.000000	39.515728
1200.000000	39.175055
1190.000000	38.958941
1180.000000	39.180232
1170.000000	39.874824
1160.000000	40.673554
1150.000000	41.378095
1140.000000	41.917137
1130.000000	42.317229
1120.000000	42.484907
1110.000000	42.492183
1100.000000	42.428040
1090.000000	42.347439
1080.000000	42.349651
1070.000000	42.292501
1060.000000	42.206932
1050.000000	42.149262
1040.000000	42.124552
1030.000000	42.093681
1020.000000	42.151568
1010.000000	42.318652
1000.000000	42.586095
990.000000	42.658352
980.000000	42.653904
970.000000	42.703275
960.000000	42.789663
950.000000	42.862010
940.000000	42.822562
930.000000	42.770724
920.000000	42.715011
910.000000	42.778108
900.000000	42.833598
890.000000	42.966693
880.000000	42.990851
870.000000	42.803856
860.000000	42.610836
850.000000	42.562911
840.000000	41.789445
830.000000	41.602682
820.000000	41.652304
810.000000	41.559184
800.000000	41.485993
790.000000	41.448824
780.000000	41.425844
770.000000	41.431383
760.000000	41.470382
750.000000	41.382612
740.000000	41.353492
730.000000	41.320884
720.000000	41.253326
710.000000	41.155767
700.000000	41.151483
690.000000	41.065532
680.000000	40.982897
670.000000	40.979410
660.000000	40.863686
650.000000	40.746563
640.000000	40.690999
630.000000	40.603054
620.000000	40.576526
610.000000	40.444041
600.000000	40.282134
590.000000	40.154615
580.000000	39.997521
570.000000	39.816401
560.000000	39.699601
550.000000	39.525164
540.000000	39.205999
530.000000	38.860113
520.000000	38.444669
510.000000	37.891274
500.000000	37.358896
490.000000	36.930223
480.000000	36.363987
470.000000	35.676833
460.000000	34.927408
450.000000	34.053701
440.000000	33.032166
430.000000	31.769813
420.000000	30.180774
410.000000	28.416917
400.000000	27.004030
390.000000	26.074874
380.000000	25.314843
370.000000	24.575530
360.000000	24.018697
350.000000	23.418298
340.000000	22.614160
330.000000	21.947550
320.000000	21.141742
310.000000	20.303128
300.000000	19.306911
290.000000	16.947300
280.000000	15.393901
270.000000	15.140254
260.000000	15.045040
250.000000	14.023263
