PE UV       SUBTECH     SPECTRUM    ASCII       PEDS        4.00        
   -1
3C-N10-F030.Sample.Raw.asc
22/03/25
16:16:37.00
22/03/25
16:16:37.00
Administrator

250.000000
1
Lambda 750
750N8071901
PerkinElmer UV WinLab 6.0.4.0738 / 1.61.00 Lambda 900

0
0
3350/servo 860.8/2
0
0
UV/VIS
1
1
1
CommonBeamDepol,150mm sphere / downward view
0
0
0
0
Program
Program
3350/servo 860.8/2
3350/0.2 860.8/0.2
3350/0.2 860.8/0.2
0
1
 
 
 
0
 
860.8
319.2
860.8
Front
100
on
 
 
0
0
0
 
0
 
 
 
0
 
 
0
0
0
0
0
 
 
 
 
0
0


0
0
#HDR
-1
-1
#GR
nm
%R
1.0
0.0
2500.000000
-10.000000
226
8
40.473810
9.393486
#DATA
2500.000000	9.393486
2490.000000	13.957580
2480.000000	10.051123
2470.000000	11.053316
2460.000000	10.809515
2450.000000	12.470149
2440.000000	11.754651
2430.000000	12.261429
2420.000000	13.517059
2410.000000	13.224748
2400.000000	13.418766
2390.000000	13.907448
2380.000000	13.778106
2370.000000	13.727825
2360.000000	13.051917
2350.000000	13.016013
2340.000000	12.905787
2330.000000	13.051059
2320.000000	12.620122
2310.000000	13.008487
2300.000000	11.921069
2290.000000	12.503501
2280.000000	12.601610
2270.000000	12.677807
2260.000000	13.011184
2250.000000	13.181481
2240.000000	13.490457
2230.000000	14.269295
2220.000000	14.596968
2210.000000	14.676379
2200.000000	13.991136
2190.000000	14.627058
2180.000000	13.723549
2170.000000	14.519325
2160.000000	14.453502
2150.000000	14.531503
2140.000000	14.824926
2130.000000	15.584735
2120.000000	15.944742
2110.000000	16.419761
2100.000000	16.251296
2090.000000	16.278863
2080.000000	16.522754
2070.000000	15.681146
2060.000000	15.219260
2050.000000	14.634711
2040.000000	14.483590
2030.000000	14.443045
2020.000000	14.842796
2010.000000	14.847733
2000.000000	14.673684
1990.000000	14.096612
1980.000000	14.025807
1970.000000	13.407510
1960.000000	13.015925
1950.000000	12.670760
1940.000000	12.559582
1930.000000	12.890711
1920.000000	13.576322
1910.000000	15.094414
1900.000000	17.246258
1890.000000	19.643873
1880.000000	22.203404
1870.000000	24.261165
1860.000000	25.361414
1850.000000	25.650290
1840.000000	25.815695
1830.000000	25.635159
1820.000000	25.433360
1810.000000	25.114670
1800.000000	24.945102
1790.000000	24.718899
1780.000000	24.450614
1770.000000	24.109764
1760.000000	23.786564
1750.000000	23.485352
1740.000000	23.166806
1730.000000	23.078594
1720.000000	23.406428
1710.000000	24.044219
1700.000000	24.405324
1690.000000	24.755403
1680.000000	25.564998
1670.000000	26.736117
1660.000000	27.612673
1650.000000	27.919266
1640.000000	27.848914
1630.000000	27.599598
1620.000000	27.184041
1610.000000	26.710317
1600.000000	26.214408
1590.000000	25.807406
1580.000000	25.432553
1570.000000	25.097061
1560.000000	24.815491
1550.000000	24.571018
1540.000000	24.229520
1530.000000	23.625999
1520.000000	23.160560
1510.000000	22.967900
1500.000000	22.884584
1490.000000	22.855236
1480.000000	23.020080
1470.000000	23.285930
1460.000000	23.607779
1450.000000	24.007281
1440.000000	24.613682
1430.000000	25.331936
1420.000000	26.258714
1410.000000	27.746057
1400.000000	29.729829
1390.000000	31.729595
1380.000000	33.056930
1370.000000	33.670082
1360.000000	34.110679
1350.000000	34.469763
1340.000000	34.739014
1330.000000	35.044077
1320.000000	35.549270
1310.000000	36.057505
1300.000000	36.344589
1290.000000	36.482125
1280.000000	36.471281
1270.000000	36.374128
1260.000000	36.351281
1250.000000	36.342086
1240.000000	36.227060
1230.000000	36.089093
1220.000000	35.829151
1210.000000	35.481605
1200.000000	35.168096
1190.000000	35.066704
1180.000000	35.339681
1170.000000	35.933760
1160.000000	36.650848
1150.000000	37.250181
1140.000000	37.713637
1130.000000	38.041940
1120.000000	38.219729
1110.000000	38.383818
1100.000000	38.425997
1090.000000	38.464842
1080.000000	38.487066
1070.000000	38.439454
1060.000000	38.401407
1050.000000	38.378636
1040.000000	38.403245
1030.000000	38.445882
1020.000000	38.585779
1010.000000	38.893384
1000.000000	39.196460
990.000000	39.358947
980.000000	39.350185
970.000000	39.466242
960.000000	39.660162
950.000000	39.748211
940.000000	39.778064
930.000000	39.734966
920.000000	39.729259
910.000000	39.870444
900.000000	40.002303
890.000000	39.996183
880.000000	40.028743
870.000000	40.287639
860.000000	40.473810
850.000000	39.851918
840.000000	39.186494
830.000000	39.268974
820.000000	39.236331
810.000000	39.353718
800.000000	39.405123
790.000000	39.319420
780.000000	39.328910
770.000000	39.396081
760.000000	39.444191
750.000000	39.385022
740.000000	39.438412
730.000000	39.438163
720.000000	39.417427
710.000000	39.458855
700.000000	39.487319
690.000000	39.475982
680.000000	39.491275
670.000000	39.474582
660.000000	39.505393
650.000000	39.584050
640.000000	39.507719
630.000000	39.465425
620.000000	39.458314
610.000000	39.361865
600.000000	39.314125
590.000000	39.314839
580.000000	39.231657
570.000000	39.140762
560.000000	39.047821
550.000000	38.904768
540.000000	38.724147
530.000000	38.452572
520.000000	38.141672
510.000000	37.801433
500.000000	37.378004
490.000000	36.961950
480.000000	36.464234
470.000000	35.922165
460.000000	35.248917
450.000000	34.374532
440.000000	33.373401
430.000000	32.051497
420.000000	30.300687
410.000000	28.305064
400.000000	26.615474
390.000000	25.650201
380.000000	24.895599
370.000000	24.109205
360.000000	23.335447
350.000000	22.634683
340.000000	21.599697
330.000000	20.563253
320.000000	19.627923
310.000000	18.824815
300.000000	17.538474
290.000000	15.316729
280.000000	13.858728
270.000000	13.679863
260.000000	13.580601
250.000000	12.455200
