PE UV       SUBTECH     SPECTRUM    ASCII       PEDS        4.00        
   -1
3C-N10-C009.Sample.Raw.asc
22/02/28
16:25:26.00
22/02/28
16:25:26.00
Administrator

250.000000
1
Lambda 750
750N8071901
PerkinElmer UV WinLab 6.0.4.0738 / 1.61.00 Lambda 900

0
0
3350/servo 860.8/2
0
0
UV/VIS
1
1
1
CommonBeamDepol,150mm sphere / downward view
0
0
0
0
Program
Program
3350/servo 860.8/2
3350/0.2 860.8/0.2
3350/0.2 860.8/0.2
0
1
 
 
 
0
 
860.8
319.2
860.8
Front
100
on
 
 
0
0
0
 
0
 
 
 
0
 
 
0
0
0
0
0
 
 
 
 
0
0


0
0
#HDR
-1
-1
#GR
nm
%R
1.0
0.0
2500.000000
-10.000000
226
8
43.515239
6.646084
#DATA
2500.000000	13.508141
2490.000000	16.685597
2480.000000	11.222818
2470.000000	6.646084
2460.000000	12.310126
2450.000000	15.125025
2440.000000	15.122362
2430.000000	10.487554
2420.000000	13.063221
2410.000000	14.989257
2400.000000	18.724962
2390.000000	16.472890
2380.000000	15.926144
2370.000000	13.470206
2360.000000	16.367785
2350.000000	15.703893
2340.000000	13.792111
2330.000000	15.599866
2320.000000	15.872413
2310.000000	13.826311
2300.000000	13.902267
2290.000000	14.580215
2280.000000	13.984322
2270.000000	13.473523
2260.000000	12.255295
2250.000000	14.830000
2240.000000	16.138459
2230.000000	16.333034
2220.000000	17.244136
2210.000000	15.758785
2200.000000	16.689923
2190.000000	14.722154
2180.000000	14.984340
2170.000000	15.653057
2160.000000	15.322978
2150.000000	15.199590
2140.000000	16.645943
2130.000000	15.002445
2120.000000	15.497748
2110.000000	17.276828
2100.000000	18.298227
2090.000000	17.590194
2080.000000	17.170866
2070.000000	17.665014
2060.000000	16.758074
2050.000000	16.159946
2040.000000	15.366017
2030.000000	15.761197
2020.000000	16.779528
2010.000000	16.615300
2000.000000	16.273737
1990.000000	15.490548
1980.000000	15.367171
1970.000000	14.553279
1960.000000	13.808495
1950.000000	13.748471
1940.000000	13.728896
1930.000000	14.077572
1920.000000	14.630108
1910.000000	16.104673
1900.000000	18.964458
1890.000000	21.273198
1880.000000	24.120297
1870.000000	26.367010
1860.000000	27.863603
1850.000000	27.778737
1840.000000	27.603665
1830.000000	27.358286
1820.000000	27.272727
1810.000000	27.192010
1800.000000	26.929999
1790.000000	26.452441
1780.000000	26.162126
1770.000000	25.781873
1760.000000	25.697793
1750.000000	25.333625
1740.000000	25.141916
1730.000000	24.874734
1720.000000	25.313235
1710.000000	25.819443
1700.000000	26.346794
1690.000000	26.538842
1680.000000	27.525129
1670.000000	28.472824
1660.000000	29.410329
1650.000000	29.992943
1640.000000	29.850153
1630.000000	29.749818
1620.000000	29.384969
1610.000000	28.731623
1600.000000	28.176108
1590.000000	27.744145
1580.000000	27.250973
1570.000000	26.909077
1560.000000	26.669325
1550.000000	26.316465
1540.000000	25.810841
1530.000000	25.303112
1520.000000	24.857758
1510.000000	24.698625
1500.000000	24.442974
1490.000000	24.519790
1480.000000	24.505825
1470.000000	24.783300
1460.000000	25.048198
1450.000000	25.523464
1440.000000	26.090618
1430.000000	26.407214
1420.000000	26.796044
1410.000000	28.327810
1400.000000	30.837166
1390.000000	33.907980
1380.000000	35.786603
1370.000000	36.195181
1360.000000	36.206125
1350.000000	36.137253
1340.000000	36.109324
1330.000000	36.599759
1320.000000	37.929656
1310.000000	39.275287
1300.000000	40.051917
1290.000000	40.432814
1280.000000	40.324108
1270.000000	39.919646
1260.000000	39.657007
1250.000000	39.508227
1240.000000	39.204072
1230.000000	39.103085
1220.000000	38.896982
1210.000000	38.672198
1200.000000	38.380286
1190.000000	38.464036
1180.000000	38.776770
1170.000000	38.983543
1160.000000	39.732618
1150.000000	40.496539
1140.000000	41.194494
1130.000000	41.387658
1120.000000	41.380019
1110.000000	41.355889
1100.000000	41.528131
1090.000000	41.649961
1080.000000	41.691651
1070.000000	41.745539
1060.000000	41.562641
1050.000000	41.434202
1040.000000	41.280409
1030.000000	41.236789
1020.000000	41.272035
1010.000000	41.793139
1000.000000	42.517966
990.000000	42.750479
980.000000	42.616499
970.000000	42.559764
960.000000	42.561707
950.000000	42.667173
940.000000	42.718304
930.000000	42.616747
920.000000	42.697316
910.000000	42.952002
900.000000	42.852985
890.000000	42.637093
880.000000	42.436206
870.000000	42.652602
860.000000	42.706409
850.000000	42.716617
840.000000	43.008453
830.000000	43.144503
820.000000	43.371798
810.000000	43.356536
800.000000	43.286786
790.000000	43.168095
780.000000	43.221485
770.000000	43.358432
760.000000	43.485875
750.000000	43.393276
740.000000	43.434203
730.000000	43.487233
720.000000	43.369629
710.000000	43.364213
700.000000	43.384379
690.000000	43.513866
680.000000	43.515239
670.000000	43.514844
660.000000	43.427562
650.000000	43.403748
640.000000	43.445180
630.000000	43.389254
620.000000	43.364781
610.000000	43.314360
600.000000	43.178267
590.000000	43.108147
580.000000	43.019787
570.000000	42.855579
560.000000	42.742097
550.000000	42.552376
540.000000	42.380252
530.000000	42.163617
520.000000	41.966920
510.000000	41.811305
500.000000	41.560748
490.000000	41.118548
480.000000	40.493746
470.000000	39.877749
460.000000	39.260850
450.000000	38.452867
440.000000	37.317256
430.000000	35.938004
420.000000	34.258145
410.000000	32.289315
400.000000	30.583928
390.000000	29.585549
380.000000	28.776415
370.000000	27.760019
360.000000	26.574342
350.000000	25.525465
340.000000	24.051955
330.000000	22.858803
320.000000	21.992425
310.000000	20.570775
300.000000	18.770485
290.000000	16.937264
280.000000	15.683349
270.000000	15.688339
260.000000	15.735484
250.000000	14.630702
