PE UV       SUBTECH     SPECTRUM    ASCII       PEDS        4.00        
   -1
3C-H10-F026.Sample.Raw.asc
22/03/21
16:07:14.00
22/03/21
16:07:14.00
Administrator

250.000000
1
Lambda 750
750N8071901
PerkinElmer UV WinLab 6.0.4.0738 / 1.61.00 Lambda 900

0
0
3350/servo 860.8/2
0
0
UV/VIS
1
1
1
CommonBeamDepol,150mm sphere / downward view
0
0
0
0
Program
Program
3350/servo 860.8/2
3350/0.2 860.8/0.2
3350/0.2 860.8/0.2
0
1
 
 
 
0
 
860.8
319.2
860.8
Front
100
on
 
 
0
0
0
 
0
 
 
 
0
 
 
0
0
0
0
0
 
 
 
 
0
0


0
0
#HDR
-1
-1
#GR
nm
%R
1.0
0.0
2500.000000
-10.000000
226
8
42.044457
10.941742
#DATA
2500.000000	10.941742
2490.000000	13.731329
2480.000000	10.993980
2470.000000	13.624895
2460.000000	12.929493
2450.000000	14.147353
2440.000000	13.605731
2430.000000	14.576989
2420.000000	13.073137
2410.000000	15.439911
2400.000000	15.539221
2390.000000	13.253060
2380.000000	14.571372
2370.000000	15.469688
2360.000000	15.736657
2350.000000	15.609382
2340.000000	15.984500
2330.000000	14.199321
2320.000000	15.636516
2310.000000	14.885237
2300.000000	14.575802
2290.000000	15.306796
2280.000000	14.348587
2270.000000	15.277749
2260.000000	14.961567
2250.000000	16.502193
2240.000000	16.320567
2230.000000	17.331313
2220.000000	17.142209
2210.000000	17.538918
2200.000000	16.922916
2190.000000	16.291540
2180.000000	16.369942
2170.000000	16.608318
2160.000000	17.169107
2150.000000	16.872962
2140.000000	16.888083
2130.000000	18.464698
2120.000000	18.429550
2110.000000	18.617204
2100.000000	18.542606
2090.000000	18.654883
2080.000000	18.653015
2070.000000	18.137556
2060.000000	17.456237
2050.000000	17.072900
2040.000000	16.674479
2030.000000	16.896884
2020.000000	17.232354
2010.000000	17.412333
2000.000000	17.227288
1990.000000	16.847522
1980.000000	16.299513
1970.000000	15.882737
1960.000000	15.615517
1950.000000	15.268288
1940.000000	15.044357
1930.000000	15.511318
1920.000000	16.106375
1910.000000	17.302044
1900.000000	19.776542
1890.000000	22.393103
1880.000000	24.965674
1870.000000	27.071946
1860.000000	28.367064
1850.000000	28.694379
1840.000000	28.679578
1830.000000	28.466549
1820.000000	28.160839
1810.000000	27.978381
1800.000000	27.707474
1790.000000	27.474711
1780.000000	27.212755
1770.000000	26.897538
1760.000000	26.567962
1750.000000	26.190465
1740.000000	25.917079
1730.000000	25.800194
1720.000000	26.179821
1710.000000	26.754488
1700.000000	27.206384
1690.000000	27.437789
1680.000000	28.468924
1670.000000	29.673302
1660.000000	30.704175
1650.000000	31.037130
1640.000000	30.903924
1630.000000	30.695569
1620.000000	30.298871
1610.000000	29.751188
1600.000000	29.300515
1590.000000	28.833689
1580.000000	28.484248
1570.000000	28.132222
1560.000000	27.870955
1550.000000	27.593330
1540.000000	27.097632
1530.000000	26.560347
1520.000000	26.109809
1510.000000	25.921734
1500.000000	25.785412
1490.000000	25.793278
1480.000000	26.030908
1470.000000	26.324059
1460.000000	26.577217
1450.000000	27.108428
1440.000000	27.687455
1430.000000	28.433633
1420.000000	29.438715
1410.000000	30.983325
1400.000000	33.142104
1390.000000	35.182781
1380.000000	36.522504
1370.000000	37.232680
1360.000000	37.730622
1350.000000	38.096621
1340.000000	38.405750
1330.000000	38.796856
1320.000000	39.339690
1310.000000	39.854548
1300.000000	40.168672
1290.000000	40.270348
1280.000000	40.211444
1270.000000	40.084167
1260.000000	40.012363
1250.000000	40.020275
1240.000000	39.808281
1230.000000	39.598936
1220.000000	39.352547
1210.000000	38.970604
1200.000000	38.654054
1190.000000	38.490205
1180.000000	38.768933
1170.000000	39.359490
1160.000000	40.072257
1150.000000	40.680040
1140.000000	41.110981
1130.000000	41.456834
1120.000000	41.695232
1110.000000	41.702381
1100.000000	41.722766
1090.000000	41.607652
1080.000000	41.555800
1070.000000	41.479289
1060.000000	41.387543
1050.000000	41.324195
1040.000000	41.218414
1030.000000	41.213003
1020.000000	41.287131
1010.000000	41.498945
1000.000000	41.744758
990.000000	41.798454
980.000000	41.756212
970.000000	41.824989
960.000000	41.910009
950.000000	41.912432
940.000000	41.915025
930.000000	41.828161
920.000000	41.729468
910.000000	41.832257
900.000000	41.919055
890.000000	42.044457
880.000000	41.877822
870.000000	41.721932
860.000000	41.542194
850.000000	41.319420
840.000000	40.591235
830.000000	40.359706
820.000000	40.280234
810.000000	40.365360
800.000000	40.298751
790.000000	40.304437
780.000000	40.317076
770.000000	40.275544
760.000000	40.250035
750.000000	40.217783
740.000000	40.179893
730.000000	40.161391
720.000000	40.124380
710.000000	40.080704
700.000000	39.998420
690.000000	39.865189
680.000000	39.831158
670.000000	39.815498
660.000000	39.698123
650.000000	39.604594
640.000000	39.492887
630.000000	39.406127
620.000000	39.387945
610.000000	39.288479
600.000000	39.162168
590.000000	39.018972
580.000000	38.889079
570.000000	38.748713
560.000000	38.639719
550.000000	38.468478
540.000000	38.214300
530.000000	37.947327
520.000000	37.574127
510.000000	37.115647
500.000000	36.709465
490.000000	36.323638
480.000000	35.800057
470.000000	35.212061
460.000000	34.582908
450.000000	33.804155
440.000000	32.865525
430.000000	31.806609
420.000000	30.404184
410.000000	28.764959
400.000000	27.438916
390.000000	26.570737
380.000000	25.871826
370.000000	25.265300
360.000000	24.780327
350.000000	24.031144
340.000000	23.114559
330.000000	22.528492
320.000000	22.053409
310.000000	21.314592
300.000000	19.706849
290.000000	17.293572
280.000000	15.763430
270.000000	15.382938
260.000000	15.178764
250.000000	14.187590
