PE UV       SUBTECH     SPECTRUM    ASCII       PEDS        4.00        
   -1
3C-N10-F019.Sample.Raw.asc
22/03/25
15:43:33.00
22/03/25
15:43:33.00
Administrator

250.000000
1
Lambda 750
750N8071901
PerkinElmer UV WinLab 6.0.4.0738 / 1.61.00 Lambda 900

0
0
3350/servo 860.8/2
0
0
UV/VIS
1
1
1
CommonBeamDepol,150mm sphere / downward view
0
0
0
0
Program
Program
3350/servo 860.8/2
3350/0.2 860.8/0.2
3350/0.2 860.8/0.2
0
1
 
 
 
0
 
860.8
319.2
860.8
Front
100
on
 
 
0
0
0
 
0
 
 
 
0
 
 
0
0
0
0
0
 
 
 
 
0
0


0
0
#HDR
-1
-1
#GR
nm
%R
1.0
0.0
2500.000000
-10.000000
226
8
39.710903
9.648370
#DATA
2500.000000	10.344377
2490.000000	13.868505
2480.000000	9.648370
2470.000000	11.416152
2460.000000	12.012877
2450.000000	13.456493
2440.000000	12.780257
2430.000000	12.382834
2420.000000	12.633685
2410.000000	12.647794
2400.000000	13.694220
2390.000000	13.790594
2380.000000	12.973085
2370.000000	13.505111
2360.000000	12.919308
2350.000000	12.612006
2340.000000	12.983112
2330.000000	13.127063
2320.000000	13.103246
2310.000000	13.637022
2300.000000	11.985500
2290.000000	12.521177
2280.000000	12.543988
2270.000000	12.644020
2260.000000	12.848538
2250.000000	13.776545
2240.000000	14.156511
2230.000000	14.473926
2220.000000	14.273872
2210.000000	14.936211
2200.000000	14.178909
2190.000000	14.228442
2180.000000	13.653045
2170.000000	13.856270
2160.000000	14.916861
2150.000000	14.304691
2140.000000	14.854593
2130.000000	15.106452
2120.000000	15.525041
2110.000000	16.291199
2100.000000	16.170045
2090.000000	15.965124
2080.000000	15.970176
2070.000000	15.463673
2060.000000	14.655949
2050.000000	14.390643
2040.000000	14.260656
2030.000000	14.088559
2020.000000	14.625987
2010.000000	14.700022
2000.000000	14.553761
1990.000000	14.069097
1980.000000	13.733859
1970.000000	13.228808
1960.000000	13.003833
1950.000000	12.718848
1940.000000	12.414249
1930.000000	12.818009
1920.000000	13.728432
1910.000000	14.876571
1900.000000	16.878502
1890.000000	19.488464
1880.000000	21.998736
1870.000000	23.790150
1860.000000	24.967749
1850.000000	25.379259
1840.000000	25.497913
1830.000000	25.184179
1820.000000	25.039668
1810.000000	24.834993
1800.000000	24.490460
1790.000000	24.204548
1780.000000	24.027547
1770.000000	23.794454
1760.000000	23.457642
1750.000000	23.136534
1740.000000	22.899256
1730.000000	22.681508
1720.000000	23.067717
1710.000000	23.665948
1700.000000	24.023688
1690.000000	24.368712
1680.000000	25.176443
1670.000000	26.320709
1660.000000	27.198878
1650.000000	27.433184
1640.000000	27.358761
1630.000000	27.115019
1620.000000	26.724631
1610.000000	26.277504
1600.000000	25.768754
1590.000000	25.411706
1580.000000	25.052559
1570.000000	24.774527
1560.000000	24.478382
1550.000000	24.212274
1540.000000	23.846095
1530.000000	23.312396
1520.000000	22.873232
1510.000000	22.653689
1500.000000	22.565973
1490.000000	22.567297
1480.000000	22.727588
1470.000000	22.992103
1460.000000	23.311598
1450.000000	23.713509
1440.000000	24.286456
1430.000000	25.022568
1420.000000	25.913633
1410.000000	27.349414
1400.000000	29.266318
1390.000000	31.238468
1380.000000	32.533629
1370.000000	33.128805
1360.000000	33.543154
1350.000000	33.897111
1340.000000	34.125563
1330.000000	34.429108
1320.000000	34.939110
1310.000000	35.422795
1300.000000	35.699008
1290.000000	35.797034
1280.000000	35.773158
1270.000000	35.734460
1260.000000	35.743704
1250.000000	35.706877
1240.000000	35.609125
1230.000000	35.469821
1220.000000	35.177770
1210.000000	34.894365
1200.000000	34.589731
1190.000000	34.477036
1180.000000	34.743312
1170.000000	35.356174
1160.000000	36.051347
1150.000000	36.649548
1140.000000	37.103910
1130.000000	37.412568
1120.000000	37.615049
1110.000000	37.797379
1100.000000	37.839287
1090.000000	37.868381
1080.000000	37.904336
1070.000000	37.901063
1060.000000	37.869246
1050.000000	37.876574
1040.000000	37.843456
1030.000000	37.854751
1020.000000	37.994846
1010.000000	38.274387
1000.000000	38.612839
990.000000	38.770484
980.000000	38.766303
970.000000	38.866216
960.000000	39.004480
950.000000	39.097290
940.000000	39.119273
930.000000	39.150746
920.000000	39.117588
910.000000	39.155502
900.000000	39.276621
890.000000	39.435025
880.000000	39.595915
870.000000	39.710903
860.000000	39.612319
850.000000	39.022571
840.000000	38.134628
830.000000	38.247862
820.000000	38.210225
810.000000	38.345441
800.000000	38.472548
790.000000	38.410159
780.000000	38.328560
770.000000	38.363236
760.000000	38.427456
750.000000	38.497610
740.000000	38.575396
730.000000	38.580337
720.000000	38.569693
710.000000	38.599477
700.000000	38.662530
690.000000	38.622403
680.000000	38.578385
670.000000	38.584477
660.000000	38.661463
650.000000	38.697613
640.000000	38.648607
630.000000	38.640504
620.000000	38.621391
610.000000	38.562073
600.000000	38.542610
590.000000	38.510578
580.000000	38.467004
570.000000	38.404672
560.000000	38.287306
550.000000	38.164444
540.000000	37.973583
530.000000	37.715124
520.000000	37.395702
510.000000	37.062937
500.000000	36.678072
490.000000	36.273161
480.000000	35.779688
470.000000	35.267456
460.000000	34.651033
450.000000	33.838059
440.000000	32.870109
430.000000	31.607252
420.000000	29.899855
410.000000	27.994131
400.000000	26.347242
390.000000	25.390245
380.000000	24.696134
370.000000	24.057828
360.000000	23.444175
350.000000	22.644756
340.000000	21.692673
330.000000	20.830013
320.000000	20.142652
310.000000	19.138471
300.000000	17.799494
290.000000	15.595182
280.000000	14.178985
270.000000	14.022001
260.000000	14.043158
250.000000	13.078256
