PE UV       SUBTECH     SPECTRUM    ASCII       PEDS        4.00        
   -1
3C-N10-C021.Sample.Raw.asc
22/03/22
17:36:39.00
22/03/22
17:36:39.00
Administrator

250.000000
1
Lambda 750
750N8071901
PerkinElmer UV WinLab 6.0.4.0738 / 1.61.00 Lambda 900

0
0
3350/servo 860.8/2
0
0
UV/VIS
1
1
1
CommonBeamDepol,150mm sphere / downward view
0
0
0
0
Program
Program
3350/servo 860.8/2
3350/0.2 860.8/0.2
3350/0.2 860.8/0.2
0
1
 
 
 
0
 
860.8
319.2
860.8
Front
100
on
 
 
0
0
0
 
0
 
 
 
0
 
 
0
0
0
0
0
 
 
 
 
0
0


0
0
#HDR
-1
-1
#GR
nm
%R
1.0
0.0
2500.000000
-10.000000
226
8
48.721555
10.182414
#DATA
2500.000000	11.731943
2490.000000	14.371179
2480.000000	10.182414
2470.000000	14.344889
2460.000000	14.207123
2450.000000	15.336093
2440.000000	15.854995
2430.000000	14.269882
2420.000000	16.834011
2410.000000	16.774478
2400.000000	15.988995
2390.000000	15.783773
2380.000000	16.719070
2370.000000	18.067568
2360.000000	16.344193
2350.000000	19.279342
2340.000000	15.347539
2330.000000	16.531193
2320.000000	17.062076
2310.000000	17.848949
2300.000000	15.259292
2290.000000	15.928931
2280.000000	16.305847
2270.000000	16.737925
2260.000000	16.115992
2250.000000	17.445417
2240.000000	17.437813
2230.000000	17.393220
2220.000000	18.915024
2210.000000	18.838851
2200.000000	18.317064
2190.000000	17.376303
2180.000000	17.761540
2170.000000	17.037591
2160.000000	17.801823
2150.000000	17.817292
2140.000000	19.412553
2130.000000	19.983560
2120.000000	19.924384
2110.000000	20.353798
2100.000000	21.138908
2090.000000	20.817461
2080.000000	20.417303
2070.000000	19.506421
2060.000000	18.968373
2050.000000	18.407631
2040.000000	18.009225
2030.000000	18.244208
2020.000000	18.549801
2010.000000	18.540260
2000.000000	18.433123
1990.000000	17.956062
1980.000000	17.528642
1970.000000	16.636805
1960.000000	16.414366
1950.000000	15.747940
1940.000000	15.724509
1930.000000	16.435553
1920.000000	17.272996
1910.000000	18.748507
1900.000000	21.210951
1890.000000	24.179591
1880.000000	27.370565
1870.000000	30.066459
1860.000000	31.351151
1850.000000	31.760809
1840.000000	31.660449
1830.000000	31.495784
1820.000000	31.153842
1810.000000	30.975642
1800.000000	30.622043
1790.000000	30.294943
1780.000000	29.990655
1770.000000	29.593611
1760.000000	29.306562
1750.000000	28.957364
1740.000000	28.562373
1730.000000	28.392354
1720.000000	28.876458
1710.000000	29.623541
1700.000000	30.010619
1690.000000	30.398523
1680.000000	31.321139
1670.000000	32.677667
1660.000000	33.611238
1650.000000	34.192797
1640.000000	34.049957
1630.000000	33.748119
1620.000000	33.339908
1610.000000	32.806505
1600.000000	32.197967
1590.000000	31.635354
1580.000000	31.203221
1570.000000	30.823202
1560.000000	30.512588
1550.000000	30.348382
1540.000000	29.878761
1530.000000	29.196979
1520.000000	28.682363
1510.000000	28.440085
1500.000000	28.230244
1490.000000	28.204190
1480.000000	28.429336
1470.000000	28.765332
1460.000000	29.145667
1450.000000	29.620928
1440.000000	30.299073
1430.000000	31.121644
1420.000000	32.243544
1410.000000	33.933369
1400.000000	36.215524
1390.000000	38.484569
1380.000000	40.000000
1370.000000	40.709401
1360.000000	41.173956
1350.000000	41.660584
1340.000000	42.117876
1330.000000	42.664824
1320.000000	43.422742
1310.000000	44.129380
1300.000000	44.573256
1290.000000	44.727857
1280.000000	44.783583
1270.000000	44.742499
1260.000000	44.684058
1250.000000	44.528392
1240.000000	44.374807
1230.000000	44.225140
1220.000000	44.050513
1210.000000	43.732630
1200.000000	43.328368
1190.000000	43.157642
1180.000000	43.340816
1170.000000	43.864294
1160.000000	44.712532
1150.000000	45.435015
1140.000000	46.080817
1130.000000	46.487897
1120.000000	46.637296
1110.000000	46.608363
1100.000000	46.567847
1090.000000	46.597888
1080.000000	46.617630
1070.000000	46.564237
1060.000000	46.468813
1050.000000	46.396854
1040.000000	46.369554
1030.000000	46.268264
1020.000000	46.264449
1010.000000	46.485073
1000.000000	46.704293
990.000000	46.780063
980.000000	46.834872
970.000000	46.930786
960.000000	47.043788
950.000000	47.104188
940.000000	47.177361
930.000000	47.099006
920.000000	46.994975
910.000000	47.134156
900.000000	47.390866
890.000000	47.551509
880.000000	47.717309
870.000000	47.678438
860.000000	47.758810
850.000000	48.037515
840.000000	48.309505
830.000000	48.397178
820.000000	48.411453
810.000000	48.402985
800.000000	48.448397
790.000000	48.475973
780.000000	48.494476
770.000000	48.500629
760.000000	48.627935
750.000000	48.658533
740.000000	48.653414
730.000000	48.653848
720.000000	48.716287
710.000000	48.702501
700.000000	48.721555
690.000000	48.682677
680.000000	48.627430
670.000000	48.617280
660.000000	48.601462
650.000000	48.610003
640.000000	48.536069
630.000000	48.427802
620.000000	48.429520
610.000000	48.368994
600.000000	48.309047
590.000000	48.216596
580.000000	48.088641
570.000000	47.956804
560.000000	47.789156
550.000000	47.578296
540.000000	47.399094
530.000000	47.212296
520.000000	47.090532
510.000000	46.908734
500.000000	46.563491
490.000000	46.060742
480.000000	45.474350
470.000000	44.735985
460.000000	43.875164
450.000000	42.841436
440.000000	41.656709
430.000000	40.142865
420.000000	38.290808
410.000000	36.240384
400.000000	34.424904
390.000000	33.201949
380.000000	32.280120
370.000000	31.004177
360.000000	29.579326
350.000000	28.540469
340.000000	27.515535
330.000000	26.537843
320.000000	25.283177
310.000000	23.708997
300.000000	21.740330
290.000000	19.378411
280.000000	17.905161
270.000000	17.865282
260.000000	17.916166
250.000000	16.620114
