PE UV       SUBTECH     SPECTRUM    ASCII       PEDS        4.00        
   -1
3C-H10-F025.Sample.Raw.asc
22/03/21
16:04:18.00
22/03/21
16:04:18.00
Administrator

250.000000
1
Lambda 750
750N8071901
PerkinElmer UV WinLab 6.0.4.0738 / 1.61.00 Lambda 900

0
0
3350/servo 860.8/2
0
0
UV/VIS
1
1
1
CommonBeamDepol,150mm sphere / downward view
0
0
0
0
Program
Program
3350/servo 860.8/2
3350/0.2 860.8/0.2
3350/0.2 860.8/0.2
0
1
 
 
 
0
 
860.8
319.2
860.8
Front
100
on
 
 
0
0
0
 
0
 
 
 
0
 
 
0
0
0
0
0
 
 
 
 
0
0


0
0
#HDR
-1
-1
#GR
nm
%R
1.0
0.0
2500.000000
-10.000000
226
8
42.037464
11.753519
#DATA
2500.000000	13.816715
2490.000000	12.285301
2480.000000	11.753519
2470.000000	14.825745
2460.000000	12.517038
2450.000000	15.877175
2440.000000	13.956017
2430.000000	15.493121
2420.000000	13.964397
2410.000000	15.809103
2400.000000	15.401471
2390.000000	15.319772
2380.000000	15.189181
2370.000000	16.355694
2360.000000	16.600755
2350.000000	14.521468
2340.000000	16.151487
2330.000000	14.766481
2320.000000	15.706860
2310.000000	15.525948
2300.000000	15.311574
2290.000000	15.799779
2280.000000	14.911399
2270.000000	14.680051
2260.000000	14.569118
2250.000000	15.995913
2240.000000	16.160492
2230.000000	17.127524
2220.000000	17.914729
2210.000000	17.483462
2200.000000	16.564840
2190.000000	16.112882
2180.000000	16.284290
2170.000000	16.609248
2160.000000	17.089056
2150.000000	16.599962
2140.000000	17.116404
2130.000000	17.964603
2120.000000	18.404338
2110.000000	18.540691
2100.000000	18.779545
2090.000000	18.653497
2080.000000	18.489842
2070.000000	17.709735
2060.000000	17.557438
2050.000000	17.382929
2040.000000	16.856404
2030.000000	16.995450
2020.000000	17.043598
2010.000000	17.338480
2000.000000	17.185795
1990.000000	16.788056
1980.000000	16.491214
1970.000000	15.878275
1960.000000	15.601393
1950.000000	15.294040
1940.000000	15.095010
1930.000000	15.471472
1920.000000	16.249528
1910.000000	17.443291
1900.000000	19.561096
1890.000000	22.531538
1880.000000	25.049504
1870.000000	27.129079
1860.000000	28.282777
1850.000000	28.745744
1840.000000	28.603292
1830.000000	28.417605
1820.000000	28.209964
1810.000000	27.987470
1800.000000	27.655602
1790.000000	27.525500
1780.000000	27.248129
1770.000000	26.928678
1760.000000	26.623691
1750.000000	26.228447
1740.000000	25.866264
1730.000000	25.694779
1720.000000	26.113688
1710.000000	26.728800
1700.000000	27.149349
1690.000000	27.489899
1680.000000	28.519625
1670.000000	29.789838
1660.000000	30.669598
1650.000000	31.105229
1640.000000	30.970767
1630.000000	30.744138
1620.000000	30.304006
1610.000000	29.811435
1600.000000	29.343057
1590.000000	28.885366
1580.000000	28.456392
1570.000000	28.143227
1560.000000	27.862062
1550.000000	27.589124
1540.000000	27.106501
1530.000000	26.513242
1520.000000	26.079015
1510.000000	25.864097
1500.000000	25.775837
1490.000000	25.798885
1480.000000	25.983483
1470.000000	26.263124
1460.000000	26.603347
1450.000000	27.106795
1440.000000	27.708921
1430.000000	28.463994
1420.000000	29.484764
1410.000000	31.080658
1400.000000	33.237447
1390.000000	35.286603
1380.000000	36.661964
1370.000000	37.368882
1360.000000	37.862654
1350.000000	38.255983
1340.000000	38.553869
1330.000000	38.907884
1320.000000	39.468807
1310.000000	39.940368
1300.000000	40.266055
1290.000000	40.345004
1280.000000	40.250143
1270.000000	40.165590
1260.000000	40.117862
1250.000000	40.088167
1240.000000	39.872265
1230.000000	39.669600
1220.000000	39.411432
1210.000000	39.009244
1200.000000	38.690161
1190.000000	38.528493
1180.000000	38.783540
1170.000000	39.414647
1160.000000	40.133816
1150.000000	40.744316
1140.000000	41.161409
1130.000000	41.477747
1120.000000	41.716786
1110.000000	41.819660
1100.000000	41.782112
1090.000000	41.701557
1080.000000	41.664343
1070.000000	41.588751
1060.000000	41.505672
1050.000000	41.411427
1040.000000	41.335591
1030.000000	41.333321
1020.000000	41.395016
1010.000000	41.616078
1000.000000	41.888839
990.000000	41.951599
980.000000	41.893493
970.000000	41.930401
960.000000	41.943321
950.000000	41.977477
940.000000	42.023076
930.000000	41.865627
920.000000	41.745832
910.000000	41.811446
900.000000	41.865410
890.000000	41.927171
880.000000	42.037464
870.000000	41.853854
860.000000	41.662231
850.000000	41.528121
840.000000	40.569341
830.000000	40.468808
820.000000	40.517964
810.000000	40.532031
800.000000	40.493185
790.000000	40.388208
780.000000	40.355597
770.000000	40.327198
760.000000	40.298975
750.000000	40.352949
740.000000	40.347761
730.000000	40.232281
720.000000	40.148626
710.000000	40.125232
700.000000	40.048395
690.000000	39.966340
680.000000	39.948517
670.000000	39.887746
660.000000	39.766673
650.000000	39.694547
640.000000	39.598571
630.000000	39.550702
620.000000	39.517530
610.000000	39.388403
600.000000	39.248500
590.000000	39.149316
580.000000	39.003215
570.000000	38.847368
560.000000	38.736305
550.000000	38.567883
540.000000	38.293610
530.000000	37.984877
520.000000	37.641622
510.000000	37.200651
500.000000	36.723724
490.000000	36.304265
480.000000	35.800915
470.000000	35.266274
460.000000	34.621115
450.000000	33.834339
440.000000	32.932647
430.000000	31.816971
420.000000	30.425491
410.000000	28.836503
400.000000	27.467866
390.000000	26.606857
380.000000	25.927752
370.000000	25.385886
360.000000	24.956434
350.000000	24.235764
340.000000	23.348265
330.000000	22.725086
320.000000	21.977116
310.000000	21.267977
300.000000	20.121998
290.000000	17.628663
280.000000	15.957625
270.000000	15.627883
260.000000	15.471623
250.000000	14.441662
