PE UV       SUBTECH     SPECTRUM    ASCII       PEDS        4.00        
   -1
3C-H10-010.Sample.Raw.asc
22/02/23
17:12:32.00
22/02/23
17:12:32.00
Administrator

250.000000
1
Lambda 750
750N8071901
PerkinElmer UV WinLab 6.0.4.0738 / 1.61.00 Lambda 900

0
0
3350/servo 860.8/2
0
0
UV/VIS
1
1
1
CommonBeamDepol,150mm sphere / downward view
0
0
0
0
Program
Program
3350/servo 860.8/2
3350/0.2 860.8/0.2
3350/0.2 860.8/0.2
0
1
 
 
 
0
 
860.8
319.2
860.8
Front
100
on
 
 
0
0
0
 
0
 
 
 
0
 
 
0
0
0
0
0
 
 
 
 
0
0


0
0
#HDR
-1
-1
#GR
nm
%R
1.0
0.0
2500.000000
-10.000000
226
8
47.907975
6.978872
#DATA
2500.000000	6.978872
2490.000000	14.323919
2480.000000	12.391497
2470.000000	12.770780
2460.000000	16.247945
2450.000000	20.125397
2440.000000	17.247185
2430.000000	18.092883
2420.000000	14.730726
2410.000000	20.453821
2400.000000	19.868645
2390.000000	21.943724
2380.000000	19.509906
2370.000000	19.036773
2360.000000	16.861380
2350.000000	21.046555
2340.000000	19.465517
2330.000000	16.492689
2320.000000	19.928262
2310.000000	19.501318
2300.000000	19.295632
2290.000000	19.367985
2280.000000	17.193561
2270.000000	20.104658
2260.000000	15.804889
2250.000000	17.617278
2240.000000	19.272366
2230.000000	18.841979
2220.000000	20.223290
2210.000000	19.892405
2200.000000	19.196185
2190.000000	20.046206
2180.000000	17.154634
2170.000000	18.204320
2160.000000	21.385556
2150.000000	19.016032
2140.000000	20.773678
2130.000000	21.170316
2120.000000	20.884654
2110.000000	21.949770
2100.000000	22.447037
2090.000000	21.472689
2080.000000	22.227628
2070.000000	22.093943
2060.000000	20.704930
2050.000000	20.012536
2040.000000	20.346860
2030.000000	19.602351
2020.000000	20.225378
2010.000000	20.371181
2000.000000	19.911410
1990.000000	19.540896
1980.000000	19.291760
1970.000000	18.634474
1960.000000	18.165156
1950.000000	17.327462
1940.000000	17.097482
1930.000000	17.994937
1920.000000	18.891276
1910.000000	20.196333
1900.000000	22.464349
1890.000000	25.400406
1880.000000	28.237476
1870.000000	30.689280
1860.000000	32.311028
1850.000000	32.520607
1840.000000	32.432180
1830.000000	32.140558
1820.000000	32.156504
1810.000000	31.924326
1800.000000	31.643715
1790.000000	31.322333
1780.000000	31.054807
1770.000000	30.424629
1760.000000	30.257736
1750.000000	29.781840
1740.000000	29.591494
1730.000000	29.102258
1720.000000	29.522767
1710.000000	30.202374
1700.000000	30.668627
1690.000000	31.224510
1680.000000	32.218496
1670.000000	33.488350
1660.000000	34.262964
1650.000000	34.928377
1640.000000	34.854381
1630.000000	34.527457
1620.000000	34.021972
1610.000000	33.615538
1600.000000	33.082259
1590.000000	32.553467
1580.000000	32.094087
1570.000000	31.686232
1560.000000	31.368484
1550.000000	31.165623
1540.000000	30.597214
1530.000000	29.934281
1520.000000	29.563785
1510.000000	29.271715
1500.000000	29.085652
1490.000000	28.949061
1480.000000	29.202686
1470.000000	29.530578
1460.000000	29.855076
1450.000000	30.379975
1440.000000	31.024010
1430.000000	31.744566
1420.000000	32.841418
1410.000000	34.033088
1400.000000	36.195134
1390.000000	39.003256
1380.000000	40.909935
1370.000000	41.485181
1360.000000	41.824782
1350.000000	42.019832
1340.000000	41.706946
1330.000000	41.484577
1320.000000	42.175165
1310.000000	43.838227
1300.000000	45.345646
1290.000000	46.233923
1280.000000	46.136184
1270.000000	45.661495
1260.000000	45.110484
1250.000000	44.774824
1240.000000	44.635661
1230.000000	44.480411
1220.000000	44.278009
1210.000000	43.889033
1200.000000	43.448042
1190.000000	43.414849
1180.000000	43.685201
1170.000000	44.192253
1160.000000	44.925779
1150.000000	45.817744
1140.000000	46.536242
1130.000000	46.740284
1120.000000	46.896461
1110.000000	46.858185
1100.000000	46.682692
1090.000000	46.717713
1080.000000	46.694315
1070.000000	46.595752
1060.000000	46.592788
1050.000000	46.480005
1040.000000	46.326892
1030.000000	46.272423
1020.000000	46.392061
1010.000000	46.900026
1000.000000	47.681118
990.000000	47.907975
980.000000	47.550068
970.000000	47.511531
960.000000	47.525578
950.000000	47.526139
940.000000	47.491858
930.000000	47.479687
920.000000	47.262750
910.000000	47.164732
900.000000	47.144712
890.000000	47.317780
880.000000	47.553791
870.000000	46.878803
860.000000	46.122476
850.000000	46.949950
840.000000	46.994571
830.000000	47.127904
820.000000	47.211481
810.000000	47.294108
800.000000	47.228933
790.000000	47.117115
780.000000	47.135784
770.000000	47.221079
760.000000	47.127003
750.000000	47.217926
740.000000	47.115532
730.000000	47.038439
720.000000	46.943398
710.000000	47.067586
700.000000	47.060572
690.000000	46.954695
680.000000	46.795467
670.000000	46.816709
660.000000	46.811890
650.000000	46.765978
640.000000	46.667742
630.000000	46.533112
620.000000	46.481916
610.000000	46.439553
600.000000	46.296733
590.000000	46.178854
580.000000	46.100206
570.000000	45.944134
560.000000	45.742545
550.000000	45.496353
540.000000	45.310753
530.000000	45.019098
520.000000	44.708058
510.000000	44.322108
500.000000	43.876952
490.000000	43.313233
480.000000	42.687548
470.000000	41.960636
460.000000	41.144277
450.000000	40.100438
440.000000	38.971715
430.000000	37.695017
420.000000	36.073264
410.000000	34.394009
400.000000	32.872697
390.000000	31.772025
380.000000	30.893191
370.000000	29.782936
360.000000	28.850475
350.000000	28.036938
340.000000	26.748682
330.000000	25.497337
320.000000	24.815949
310.000000	23.908169
300.000000	21.921467
290.000000	19.541831
280.000000	17.625984
270.000000	17.287761
260.000000	17.261060
250.000000	15.913404
