PE UV       SUBTECH     SPECTRUM    ASCII       PEDS        4.00        
   -1
3C-N10-C010.Sample.Raw.asc
22/02/28
16:29:28.00
22/02/28
16:29:28.00
Administrator

250.000000
1
Lambda 750
750N8071901
PerkinElmer UV WinLab 6.0.4.0738 / 1.61.00 Lambda 900

0
0
3350/servo 860.8/2
0
0
UV/VIS
1
1
1
CommonBeamDepol,150mm sphere / downward view
0
0
0
0
Program
Program
3350/servo 860.8/2
3350/0.2 860.8/0.2
3350/0.2 860.8/0.2
0
1
 
 
 
0
 
860.8
319.2
860.8
Front
100
on
 
 
0
0
0
 
0
 
 
 
0
 
 
0
0
0
0
0
 
 
 
 
0
0


0
0
#HDR
-1
-1
#GR
nm
%R
1.0
0.0
2500.000000
-10.000000
226
8
41.891046
6.070577
#DATA
2500.000000	6.558596
2490.000000	11.043874
2480.000000	12.247790
2470.000000	6.070577
2460.000000	9.773587
2450.000000	8.770221
2440.000000	8.713349
2430.000000	10.896415
2420.000000	10.094737
2410.000000	16.242137
2400.000000	14.571592
2390.000000	10.969588
2380.000000	15.033264
2370.000000	13.905728
2360.000000	13.998374
2350.000000	13.207104
2340.000000	12.069936
2330.000000	16.224012
2320.000000	18.454644
2310.000000	14.467692
2300.000000	10.797434
2290.000000	15.301071
2280.000000	12.601730
2270.000000	14.400494
2260.000000	12.260474
2250.000000	12.395290
2240.000000	15.199869
2230.000000	15.690638
2220.000000	16.937815
2210.000000	14.520590
2200.000000	15.480574
2190.000000	14.457237
2180.000000	13.369307
2170.000000	15.330015
2160.000000	14.325363
2150.000000	14.984392
2140.000000	15.728701
2130.000000	15.925331
2120.000000	16.022230
2110.000000	17.487490
2100.000000	17.630304
2090.000000	16.911940
2080.000000	16.834381
2070.000000	16.443460
2060.000000	15.296808
2050.000000	15.774839
2040.000000	14.968544
2030.000000	14.845261
2020.000000	15.440542
2010.000000	15.609200
2000.000000	15.758915
1990.000000	14.740974
1980.000000	14.406440
1970.000000	13.834558
1960.000000	13.187243
1950.000000	12.918760
1940.000000	13.127094
1930.000000	13.355579
1920.000000	13.815743
1910.000000	15.545015
1900.000000	17.664491
1890.000000	20.077299
1880.000000	22.684101
1870.000000	25.343272
1860.000000	26.526043
1850.000000	26.359712
1840.000000	26.688644
1830.000000	26.459194
1820.000000	25.947288
1810.000000	25.991269
1800.000000	25.828887
1790.000000	25.598596
1780.000000	24.958490
1770.000000	24.907334
1760.000000	24.637765
1750.000000	24.243751
1740.000000	23.934827
1730.000000	23.624950
1720.000000	24.082726
1710.000000	24.612519
1700.000000	25.469573
1690.000000	25.532639
1680.000000	26.210185
1670.000000	27.656858
1660.000000	28.315373
1650.000000	28.598281
1640.000000	28.624831
1630.000000	28.231310
1620.000000	27.988944
1610.000000	27.323028
1600.000000	26.939092
1590.000000	26.490322
1580.000000	26.221736
1570.000000	25.817716
1560.000000	25.460182
1550.000000	25.234808
1540.000000	24.715171
1530.000000	24.249590
1520.000000	23.850531
1510.000000	23.622148
1500.000000	23.504317
1490.000000	23.429879
1480.000000	23.546742
1470.000000	23.720316
1460.000000	24.128434
1450.000000	24.542310
1440.000000	25.007393
1430.000000	25.417185
1420.000000	25.696596
1410.000000	26.966770
1400.000000	29.517255
1390.000000	32.629279
1380.000000	34.400491
1370.000000	34.827176
1360.000000	34.801247
1350.000000	34.775227
1340.000000	34.770108
1330.000000	35.215491
1320.000000	36.539925
1310.000000	37.764874
1300.000000	38.639847
1290.000000	38.985963
1280.000000	38.766926
1270.000000	38.437384
1260.000000	38.200293
1250.000000	38.148832
1240.000000	38.113804
1230.000000	37.999831
1220.000000	37.525008
1210.000000	37.021816
1200.000000	36.802668
1190.000000	36.811171
1180.000000	37.136137
1170.000000	37.637549
1160.000000	38.289941
1150.000000	39.066347
1140.000000	39.905319
1130.000000	40.235664
1120.000000	40.046506
1110.000000	39.969243
1100.000000	40.078865
1090.000000	40.279888
1080.000000	40.228897
1070.000000	40.167457
1060.000000	40.085461
1050.000000	39.960013
1040.000000	39.875682
1030.000000	39.858872
1020.000000	39.834022
1010.000000	40.389470
1000.000000	41.140583
990.000000	41.281397
980.000000	41.087939
970.000000	41.205705
960.000000	41.299603
950.000000	41.222179
940.000000	41.202773
930.000000	40.955272
920.000000	40.981920
910.000000	41.358254
900.000000	41.401308
890.000000	41.269860
880.000000	41.262392
870.000000	41.281604
860.000000	41.001436
850.000000	41.394917
840.000000	41.656280
830.000000	41.747287
820.000000	41.750163
810.000000	41.609840
800.000000	41.657351
790.000000	41.662956
780.000000	41.607227
770.000000	41.864491
760.000000	41.891046
750.000000	41.768836
740.000000	41.851326
730.000000	41.869132
720.000000	41.778000
710.000000	41.765602
700.000000	41.746737
690.000000	41.730982
680.000000	41.795243
670.000000	41.865079
660.000000	41.761904
650.000000	41.782886
640.000000	41.757697
630.000000	41.687775
620.000000	41.648006
610.000000	41.609860
600.000000	41.506555
590.000000	41.434032
580.000000	41.276104
570.000000	41.156612
560.000000	41.014069
550.000000	40.828636
540.000000	40.698022
530.000000	40.478400
520.000000	40.276268
510.000000	40.135239
500.000000	39.899323
490.000000	39.469526
480.000000	38.944217
470.000000	38.295063
460.000000	37.631462
450.000000	36.790060
440.000000	35.756500
430.000000	34.465384
420.000000	32.787324
410.000000	30.956977
400.000000	29.407600
390.000000	28.456270
380.000000	27.640574
370.000000	26.602143
360.000000	25.659275
350.000000	24.730338
340.000000	23.157674
330.000000	22.249228
320.000000	21.778645
310.000000	20.395706
300.000000	18.358445
290.000000	16.429079
280.000000	15.212041
270.000000	15.213445
260.000000	15.217051
250.000000	14.132668
