PE UV       SUBTECH     SPECTRUM    ASCII       PEDS        4.00        
   -1
3C-H10-F005.Sample.Raw.asc
22/02/28
15:14:54.00
22/02/28
15:14:54.00
Administrator

250.000000
1
Lambda 750
750N8071901
PerkinElmer UV WinLab 6.0.4.0738 / 1.61.00 Lambda 900

0
0
3350/servo 860.8/2
0
0
UV/VIS
1
1
1
CommonBeamDepol,150mm sphere / downward view
0
0
0
0
Program
Program
3350/servo 860.8/2
3350/0.2 860.8/0.2
3350/0.2 860.8/0.2
0
1
 
 
 
0
 
860.8
319.2
860.8
Front
100
on
 
 
0
0
0
 
0
 
 
 
0
 
 
0
0
0
0
0
 
 
 
 
0
0


0
0
#HDR
-1
-1
#GR
nm
%R
1.0
0.0
2500.000000
-10.000000
226
8
44.346175
5.692454
#DATA
2500.000000	5.692454
2490.000000	14.735509
2480.000000	13.112057
2470.000000	9.258883
2460.000000	11.104460
2450.000000	13.426588
2440.000000	13.646745
2430.000000	11.972297
2420.000000	8.746655
2410.000000	19.027465
2400.000000	14.950254
2390.000000	10.436179
2380.000000	18.001401
2370.000000	16.140859
2360.000000	17.049172
2350.000000	14.981967
2340.000000	13.956523
2330.000000	15.249060
2320.000000	18.082465
2310.000000	15.433266
2300.000000	15.059045
2290.000000	16.515716
2280.000000	15.287089
2270.000000	13.918294
2260.000000	15.055156
2250.000000	17.111198
2240.000000	17.138276
2230.000000	19.070803
2220.000000	17.315760
2210.000000	14.296275
2200.000000	15.552928
2190.000000	17.236016
2180.000000	18.216923
2170.000000	17.575540
2160.000000	17.926368
2150.000000	17.547372
2140.000000	18.645381
2130.000000	18.556793
2120.000000	18.929214
2110.000000	18.869130
2100.000000	20.156471
2090.000000	19.473539
2080.000000	19.133377
2070.000000	18.802235
2060.000000	19.025362
2050.000000	17.616767
2040.000000	17.414144
2030.000000	17.412926
2020.000000	18.113398
2010.000000	18.081150
2000.000000	17.991939
1990.000000	17.690848
1980.000000	16.854463
1970.000000	17.097640
1960.000000	16.378337
1950.000000	15.791837
1940.000000	15.836180
1930.000000	16.047769
1920.000000	16.909553
1910.000000	18.353495
1900.000000	20.677275
1890.000000	23.236976
1880.000000	26.712364
1870.000000	28.341545
1860.000000	29.754813
1850.000000	30.047642
1840.000000	30.145319
1830.000000	30.108452
1820.000000	29.407308
1810.000000	29.290902
1800.000000	29.136080
1790.000000	28.819072
1780.000000	28.248945
1770.000000	27.882957
1760.000000	27.923915
1750.000000	27.873232
1740.000000	27.248555
1730.000000	26.682537
1720.000000	27.187838
1710.000000	27.896072
1700.000000	28.421451
1690.000000	28.736820
1680.000000	29.676213
1670.000000	31.108673
1660.000000	32.036940
1650.000000	32.353092
1640.000000	32.337345
1630.000000	32.033981
1620.000000	31.578173
1610.000000	31.061543
1600.000000	30.712375
1590.000000	30.048071
1580.000000	29.680615
1570.000000	29.286363
1560.000000	29.009789
1550.000000	28.771043
1540.000000	28.265349
1530.000000	27.722880
1520.000000	27.339946
1510.000000	27.062124
1500.000000	26.881810
1490.000000	27.033783
1480.000000	27.143785
1470.000000	27.451659
1460.000000	27.930467
1450.000000	28.293024
1440.000000	28.818931
1430.000000	29.178134
1420.000000	29.585657
1410.000000	31.067942
1400.000000	33.636510
1390.000000	36.771602
1380.000000	38.656557
1370.000000	39.135303
1360.000000	39.163462
1350.000000	39.081049
1340.000000	39.146040
1330.000000	39.641802
1320.000000	41.009635
1310.000000	42.261078
1300.000000	43.093249
1290.000000	43.412741
1280.000000	43.170016
1270.000000	42.796404
1260.000000	42.565893
1250.000000	42.479141
1240.000000	42.448188
1230.000000	42.269738
1220.000000	41.683663
1210.000000	41.210453
1200.000000	40.858753
1190.000000	40.844942
1180.000000	41.086651
1170.000000	41.591083
1160.000000	42.304542
1150.000000	43.084290
1140.000000	43.833223
1130.000000	44.224620
1120.000000	44.092652
1110.000000	43.881840
1100.000000	43.799330
1090.000000	43.855740
1080.000000	43.883871
1070.000000	43.707033
1060.000000	43.572366
1050.000000	43.358241
1040.000000	43.276433
1030.000000	43.113249
1020.000000	43.033585
1010.000000	43.457373
1000.000000	44.124913
990.000000	44.346175
980.000000	44.091219
970.000000	44.011247
960.000000	43.845941
950.000000	43.826601
940.000000	43.761034
930.000000	43.582849
920.000000	43.257013
910.000000	43.518841
900.000000	43.866308
890.000000	43.952330
880.000000	43.450460
870.000000	43.035300
860.000000	42.999407
850.000000	43.193276
840.000000	44.085348
830.000000	43.754090
820.000000	43.914306
810.000000	43.811350
800.000000	43.737469
790.000000	43.556996
780.000000	43.487251
770.000000	43.491413
760.000000	43.565918
750.000000	43.375167
740.000000	43.338069
730.000000	43.359169
720.000000	43.263724
710.000000	43.205753
700.000000	43.082016
690.000000	43.016274
680.000000	43.017684
670.000000	43.013301
660.000000	42.814864
650.000000	42.674941
640.000000	42.547921
630.000000	42.442764
620.000000	42.385864
610.000000	42.216951
600.000000	41.944777
590.000000	41.845550
580.000000	41.612785
570.000000	41.447985
560.000000	41.249460
550.000000	40.978368
540.000000	40.712661
530.000000	40.400347
520.000000	40.137140
510.000000	39.862377
500.000000	39.490714
490.000000	39.028502
480.000000	38.467296
470.000000	37.866070
460.000000	37.134005
450.000000	36.186573
440.000000	35.231979
430.000000	33.975525
420.000000	32.370216
410.000000	30.612208
400.000000	29.189156
390.000000	28.293480
380.000000	27.424651
370.000000	26.497366
360.000000	25.773220
350.000000	24.993648
340.000000	23.902719
330.000000	23.563363
320.000000	22.644178
310.000000	21.016023
300.000000	20.277190
290.000000	17.882625
280.000000	16.100020
270.000000	15.686467
260.000000	15.617972
250.000000	14.596172
