PE UV       SUBTECH     SPECTRUM    ASCII       PEDS        4.00        
   -1
3C-H10-F013.Sample.Raw.asc
22/03/21
15:29:47.00
22/03/21
15:29:47.00
Administrator

250.000000
1
Lambda 750
750N8071901
PerkinElmer UV WinLab 6.0.4.0738 / 1.61.00 Lambda 900

0
0
3350/servo 860.8/2
0
0
UV/VIS
1
1
1
CommonBeamDepol,150mm sphere / downward view
0
0
0
0
Program
Program
3350/servo 860.8/2
3350/0.2 860.8/0.2
3350/0.2 860.8/0.2
0
1
 
 
 
0
 
860.8
319.2
860.8
Front
100
on
 
 
0
0
0
 
0
 
 
 
0
 
 
0
0
0
0
0
 
 
 
 
0
0


0
0
#HDR
-1
-1
#GR
nm
%R
1.0
0.0
2500.000000
-10.000000
226
8
45.216102
11.964749
#DATA
2500.000000	11.964749
2490.000000	13.408944
2480.000000	13.547088
2470.000000	16.911034
2460.000000	13.860289
2450.000000	16.646265
2440.000000	14.415938
2430.000000	15.517530
2420.000000	15.273147
2410.000000	16.554080
2400.000000	16.498432
2390.000000	15.970239
2380.000000	17.654900
2370.000000	17.294419
2360.000000	17.140011
2350.000000	17.109396
2340.000000	17.349672
2330.000000	15.547222
2320.000000	16.392606
2310.000000	16.258156
2300.000000	16.458889
2290.000000	16.243696
2280.000000	16.076150
2270.000000	16.327573
2260.000000	15.900799
2250.000000	16.687943
2240.000000	17.257230
2230.000000	18.215632
2220.000000	18.335830
2210.000000	18.223879
2200.000000	17.486967
2190.000000	17.445264
2180.000000	17.030319
2170.000000	17.439001
2160.000000	17.919875
2150.000000	17.838197
2140.000000	18.141871
2130.000000	19.114243
2120.000000	19.368202
2110.000000	19.533503
2100.000000	19.972776
2090.000000	19.828968
2080.000000	19.624425
2070.000000	18.945945
2060.000000	18.607651
2050.000000	18.456338
2040.000000	17.728903
2030.000000	17.957680
2020.000000	18.343503
2010.000000	18.560186
2000.000000	18.333380
1990.000000	17.906667
1980.000000	17.488388
1970.000000	16.978203
1960.000000	16.501134
1950.000000	16.052883
1940.000000	15.901431
1930.000000	16.531763
1920.000000	17.441923
1910.000000	18.649502
1900.000000	20.989328
1890.000000	23.799824
1880.000000	26.530874
1870.000000	28.644152
1860.000000	30.104349
1850.000000	30.542353
1840.000000	30.373918
1830.000000	30.295333
1820.000000	30.004982
1810.000000	29.782062
1800.000000	29.486287
1790.000000	29.180222
1780.000000	28.847929
1770.000000	28.495502
1760.000000	28.144296
1750.000000	27.812686
1740.000000	27.436393
1730.000000	27.321578
1720.000000	27.683823
1710.000000	28.391746
1700.000000	28.794495
1690.000000	29.107887
1680.000000	30.128296
1670.000000	31.501916
1660.000000	32.535108
1650.000000	32.893376
1640.000000	32.811288
1630.000000	32.598411
1620.000000	32.121182
1610.000000	31.595970
1600.000000	31.071374
1590.000000	30.546280
1580.000000	30.111144
1570.000000	29.762872
1560.000000	29.508826
1550.000000	29.196577
1540.000000	28.693217
1530.000000	28.084957
1520.000000	27.644843
1510.000000	27.393242
1500.000000	27.271814
1490.000000	27.315120
1480.000000	27.553645
1470.000000	27.844407
1460.000000	28.192404
1450.000000	28.703453
1440.000000	29.338706
1430.000000	30.147442
1420.000000	31.207048
1410.000000	32.952636
1400.000000	35.226173
1390.000000	37.394407
1380.000000	38.831831
1370.000000	39.592044
1360.000000	40.122983
1350.000000	40.594844
1340.000000	40.980751
1330.000000	41.387897
1320.000000	41.932952
1310.000000	42.429141
1300.000000	42.712966
1290.000000	42.754991
1280.000000	42.643867
1270.000000	42.501710
1260.000000	42.502998
1250.000000	42.529505
1240.000000	42.392536
1230.000000	42.155154
1220.000000	41.806692
1210.000000	41.378776
1200.000000	41.038715
1190.000000	40.854539
1180.000000	41.144216
1170.000000	41.834387
1160.000000	42.640681
1150.000000	43.320440
1140.000000	43.759484
1130.000000	44.139364
1120.000000	44.400625
1110.000000	44.453632
1100.000000	44.442357
1090.000000	44.381510
1080.000000	44.376094
1070.000000	44.284027
1060.000000	44.213751
1050.000000	44.170129
1040.000000	44.127213
1030.000000	44.134576
1020.000000	44.223508
1010.000000	44.414435
1000.000000	44.680110
990.000000	44.768971
980.000000	44.769238
970.000000	44.774300
960.000000	44.817240
950.000000	44.935729
940.000000	44.981592
930.000000	44.953606
920.000000	44.837954
910.000000	44.849744
900.000000	45.025702
890.000000	45.216102
880.000000	45.063432
870.000000	44.855803
860.000000	45.047482
850.000000	44.581872
840.000000	43.186358
830.000000	43.168656
820.000000	42.940963
810.000000	42.972289
800.000000	42.989861
790.000000	42.970802
780.000000	42.994151
770.000000	42.986442
760.000000	42.966935
750.000000	42.918144
740.000000	42.876376
730.000000	42.797259
720.000000	42.735972
710.000000	42.653313
700.000000	42.616358
690.000000	42.506458
680.000000	42.486497
670.000000	42.422885
660.000000	42.256535
650.000000	42.156033
640.000000	42.074112
630.000000	41.989815
620.000000	41.943823
610.000000	41.838693
600.000000	41.704370
590.000000	41.590115
580.000000	41.450080
570.000000	41.296215
560.000000	41.174459
550.000000	40.945909
540.000000	40.670781
530.000000	40.341297
520.000000	39.927415
510.000000	39.453990
500.000000	38.949201
490.000000	38.428174
480.000000	37.855647
470.000000	37.241499
460.000000	36.532510
450.000000	35.680215
440.000000	34.695610
430.000000	33.435754
420.000000	31.769958
410.000000	29.968373
400.000000	28.442740
390.000000	27.466631
380.000000	26.786942
370.000000	26.118253
360.000000	25.531295
350.000000	24.878564
340.000000	24.097870
330.000000	23.545435
320.000000	22.735618
310.000000	21.529572
300.000000	19.724624
290.000000	17.139877
280.000000	15.424408
270.000000	15.109878
260.000000	15.029794
250.000000	13.928312
