PE UV       SUBTECH     SPECTRUM    ASCII       PEDS        4.00        
   -1
3G-H10-C026.Sample.Raw.asc
22/04/19
16:47:29.00
22/04/19
16:47:29.00
Administrator

250.000000
1
Lambda 750
750N8071901
PerkinElmer UV WinLab 6.0.4.0738 / 1.61.00 Lambda 900

0
0
3350/servo 860.8/2
0
0
UV/VIS
1
1
1
CommonBeamDepol,150mm sphere / downward view
0
0
0
0
Program
Program
3350/servo 860.8/2
3350/0.2 860.8/0.2
3350/0.2 860.8/0.2
0
1
 
 
 
0
 
860.8
319.2
860.8
Front
100
on
 
 
0
0
0
 
0
 
 
 
0
 
 
0
0
0
0
0
 
 
 
 
0
0


0
0
#HDR
-1
-1
#GR
nm
%R
1.0
0.0
2500.000000
-10.000000
226
8
65.906616
17.212692
#DATA
2500.000000	20.413271
2490.000000	19.894548
2480.000000	20.705758
2470.000000	29.619069
2460.000000	25.730253
2450.000000	27.121560
2440.000000	26.851084
2430.000000	28.495820
2420.000000	33.846934
2410.000000	32.481447
2400.000000	34.107549
2390.000000	33.118895
2380.000000	27.256745
2370.000000	29.098422
2360.000000	29.729866
2350.000000	30.168934
2340.000000	33.650027
2330.000000	28.868549
2320.000000	30.100525
2310.000000	29.175695
2300.000000	29.528384
2290.000000	28.835452
2280.000000	29.723307
2270.000000	30.611625
2260.000000	29.399366
2250.000000	32.126305
2240.000000	32.458852
2230.000000	31.049795
2220.000000	32.916926
2210.000000	33.049807
2200.000000	32.558490
2190.000000	32.676362
2180.000000	31.268359
2170.000000	31.333056
2160.000000	31.962414
2150.000000	32.267559
2140.000000	33.703852
2130.000000	33.968301
2120.000000	35.509484
2110.000000	35.539440
2100.000000	36.987516
2090.000000	36.353549
2080.000000	35.366539
2070.000000	34.626553
2060.000000	34.329474
2050.000000	32.935057
2040.000000	32.517102
2030.000000	32.860858
2020.000000	33.564553
2010.000000	32.900201
2000.000000	33.079651
1990.000000	32.145270
1980.000000	31.352339
1970.000000	30.474699
1960.000000	29.672142
1950.000000	28.737935
1940.000000	28.713948
1930.000000	29.168550
1920.000000	30.535928
1910.000000	33.116879
1900.000000	36.984458
1890.000000	40.575312
1880.000000	44.407573
1870.000000	47.165917
1860.000000	48.269367
1850.000000	48.402856
1840.000000	48.371405
1830.000000	48.510424
1820.000000	48.152553
1810.000000	48.221673
1800.000000	47.674283
1790.000000	47.126674
1780.000000	46.543045
1770.000000	46.071143
1760.000000	45.840797
1750.000000	45.422287
1740.000000	45.063744
1730.000000	44.737402
1720.000000	45.272568
1710.000000	46.154093
1700.000000	46.591902
1690.000000	47.382548
1680.000000	48.636808
1670.000000	49.752099
1660.000000	50.741422
1650.000000	51.535186
1640.000000	51.400692
1630.000000	50.883533
1620.000000	50.397271
1610.000000	49.821023
1600.000000	49.315844
1590.000000	48.898025
1580.000000	48.353943
1570.000000	47.951144
1560.000000	47.615672
1550.000000	47.211571
1540.000000	46.632750
1530.000000	45.966551
1520.000000	45.375888
1510.000000	45.129348
1500.000000	44.935264
1490.000000	45.012415
1480.000000	45.354029
1470.000000	45.696462
1460.000000	46.109899
1450.000000	46.697077
1440.000000	47.519473
1430.000000	48.297377
1420.000000	49.170277
1410.000000	50.567053
1400.000000	53.149472
1390.000000	56.138290
1380.000000	57.950494
1370.000000	58.588190
1360.000000	58.869711
1350.000000	59.118964
1340.000000	59.448344
1330.000000	60.121895
1320.000000	61.278118
1310.000000	62.294338
1300.000000	62.626697
1290.000000	62.726263
1280.000000	62.409797
1270.000000	62.156822
1260.000000	62.139146
1250.000000	62.132515
1240.000000	61.921058
1230.000000	61.621927
1220.000000	61.277073
1210.000000	60.946715
1200.000000	60.636018
1190.000000	60.484567
1180.000000	60.684382
1170.000000	61.642067
1160.000000	62.801533
1150.000000	63.423106
1140.000000	63.866964
1130.000000	64.240641
1120.000000	64.482084
1110.000000	64.733664
1100.000000	64.748837
1090.000000	64.839882
1080.000000	64.710919
1070.000000	64.484863
1060.000000	64.399804
1050.000000	64.396043
1040.000000	64.308665
1030.000000	64.264864
1020.000000	64.376842
1010.000000	64.604992
1000.000000	65.249897
990.000000	65.442692
980.000000	65.260825
970.000000	65.326614
960.000000	65.363961
950.000000	65.709325
940.000000	65.805273
930.000000	65.537176
920.000000	65.389903
910.000000	65.489743
900.000000	65.461215
890.000000	65.682449
880.000000	65.639106
870.000000	64.820799
860.000000	65.576813
850.000000	65.906616
840.000000	65.120496
830.000000	65.045442
820.000000	65.033445
810.000000	64.839519
800.000000	64.771099
790.000000	64.864389
780.000000	64.739799
770.000000	64.857263
760.000000	64.754967
750.000000	64.346294
740.000000	64.339893
730.000000	64.239655
720.000000	63.955592
710.000000	63.721818
700.000000	63.493761
690.000000	63.137037
680.000000	62.927810
670.000000	62.699187
660.000000	62.326524
650.000000	62.116414
640.000000	61.877494
630.000000	61.470724
620.000000	61.138232
610.000000	60.640342
600.000000	60.238043
590.000000	59.877261
580.000000	59.407438
570.000000	58.985353
560.000000	58.549888
550.000000	57.976571
540.000000	57.345379
530.000000	56.814912
520.000000	56.159187
510.000000	55.426458
500.000000	54.641217
490.000000	53.832982
480.000000	52.973918
470.000000	52.170264
460.000000	51.121553
450.000000	49.760421
440.000000	48.425593
430.000000	47.041797
420.000000	45.508223
410.000000	44.009465
400.000000	42.745150
390.000000	41.628937
380.000000	40.303048
370.000000	38.969026
360.000000	37.894169
350.000000	36.605687
340.000000	35.093502
330.000000	33.647524
320.000000	31.880735
310.000000	30.171475
300.000000	28.203195
290.000000	23.828873
280.000000	20.205511
270.000000	19.218017
260.000000	18.703900
250.000000	17.212692
