PE UV       SUBTECH     SPECTRUM    ASCII       PEDS        4.00        
   -1
3G-H10-F008.Sample.Raw.asc
22/03/09
15:50:29.00
22/03/09
15:50:29.00
Administrator

250.000000
1
Lambda 750
750N8071901
PerkinElmer UV WinLab 6.0.4.0738 / 1.61.00 Lambda 900

0
0
3350/servo 860.8/2
0
0
UV/VIS
1
1
1
CommonBeamDepol,150mm sphere / downward view
0
0
0
0
Program
Program
3350/servo 860.8/2
3350/0.2 860.8/0.2
3350/0.2 860.8/0.2
0
1
 
 
 
0
 
860.8
319.2
860.8
Front
100
on
 
 
0
0
0
 
0
 
 
 
0
 
 
0
0
0
0
0
 
 
 
 
0
0


0
0
#HDR
-1
-1
#GR
nm
%R
1.0
0.0
2500.000000
-10.000000
226
8
67.306182
7.588705
#DATA
2500.000000	7.588705
2490.000000	15.493046
2480.000000	15.391819
2470.000000	19.669905
2460.000000	19.553809
2450.000000	19.925723
2440.000000	18.240722
2430.000000	21.091832
2420.000000	16.783098
2410.000000	17.845601
2400.000000	18.424488
2390.000000	19.403098
2380.000000	15.697587
2370.000000	20.661428
2360.000000	19.384774
2350.000000	20.308217
2340.000000	22.596448
2330.000000	20.757196
2320.000000	17.103736
2310.000000	16.028479
2300.000000	19.638057
2290.000000	19.251048
2280.000000	20.336147
2270.000000	19.398032
2260.000000	19.002622
2250.000000	20.645415
2240.000000	21.522506
2230.000000	19.992471
2220.000000	21.167041
2210.000000	21.432424
2200.000000	21.943857
2190.000000	21.912523
2180.000000	21.682173
2170.000000	22.321538
2160.000000	21.162409
2150.000000	22.512461
2140.000000	22.718295
2130.000000	23.622876
2120.000000	22.795480
2110.000000	23.839800
2100.000000	25.375775
2090.000000	25.377538
2080.000000	24.869997
2070.000000	23.354911
2060.000000	23.022953
2050.000000	22.504230
2040.000000	22.601176
2030.000000	21.832920
2020.000000	22.463123
2010.000000	22.969066
2000.000000	22.450230
1990.000000	22.009141
1980.000000	21.625806
1970.000000	20.814651
1960.000000	19.696272
1950.000000	19.640036
1940.000000	19.346687
1930.000000	20.630152
1920.000000	21.167623
1910.000000	23.393565
1900.000000	26.434163
1890.000000	31.372010
1880.000000	35.041224
1870.000000	38.646920
1860.000000	40.544519
1850.000000	41.257171
1840.000000	41.498557
1830.000000	40.873996
1820.000000	40.559331
1810.000000	39.937400
1800.000000	39.422502
1790.000000	38.800442
1780.000000	38.560939
1770.000000	37.853085
1760.000000	37.023815
1750.000000	36.595728
1740.000000	35.923097
1730.000000	35.626582
1720.000000	36.339242
1710.000000	37.641300
1700.000000	38.043057
1690.000000	38.760965
1680.000000	40.734022
1670.000000	42.835830
1660.000000	44.380639
1650.000000	45.059067
1640.000000	44.963251
1630.000000	44.358870
1620.000000	43.737397
1610.000000	42.934304
1600.000000	42.057016
1590.000000	41.365605
1580.000000	40.725299
1570.000000	40.077056
1560.000000	39.538673
1550.000000	39.083815
1540.000000	38.224781
1530.000000	37.466799
1520.000000	36.798718
1510.000000	36.379526
1500.000000	36.107059
1490.000000	36.147052
1480.000000	36.661714
1470.000000	37.204308
1460.000000	37.707170
1450.000000	38.471451
1440.000000	39.468969
1430.000000	40.148405
1420.000000	41.482525
1410.000000	43.951313
1400.000000	47.728181
1390.000000	52.106561
1380.000000	54.937071
1370.000000	55.996062
1360.000000	56.560372
1350.000000	56.948024
1340.000000	58.012454
1330.000000	59.409973
1320.000000	60.763061
1310.000000	61.795205
1300.000000	62.329098
1290.000000	62.404188
1280.000000	62.158604
1270.000000	61.883695
1260.000000	61.942178
1250.000000	61.784366
1240.000000	61.430821
1230.000000	60.927196
1220.000000	60.334212
1210.000000	59.814629
1200.000000	59.100336
1190.000000	58.792802
1180.000000	59.380778
1170.000000	60.651057
1160.000000	62.167005
1150.000000	63.249410
1140.000000	64.187779
1130.000000	65.138618
1120.000000	65.523929
1110.000000	65.653403
1100.000000	65.758720
1090.000000	65.834650
1080.000000	65.750006
1070.000000	65.751926
1060.000000	65.397762
1050.000000	65.217754
1040.000000	65.145997
1030.000000	65.013899
1020.000000	64.990016
1010.000000	65.343115
1000.000000	66.290516
990.000000	66.765837
980.000000	66.646241
970.000000	66.777983
960.000000	67.036694
950.000000	67.000253
940.000000	67.033354
930.000000	67.014452
920.000000	66.658369
910.000000	66.532758
900.000000	66.799921
890.000000	66.981895
880.000000	66.918992
870.000000	67.306182
860.000000	67.236443
850.000000	66.593992
840.000000	66.482096
830.000000	66.168542
820.000000	66.110972
810.000000	66.092145
800.000000	66.088289
790.000000	65.975126
780.000000	65.792859
770.000000	65.888500
760.000000	65.540561
750.000000	65.353406
740.000000	65.129862
730.000000	64.959761
720.000000	64.682295
710.000000	64.531476
700.000000	64.160415
690.000000	63.732094
680.000000	63.433552
670.000000	62.879705
660.000000	62.439577
650.000000	62.014795
640.000000	61.445902
630.000000	60.757703
620.000000	60.044177
610.000000	59.240053
600.000000	58.595746
590.000000	57.925943
580.000000	57.170919
570.000000	56.416196
560.000000	55.739071
550.000000	54.930170
540.000000	53.937120
530.000000	52.895567
520.000000	51.937302
510.000000	50.890492
500.000000	49.684335
490.000000	48.341084
480.000000	46.749745
470.000000	45.143610
460.000000	43.356695
450.000000	41.229943
440.000000	38.922204
430.000000	36.510165
420.000000	34.325509
410.000000	32.794662
400.000000	31.873743
390.000000	31.088823
380.000000	30.158025
370.000000	29.139913
360.000000	27.964180
350.000000	26.611340
340.000000	25.718531
330.000000	24.976008
320.000000	24.120791
310.000000	23.695497
300.000000	21.810652
290.000000	18.947271
280.000000	17.076148
270.000000	16.947921
260.000000	16.873426
250.000000	15.998266
