PE UV       SUBTECH     SPECTRUM    ASCII       PEDS        4.00        
   -1
3G-H10-F010.Sample.Raw.asc
22/03/09
15:56:41.00
22/03/09
15:56:41.00
Administrator

250.000000
1
Lambda 750
750N8071901
PerkinElmer UV WinLab 6.0.4.0738 / 1.61.00 Lambda 900

0
0
3350/servo 860.8/2
0
0
UV/VIS
1
1
1
CommonBeamDepol,150mm sphere / downward view
0
0
0
0
Program
Program
3350/servo 860.8/2
3350/0.2 860.8/0.2
3350/0.2 860.8/0.2
0
1
 
 
 
0
 
860.8
319.2
860.8
Front
100
on
 
 
0
0
0
 
0
 
 
 
0
 
 
0
0
0
0
0
 
 
 
 
0
0


0
0
#HDR
-1
-1
#GR
nm
%R
1.0
0.0
2500.000000
-10.000000
226
8
67.337731
14.224005
#DATA
2500.000000	15.787134
2490.000000	16.876969
2480.000000	14.224005
2470.000000	18.721678
2460.000000	17.566596
2450.000000	23.914216
2440.000000	17.762528
2430.000000	19.141819
2420.000000	17.071715
2410.000000	18.950644
2400.000000	17.884982
2390.000000	20.636022
2380.000000	18.708574
2370.000000	20.975076
2360.000000	22.369228
2350.000000	22.229782
2340.000000	19.836055
2330.000000	21.295975
2320.000000	17.564685
2310.000000	17.391333
2300.000000	20.495256
2290.000000	19.215247
2280.000000	19.675996
2270.000000	19.393513
2260.000000	20.187411
2250.000000	21.744543
2240.000000	22.079037
2230.000000	23.422733
2220.000000	21.597176
2210.000000	21.420077
2200.000000	23.944530
2190.000000	22.376533
2180.000000	22.867364
2170.000000	21.581294
2160.000000	21.735179
2150.000000	22.209850
2140.000000	23.335102
2130.000000	25.283207
2120.000000	23.005371
2110.000000	24.032568
2100.000000	24.484712
2090.000000	25.253691
2080.000000	25.021667
2070.000000	24.663374
2060.000000	24.077334
2050.000000	22.537149
2040.000000	22.580415
2030.000000	22.018813
2020.000000	23.387350
2010.000000	23.933904
2000.000000	23.785126
1990.000000	22.569005
1980.000000	22.090913
1970.000000	21.652754
1960.000000	21.124796
1950.000000	20.289283
1940.000000	20.338156
1930.000000	20.090401
1920.000000	21.673796
1910.000000	23.984400
1900.000000	27.171891
1890.000000	31.787988
1880.000000	36.399974
1870.000000	38.838985
1860.000000	40.363318
1850.000000	41.643529
1840.000000	42.431329
1830.000000	41.487360
1820.000000	41.128219
1810.000000	40.407229
1800.000000	39.856973
1790.000000	39.393739
1780.000000	39.131440
1770.000000	38.323645
1760.000000	37.863181
1750.000000	37.064175
1740.000000	36.196154
1730.000000	36.434843
1720.000000	37.054819
1710.000000	37.961732
1700.000000	38.799014
1690.000000	39.267688
1680.000000	41.076452
1670.000000	43.510808
1660.000000	44.855449
1650.000000	45.462516
1640.000000	45.545185
1630.000000	45.029980
1620.000000	44.199153
1610.000000	43.563797
1600.000000	42.426197
1590.000000	41.681852
1580.000000	41.311265
1570.000000	40.506027
1560.000000	40.034695
1550.000000	39.699163
1540.000000	39.023813
1530.000000	38.155418
1520.000000	37.437844
1510.000000	36.800343
1500.000000	36.621234
1490.000000	36.770880
1480.000000	37.262011
1470.000000	37.812984
1460.000000	38.351843
1450.000000	38.963259
1440.000000	39.930707
1430.000000	40.828484
1420.000000	41.961864
1410.000000	44.308182
1400.000000	48.231065
1390.000000	52.453131
1380.000000	55.124422
1370.000000	56.179163
1360.000000	56.708355
1350.000000	57.144259
1340.000000	58.117653
1330.000000	59.599318
1320.000000	61.348183
1310.000000	62.341628
1300.000000	62.805730
1290.000000	62.633482
1280.000000	62.305969
1270.000000	62.174490
1260.000000	62.260793
1250.000000	62.169052
1240.000000	61.902513
1230.000000	61.492559
1220.000000	61.012898
1210.000000	60.393428
1200.000000	59.667258
1190.000000	59.400057
1180.000000	59.896905
1170.000000	61.113496
1160.000000	62.630585
1150.000000	63.639842
1140.000000	64.483250
1130.000000	65.383770
1120.000000	65.846516
1110.000000	65.942568
1100.000000	66.021150
1090.000000	66.106255
1080.000000	66.065303
1070.000000	65.999704
1060.000000	65.798029
1050.000000	65.579020
1040.000000	65.318475
1030.000000	65.025429
1020.000000	64.958014
1010.000000	65.303390
1000.000000	66.148979
990.000000	66.660269
980.000000	66.707519
970.000000	66.713738
960.000000	66.846503
950.000000	67.082965
940.000000	67.069164
930.000000	66.933712
920.000000	66.637833
910.000000	66.680306
900.000000	66.708283
890.000000	67.004397
880.000000	67.337731
870.000000	66.803763
860.000000	66.647224
850.000000	66.204955
840.000000	66.575451
830.000000	66.783121
820.000000	66.700756
810.000000	66.725458
800.000000	66.570920
790.000000	66.474496
780.000000	66.657774
770.000000	66.581573
760.000000	66.229367
750.000000	66.107322
740.000000	65.941872
730.000000	65.621569
720.000000	65.326414
710.000000	65.229317
700.000000	64.888134
690.000000	64.643581
680.000000	64.365041
670.000000	63.907734
660.000000	63.456526
650.000000	63.080283
640.000000	62.491243
630.000000	61.919234
620.000000	61.191679
610.000000	60.484486
600.000000	59.910734
590.000000	59.313122
580.000000	58.686938
570.000000	57.950317
560.000000	57.169132
550.000000	56.395403
540.000000	55.541362
530.000000	54.615317
520.000000	53.717355
510.000000	52.684120
500.000000	51.548111
490.000000	50.284279
480.000000	48.777427
470.000000	47.158080
460.000000	45.356770
450.000000	43.262775
440.000000	41.083830
430.000000	38.802901
420.000000	36.606857
410.000000	34.977482
400.000000	34.092657
390.000000	33.402976
380.000000	32.432827
370.000000	31.289524
360.000000	29.910571
350.000000	28.754009
340.000000	27.797610
330.000000	26.850576
320.000000	25.895912
310.000000	24.485550
300.000000	21.737168
290.000000	18.978578
280.000000	17.240109
270.000000	16.938463
260.000000	16.929659
250.000000	15.999208
