PE UV       SUBTECH     SPECTRUM    ASCII       PEDS        4.00        
   -1
3G-N10-F024.Sample.Raw.asc
22/04/20
16:35:56.00
22/04/20
16:35:56.00
Administrator

250.000000
1
Lambda 750
750N8071901
PerkinElmer UV WinLab 6.0.4.0738 / 1.61.00 Lambda 900

0
0
3350/servo 860.8/2
0
0
UV/VIS
1
1
1
CommonBeamDepol,150mm sphere / downward view
0
0
0
0
Program
Program
3350/servo 860.8/2
3350/0.2 860.8/0.2
3350/0.2 860.8/0.2
0
1
 
 
 
0
 
860.8
319.2
860.8
Front
100
on
 
 
0
0
0
 
0
 
 
 
0
 
 
0
0
0
0
0
 
 
 
 
0
0


0
0
#HDR
-1
-1
#GR
nm
%R
1.0
0.0
2500.000000
-10.000000
226
8
64.973939
5.913101
#DATA
2500.000000	15.998122
2490.000000	11.407643
2480.000000	7.416207
2470.000000	5.913101
2460.000000	14.519752
2450.000000	16.876735
2440.000000	19.169590
2430.000000	11.063473
2420.000000	15.865373
2410.000000	23.873124
2400.000000	19.105357
2390.000000	18.175691
2380.000000	15.393567
2370.000000	20.472882
2360.000000	18.466883
2350.000000	22.642663
2340.000000	14.419077
2330.000000	18.414646
2320.000000	19.629348
2310.000000	18.310816
2300.000000	20.094795
2290.000000	14.399901
2280.000000	14.094642
2270.000000	17.936882
2260.000000	19.161787
2250.000000	20.645846
2240.000000	21.309345
2230.000000	20.957231
2220.000000	21.290800
2210.000000	21.967998
2200.000000	21.187462
2190.000000	22.015759
2180.000000	20.126306
2170.000000	17.539174
2160.000000	18.794848
2150.000000	20.693735
2140.000000	21.241351
2130.000000	21.987529
2120.000000	24.274030
2110.000000	23.284171
2100.000000	23.539084
2090.000000	24.144602
2080.000000	23.230206
2070.000000	22.918415
2060.000000	22.771653
2050.000000	21.206923
2040.000000	20.356573
2030.000000	21.278052
2020.000000	21.690211
2010.000000	22.270726
2000.000000	21.630144
1990.000000	20.669495
1980.000000	19.478122
1970.000000	19.308516
1960.000000	19.033799
1950.000000	18.828859
1940.000000	17.825939
1930.000000	18.251732
1920.000000	19.484408
1910.000000	21.186625
1900.000000	26.508396
1890.000000	31.554298
1880.000000	35.519708
1870.000000	38.925561
1860.000000	40.785246
1850.000000	42.080347
1840.000000	41.928513
1830.000000	41.718069
1820.000000	41.055378
1810.000000	40.267914
1800.000000	39.750034
1790.000000	39.747565
1780.000000	39.456743
1770.000000	38.692847
1760.000000	37.804391
1750.000000	36.455924
1740.000000	36.264062
1730.000000	36.201790
1720.000000	37.105316
1710.000000	38.339903
1700.000000	38.671948
1690.000000	39.132728
1680.000000	41.133927
1670.000000	43.421695
1660.000000	44.903457
1650.000000	45.502074
1640.000000	45.351113
1630.000000	44.868288
1620.000000	44.379028
1610.000000	43.422176
1600.000000	42.361589
1590.000000	41.657155
1580.000000	40.912227
1570.000000	40.281192
1560.000000	39.978510
1550.000000	39.509658
1540.000000	38.713260
1530.000000	37.708823
1520.000000	36.966748
1510.000000	36.397435
1500.000000	36.167965
1490.000000	36.216687
1480.000000	36.629021
1470.000000	37.124913
1460.000000	37.736189
1450.000000	38.532688
1440.000000	39.660758
1430.000000	40.815262
1420.000000	42.329600
1410.000000	44.605998
1400.000000	48.169946
1390.000000	52.044786
1380.000000	54.471284
1370.000000	55.506718
1360.000000	56.135804
1350.000000	56.729830
1340.000000	56.971521
1330.000000	57.725506
1320.000000	59.256751
1310.000000	60.562340
1300.000000	61.134899
1290.000000	61.309197
1280.000000	61.057448
1270.000000	60.791142
1260.000000	60.750789
1250.000000	60.586525
1240.000000	60.375204
1230.000000	60.067197
1220.000000	59.483736
1210.000000	58.878106
1200.000000	58.316811
1190.000000	58.247922
1180.000000	58.650670
1170.000000	59.632488
1160.000000	60.895580
1150.000000	61.963352
1140.000000	62.844433
1130.000000	63.661116
1120.000000	63.893992
1110.000000	63.925661
1100.000000	63.830933
1090.000000	64.033767
1080.000000	63.854806
1070.000000	63.708567
1060.000000	63.712406
1050.000000	63.641675
1040.000000	63.409911
1030.000000	63.428438
1020.000000	63.589715
1010.000000	63.940714
1000.000000	64.540129
990.000000	64.671051
980.000000	64.632189
970.000000	64.825517
960.000000	64.946015
950.000000	64.973939
940.000000	64.963896
930.000000	64.797052
920.000000	64.612542
910.000000	64.735924
900.000000	64.846721
890.000000	64.844273
880.000000	64.406201
870.000000	63.944601
860.000000	63.456526
850.000000	63.872158
840.000000	64.822909
830.000000	64.917392
820.000000	64.678487
810.000000	64.714964
800.000000	64.413808
790.000000	64.019372
780.000000	64.021624
770.000000	64.212180
760.000000	64.064973
750.000000	63.893005
740.000000	63.787036
730.000000	63.690685
720.000000	63.481514
710.000000	63.302268
700.000000	63.138704
690.000000	62.791960
680.000000	62.491913
670.000000	62.359352
660.000000	62.108651
650.000000	61.660638
640.000000	61.177117
630.000000	60.805340
620.000000	60.324598
610.000000	59.716269
600.000000	59.214489
590.000000	58.739750
580.000000	58.149608
570.000000	57.525890
560.000000	56.910860
550.000000	56.191623
540.000000	55.335228
530.000000	54.477649
520.000000	53.664616
510.000000	52.732859
500.000000	51.592552
490.000000	50.243875
480.000000	48.791043
470.000000	47.233222
460.000000	45.346393
450.000000	43.281470
440.000000	41.025125
430.000000	38.591285
420.000000	36.208029
410.000000	34.179861
400.000000	32.696681
390.000000	31.492051
380.000000	30.094040
370.000000	28.520659
360.000000	27.085206
350.000000	26.173406
340.000000	24.955730
330.000000	23.963128
320.000000	23.178612
310.000000	21.201567
300.000000	19.303302
290.000000	16.935614
280.000000	15.531142
270.000000	15.481180
260.000000	15.699520
250.000000	15.174870
