PE UV       SUBTECH     SPECTRUM    ASCII       PEDS        4.00        
   -1
3G-N10-F026.Sample.Raw.asc
22/04/20
16:43:20.00
22/04/20
16:43:20.00
Administrator

250.000000
1
Lambda 750
750N8071901
PerkinElmer UV WinLab 6.0.4.0738 / 1.61.00 Lambda 900

0
0
3350/servo 860.8/2
0
0
UV/VIS
1
1
1
CommonBeamDepol,150mm sphere / downward view
0
0
0
0
Program
Program
3350/servo 860.8/2
3350/0.2 860.8/0.2
3350/0.2 860.8/0.2
0
1
 
 
 
0
 
860.8
319.2
860.8
Front
100
on
 
 
0
0
0
 
0
 
 
 
0
 
 
0
0
0
0
0
 
 
 
 
0
0


0
0
#HDR
-1
-1
#GR
nm
%R
1.0
0.0
2500.000000
-10.000000
226
8
64.083936
13.313919
#DATA
2500.000000	13.944940
2490.000000	16.911032
2480.000000	14.354129
2470.000000	13.313919
2460.000000	14.982421
2450.000000	16.522031
2440.000000	15.130589
2430.000000	15.079853
2420.000000	15.490855
2410.000000	19.461483
2400.000000	17.234938
2390.000000	15.264681
2380.000000	17.049496
2370.000000	18.865057
2360.000000	20.595537
2350.000000	19.568347
2340.000000	17.286727
2330.000000	16.875745
2320.000000	16.412824
2310.000000	15.954537
2300.000000	15.947850
2290.000000	17.098209
2280.000000	17.763023
2270.000000	20.469836
2260.000000	18.722463
2250.000000	19.432230
2240.000000	19.503794
2230.000000	20.405511
2220.000000	23.139993
2210.000000	21.576527
2200.000000	20.994647
2190.000000	20.326972
2180.000000	19.125069
2170.000000	19.164709
2160.000000	18.643312
2150.000000	20.474915
2140.000000	21.687667
2130.000000	23.384672
2120.000000	23.488597
2110.000000	24.047463
2100.000000	24.367463
2090.000000	22.136029
2080.000000	23.157172
2070.000000	22.314194
2060.000000	22.813911
2050.000000	21.110703
2040.000000	19.910540
2030.000000	21.272983
2020.000000	21.365195
2010.000000	21.792832
2000.000000	21.529289
1990.000000	20.605752
1980.000000	19.353527
1970.000000	18.988253
1960.000000	18.390229
1950.000000	17.922752
1940.000000	17.646367
1930.000000	17.839227
1920.000000	18.647100
1910.000000	21.109264
1900.000000	26.318521
1890.000000	30.699104
1880.000000	35.354028
1870.000000	38.996559
1860.000000	40.084453
1850.000000	41.467393
1840.000000	41.402278
1830.000000	41.069417
1820.000000	40.895898
1810.000000	40.075631
1800.000000	39.249973
1790.000000	39.081596
1780.000000	38.843306
1770.000000	38.307481
1760.000000	37.645270
1750.000000	36.693720
1740.000000	35.880281
1730.000000	36.182474
1720.000000	36.678699
1710.000000	37.661763
1700.000000	38.533930
1690.000000	39.025974
1680.000000	40.609805
1670.000000	42.960398
1660.000000	44.527960
1650.000000	44.981833
1640.000000	44.874962
1630.000000	44.438023
1620.000000	43.737053
1610.000000	42.894384
1600.000000	41.957992
1590.000000	41.158035
1580.000000	40.409877
1570.000000	39.821118
1560.000000	39.590532
1550.000000	39.042206
1540.000000	38.110521
1530.000000	37.247198
1520.000000	36.524595
1510.000000	36.074537
1500.000000	35.692020
1490.000000	35.674003
1480.000000	36.027681
1470.000000	36.664652
1460.000000	37.294510
1450.000000	38.007178
1440.000000	39.078428
1430.000000	40.289224
1420.000000	41.771612
1410.000000	44.139846
1400.000000	47.577529
1390.000000	51.463491
1380.000000	53.805907
1370.000000	54.886876
1360.000000	55.484944
1350.000000	56.073356
1340.000000	56.353477
1330.000000	56.862353
1320.000000	58.354943
1310.000000	59.835757
1300.000000	60.538578
1290.000000	60.815506
1280.000000	60.548369
1270.000000	60.257062
1260.000000	60.278455
1250.000000	60.163481
1240.000000	59.988254
1230.000000	59.567125
1220.000000	58.891388
1210.000000	58.301383
1200.000000	57.853542
1190.000000	57.704547
1180.000000	58.192873
1170.000000	59.162595
1160.000000	60.365081
1150.000000	61.334925
1140.000000	62.198440
1130.000000	62.982035
1120.000000	63.220842
1110.000000	63.267923
1100.000000	63.127127
1090.000000	63.083900
1080.000000	63.055552
1070.000000	62.976798
1060.000000	62.882296
1050.000000	62.812867
1040.000000	62.649199
1030.000000	62.684361
1020.000000	62.850190
1010.000000	63.263247
1000.000000	63.908045
990.000000	63.979709
980.000000	63.842824
970.000000	63.942558
960.000000	64.041730
950.000000	64.083936
940.000000	64.066961
930.000000	63.916446
920.000000	63.762496
910.000000	63.899182
900.000000	63.890327
890.000000	63.635932
880.000000	63.403774
870.000000	63.668885
860.000000	63.870812
850.000000	63.771487
840.000000	63.949334
830.000000	63.672719
820.000000	63.617659
810.000000	63.623710
800.000000	63.591455
790.000000	63.519723
780.000000	63.347943
770.000000	63.309451
760.000000	63.288048
750.000000	63.243931
740.000000	62.983907
730.000000	62.845089
720.000000	62.765429
710.000000	62.573568
700.000000	62.394843
690.000000	62.107543
680.000000	61.879768
670.000000	61.660836
660.000000	61.253414
650.000000	60.936023
640.000000	60.522620
630.000000	60.129338
620.000000	59.702859
610.000000	59.215782
600.000000	58.663317
590.000000	58.176248
580.000000	57.690322
570.000000	57.116148
560.000000	56.494393
550.000000	55.815820
540.000000	55.054651
530.000000	54.220835
520.000000	53.345143
510.000000	52.415588
500.000000	51.292793
490.000000	49.975457
480.000000	48.682234
470.000000	47.145221
460.000000	45.408034
450.000000	43.359877
440.000000	41.081243
430.000000	38.675376
420.000000	36.290146
410.000000	34.212061
400.000000	32.753840
390.000000	31.452062
380.000000	29.983016
370.000000	28.257232
360.000000	26.733877
350.000000	25.826664
340.000000	24.463965
330.000000	23.092042
320.000000	22.311271
310.000000	20.375994
300.000000	18.435181
290.000000	16.386598
280.000000	15.347956
270.000000	15.140500
260.000000	15.244814
250.000000	14.688385
