PE UV       SUBTECH     SPECTRUM    ASCII       PEDS        4.00        
   -1
3G-N10-F017.Sample.Raw.asc
22/04/20
16:13:34.00
22/04/20
16:13:34.00
Administrator

250.000000
1
Lambda 750
750N8071901
PerkinElmer UV WinLab 6.0.4.0738 / 1.61.00 Lambda 900

0
0
3350/servo 860.8/2
0
0
UV/VIS
1
1
1
CommonBeamDepol,150mm sphere / downward view
0
0
0
0
Program
Program
3350/servo 860.8/2
3350/0.2 860.8/0.2
3350/0.2 860.8/0.2
0
1
 
 
 
0
 
860.8
319.2
860.8
Front
100
on
 
 
0
0
0
 
0
 
 
 
0
 
 
0
0
0
0
0
 
 
 
 
0
0


0
0
#HDR
-1
-1
#GR
nm
%R
1.0
0.0
2500.000000
-10.000000
226
8
63.972801
9.627647
#DATA
2500.000000	9.627647
2490.000000	13.315396
2480.000000	12.597316
2470.000000	15.984136
2460.000000	17.551516
2450.000000	14.730493
2440.000000	20.582073
2430.000000	13.496244
2420.000000	19.306333
2410.000000	18.188708
2400.000000	19.738244
2390.000000	15.630941
2380.000000	15.209575
2370.000000	18.539887
2360.000000	17.995982
2350.000000	18.895641
2340.000000	17.938950
2330.000000	17.475035
2320.000000	17.756735
2310.000000	17.561350
2300.000000	19.049987
2290.000000	16.421673
2280.000000	16.620612
2270.000000	19.030799
2260.000000	18.009117
2250.000000	19.294191
2240.000000	19.092743
2230.000000	22.445562
2220.000000	22.743827
2210.000000	20.433786
2200.000000	20.008372
2190.000000	21.896490
2180.000000	19.738303
2170.000000	19.375784
2160.000000	19.717431
2150.000000	19.875069
2140.000000	20.174486
2130.000000	20.859898
2120.000000	22.615398
2110.000000	22.689940
2100.000000	23.374658
2090.000000	23.276560
2080.000000	23.256649
2070.000000	23.167616
2060.000000	22.166158
2050.000000	21.477857
2040.000000	20.291949
2030.000000	20.565911
2020.000000	21.270425
2010.000000	22.147912
2000.000000	21.231193
1990.000000	20.839477
1980.000000	19.919691
1970.000000	19.090685
1960.000000	18.437081
1950.000000	17.491926
1940.000000	17.547766
1930.000000	18.683757
1920.000000	19.848566
1910.000000	21.616904
1900.000000	26.550801
1890.000000	30.609286
1880.000000	35.100371
1870.000000	38.692098
1860.000000	40.881070
1850.000000	41.051324
1840.000000	41.462655
1830.000000	41.159171
1820.000000	40.589695
1810.000000	40.319831
1800.000000	39.826817
1790.000000	39.246312
1780.000000	39.000697
1770.000000	38.404627
1760.000000	37.638828
1750.000000	36.813265
1740.000000	36.251183
1730.000000	35.756229
1720.000000	36.616283
1710.000000	37.709195
1700.000000	38.510820
1690.000000	39.180959
1680.000000	40.900770
1670.000000	42.921849
1660.000000	44.422512
1650.000000	44.889232
1640.000000	44.801165
1630.000000	44.563891
1620.000000	43.896104
1610.000000	42.910436
1600.000000	42.011419
1590.000000	41.243156
1580.000000	40.587860
1570.000000	40.006435
1560.000000	39.589888
1550.000000	39.103933
1540.000000	38.235049
1530.000000	37.364690
1520.000000	36.607499
1510.000000	36.081612
1500.000000	35.793779
1490.000000	35.815153
1480.000000	36.195542
1470.000000	36.815073
1460.000000	37.372302
1450.000000	38.043199
1440.000000	39.248756
1430.000000	40.329144
1420.000000	41.738030
1410.000000	44.087549
1400.000000	47.575598
1390.000000	51.364152
1380.000000	53.793739
1370.000000	54.820143
1360.000000	55.408147
1350.000000	55.982143
1340.000000	56.327699
1330.000000	56.982253
1320.000000	58.528467
1310.000000	59.855850
1300.000000	60.582243
1290.000000	60.622861
1280.000000	60.359749
1270.000000	60.098599
1260.000000	59.927133
1250.000000	59.830391
1240.000000	59.701794
1230.000000	59.359413
1220.000000	58.716405
1210.000000	58.096427
1200.000000	57.610569
1190.000000	57.509322
1180.000000	57.997139
1170.000000	58.940898
1160.000000	60.146679
1150.000000	61.172979
1140.000000	61.704597
1130.000000	62.393069
1120.000000	62.939506
1110.000000	63.187148
1100.000000	63.020723
1090.000000	63.033940
1080.000000	62.781686
1070.000000	62.753697
1060.000000	62.711821
1050.000000	62.589311
1040.000000	62.443516
1030.000000	62.524555
1020.000000	62.630722
1010.000000	62.897879
1000.000000	63.593565
990.000000	63.761949
980.000000	63.574103
970.000000	63.701977
960.000000	63.774275
950.000000	63.862049
940.000000	63.937343
930.000000	63.936543
920.000000	63.819449
910.000000	63.693455
900.000000	63.589185
890.000000	63.552333
880.000000	63.575164
870.000000	63.449010
860.000000	63.806943
850.000000	63.717101
840.000000	63.972801
830.000000	63.851947
820.000000	63.751719
810.000000	63.867576
800.000000	63.799393
790.000000	63.588742
780.000000	63.314229
770.000000	63.368958
760.000000	63.381207
750.000000	63.369306
740.000000	63.165589
730.000000	63.078065
720.000000	62.916152
710.000000	62.894536
700.000000	62.794166
690.000000	62.493061
680.000000	62.271590
670.000000	62.005218
660.000000	61.681337
650.000000	61.382503
640.000000	61.036693
630.000000	60.662445
620.000000	60.202569
610.000000	59.740015
600.000000	59.213272
590.000000	58.688080
580.000000	58.231624
570.000000	57.732278
560.000000	57.087525
550.000000	56.374051
540.000000	55.585917
530.000000	54.802045
520.000000	53.969793
510.000000	53.026303
500.000000	51.965057
490.000000	50.637182
480.000000	49.242972
470.000000	47.811429
460.000000	46.004722
450.000000	43.948545
440.000000	41.789424
430.000000	39.441340
420.000000	36.977494
410.000000	34.817794
400.000000	33.259148
390.000000	31.862852
380.000000	30.302285
370.000000	28.771626
360.000000	27.321383
350.000000	26.144657
340.000000	24.515638
330.000000	23.104006
320.000000	22.099043
310.000000	20.102042
300.000000	18.601300
290.000000	16.479818
280.000000	15.157520
270.000000	14.937613
260.000000	14.990273
250.000000	14.508459
