PE UV       SUBTECH     SPECTRUM    ASCII       PEDS        4.00        
   -1
3G-N10-F011.Sample.Raw.asc
22/04/20
15:51:48.00
22/04/20
15:51:48.00
Administrator

250.000000
1
Lambda 750
750N8071901
PerkinElmer UV WinLab 6.0.4.0738 / 1.61.00 Lambda 900

0
0
3350/servo 860.8/2
0
0
UV/VIS
1
1
1
CommonBeamDepol,150mm sphere / downward view
0
0
0
0
Program
Program
3350/servo 860.8/2
3350/0.2 860.8/0.2
3350/0.2 860.8/0.2
0
1
 
 
 
0
 
860.8
319.2
860.8
Front
100
on
 
 
0
0
0
 
0
 
 
 
0
 
 
0
0
0
0
0
 
 
 
 
0
0


0
0
#HDR
-1
-1
#GR
nm
%R
1.0
0.0
2500.000000
-10.000000
226
8
65.097896
10.802710
#DATA
2500.000000	18.718224
2490.000000	17.323437
2480.000000	17.544556
2470.000000	10.802710
2460.000000	16.987524
2450.000000	17.241379
2440.000000	21.004774
2430.000000	12.792561
2420.000000	13.816723
2410.000000	18.156969
2400.000000	17.996842
2390.000000	16.813023
2380.000000	20.698130
2370.000000	16.644237
2360.000000	18.475201
2350.000000	20.026373
2340.000000	19.399404
2330.000000	17.717235
2320.000000	17.490200
2310.000000	19.344583
2300.000000	15.858738
2290.000000	17.042048
2280.000000	19.566191
2270.000000	20.676659
2260.000000	19.436444
2250.000000	19.740787
2240.000000	20.557672
2230.000000	23.795807
2220.000000	24.865072
2210.000000	21.288941
2200.000000	21.170971
2190.000000	20.892862
2180.000000	19.930727
2170.000000	18.669841
2160.000000	21.055782
2150.000000	20.341970
2140.000000	21.993207
2130.000000	23.043332
2120.000000	23.603709
2110.000000	23.858848
2100.000000	25.110190
2090.000000	22.818198
2080.000000	24.518989
2070.000000	23.597771
2060.000000	22.715518
2050.000000	21.792470
2040.000000	21.192884
2030.000000	21.388294
2020.000000	22.011411
2010.000000	22.665258
2000.000000	22.308679
1990.000000	21.207770
1980.000000	20.319299
1970.000000	20.104637
1960.000000	19.061129
1950.000000	17.885488
1940.000000	18.085829
1930.000000	18.822343
1920.000000	20.218495
1910.000000	21.661658
1900.000000	26.933082
1890.000000	31.522862
1880.000000	35.881892
1870.000000	39.687992
1860.000000	41.655966
1850.000000	41.982860
1840.000000	41.980628
1830.000000	41.764537
1820.000000	41.316926
1810.000000	41.132547
1800.000000	40.629497
1790.000000	40.108648
1780.000000	39.669608
1770.000000	38.970773
1760.000000	38.248254
1750.000000	37.658477
1740.000000	36.885452
1730.000000	36.661516
1720.000000	37.390370
1710.000000	38.351441
1700.000000	39.240068
1690.000000	39.836912
1680.000000	41.707507
1670.000000	43.614438
1660.000000	45.141358
1650.000000	45.894987
1640.000000	45.704055
1630.000000	45.188096
1620.000000	44.733045
1610.000000	43.905023
1600.000000	42.784497
1590.000000	42.035042
1580.000000	41.336549
1570.000000	40.658259
1560.000000	40.421179
1550.000000	39.821507
1540.000000	38.959105
1530.000000	38.016359
1520.000000	37.383838
1510.000000	36.869561
1500.000000	36.529272
1490.000000	36.480294
1480.000000	37.053497
1470.000000	37.621815
1460.000000	38.132221
1450.000000	38.795765
1440.000000	39.890219
1430.000000	41.050273
1420.000000	42.607303
1410.000000	44.961746
1400.000000	48.435890
1390.000000	52.291532
1380.000000	54.749859
1370.000000	55.796106
1360.000000	56.378996
1350.000000	56.995118
1340.000000	57.342734
1330.000000	58.060066
1320.000000	59.732167
1310.000000	60.949936
1300.000000	61.504422
1290.000000	61.635060
1280.000000	61.302850
1270.000000	61.035684
1260.000000	60.981751
1250.000000	60.808151
1240.000000	60.704078
1230.000000	60.359557
1220.000000	59.820740
1210.000000	59.128321
1200.000000	58.622633
1190.000000	58.547267
1180.000000	59.080505
1170.000000	59.934978
1160.000000	61.163737
1150.000000	62.156268
1140.000000	62.677455
1130.000000	63.488610
1120.000000	64.113022
1110.000000	64.309022
1100.000000	64.141171
1090.000000	64.120235
1080.000000	63.927582
1070.000000	63.835416
1060.000000	63.756297
1050.000000	63.749008
1040.000000	63.612430
1030.000000	63.700045
1020.000000	63.860119
1010.000000	64.120578
1000.000000	64.700182
990.000000	64.861357
980.000000	64.777124
970.000000	64.901783
960.000000	65.086228
950.000000	65.093180
940.000000	65.025649
930.000000	65.097896
920.000000	64.915480
910.000000	64.746150
900.000000	64.944920
890.000000	64.991314
880.000000	64.604095
870.000000	64.241839
860.000000	64.004879
850.000000	64.532889
840.000000	65.059930
830.000000	64.931403
820.000000	64.814297
810.000000	64.920232
800.000000	64.816175
790.000000	64.721949
780.000000	64.742031
770.000000	64.660272
760.000000	64.536741
750.000000	64.450897
740.000000	64.296586
730.000000	64.052221
720.000000	63.912496
710.000000	63.805866
700.000000	63.713340
690.000000	63.440998
680.000000	63.206591
670.000000	62.928039
660.000000	62.668853
650.000000	62.382814
640.000000	61.959216
630.000000	61.562559
620.000000	61.078739
610.000000	60.529104
600.000000	60.051589
590.000000	59.609621
580.000000	59.147160
570.000000	58.538406
560.000000	57.972062
550.000000	57.229033
540.000000	56.533169
530.000000	55.700278
520.000000	54.863571
510.000000	53.925448
500.000000	52.807269
490.000000	51.474124
480.000000	50.018238
470.000000	48.479496
460.000000	46.714213
450.000000	44.694640
440.000000	42.445148
430.000000	40.008044
420.000000	37.535888
410.000000	35.414414
400.000000	33.727364
390.000000	32.305148
380.000000	30.885009
370.000000	29.189904
360.000000	27.519961
350.000000	26.470864
340.000000	25.111329
330.000000	24.054282
320.000000	23.208771
310.000000	21.573739
300.000000	19.343831
290.000000	16.965543
280.000000	15.439790
270.000000	15.312028
260.000000	15.484355
250.000000	14.927528
