PE UV       SUBTECH     SPECTRUM    ASCII       PEDS        4.00        
   -1
TDgAgneauUK 32.Sample.asc
18/03/08
14:41:28.00
18/03/08
14:41:28.00
Administrator

200.000000
1
Lambda 750
750N8071901
PerkinElmer UV WinLab 6.0.4.0738 / 1.61.00 Lambda 900

0
0
3350/servo 860.8/2
0
0
UV/VIS
1
1
1
CommonBeamDepol,150mm sphere / downward view
0
0
0
0
Program
Program
3350/servo 860.8/2
3350/0.2 860.8/0.2
3350/0.2 860.8/0.2
0
1
 
 
 
0
 
860.8
319.2
860.8
Front
100
on
 
 
0
0
0
 
0
 
 
 
0
 
 
0
0
0
0
0
 
 
 
 
0
0


0
0
#HDR
-1
-1
#GR
nm
%T
1.0
0.0
2350.000000
-1.000000
2151
8
27.314379
0.033186
#DATA
2350.000000	6.629318
2349.000000	6.351400
2348.000000	6.264714
2347.000000	7.188679
2346.000000	6.870030
2345.000000	6.572154
2344.000000	6.410057
2343.000000	6.493459
2342.000000	6.764529
2341.000000	6.837310
2340.000000	6.620599
2339.000000	7.254558
2338.000000	7.162387
2337.000000	7.323113
2336.000000	7.467941
2335.000000	7.422862
2334.000000	7.326931
2333.000000	7.235433
2332.000000	7.352435
2331.000000	7.455684
2330.000000	7.441609
2329.000000	7.417564
2328.000000	7.519539
2327.000000	7.272073
2326.000000	7.340609
2325.000000	7.418112
2324.000000	7.255371
2323.000000	7.091666
2322.000000	7.355731
2321.000000	7.303691
2320.000000	6.995959
2319.000000	7.095937
2318.000000	7.207654
2317.000000	7.069584
2316.000000	7.022510
2315.000000	7.034098
2314.000000	6.815671
2313.000000	6.773666
2312.000000	6.717024
2311.000000	6.687049
2310.000000	6.939536
2309.000000	6.765508
2308.000000	6.755279
2307.000000	6.719985
2306.000000	6.705078
2305.000000	6.841795
2304.000000	6.781078
2303.000000	6.628365
2302.000000	6.622095
2301.000000	6.780912
2300.000000	6.295862
2299.000000	6.039816
2298.000000	6.055415
2297.000000	6.038494
2296.000000	6.259107
2295.000000	6.344073
2294.000000	6.302286
2293.000000	6.210649
2292.000000	6.287197
2291.000000	6.059907
2290.000000	6.122422
2289.000000	5.965420
2288.000000	6.103077
2287.000000	6.142130
2286.000000	6.000132
2285.000000	6.072017
2284.000000	6.188744
2283.000000	6.017671
2282.000000	5.975237
2281.000000	6.106222
2280.000000	6.247543
2279.000000	6.169366
2278.000000	5.938456
2277.000000	5.977663
2276.000000	5.948204
2275.000000	6.045506
2274.000000	6.329563
2273.000000	6.324734
2272.000000	6.225776
2271.000000	6.195885
2270.000000	6.096402
2269.000000	6.077567
2268.000000	6.176423
2267.000000	6.290306
2266.000000	6.268464
2265.000000	6.241844
2264.000000	6.429243
2263.000000	6.369044
2262.000000	6.411179
2261.000000	6.641236
2260.000000	6.667430
2259.000000	6.599909
2258.000000	6.785667
2257.000000	6.891252
2256.000000	6.983391
2255.000000	7.153453
2254.000000	7.124909
2253.000000	7.114918
2252.000000	7.270214
2251.000000	7.331231
2250.000000	7.440534
2249.000000	7.593703
2248.000000	7.736110
2247.000000	7.849326
2246.000000	7.968333
2245.000000	8.029775
2244.000000	8.026172
2243.000000	8.169370
2242.000000	8.278752
2241.000000	8.347875
2240.000000	8.370637
2239.000000	8.378230
2238.000000	8.420943
2237.000000	8.484323
2236.000000	8.702049
2235.000000	8.756683
2234.000000	8.689649
2233.000000	8.696785
2232.000000	8.772245
2231.000000	8.858284
2230.000000	9.016183
2229.000000	9.120827
2228.000000	9.149246
2227.000000	9.149655
2226.000000	9.019410
2225.000000	8.921664
2224.000000	8.897064
2223.000000	8.734250
2222.000000	8.801834
2221.000000	8.903884
2220.000000	8.858236
2219.000000	8.888199
2218.000000	8.750207
2217.000000	8.837089
2216.000000	8.747480
2215.000000	8.742934
2214.000000	8.758082
2213.000000	8.677635
2212.000000	8.683162
2211.000000	8.543302
2210.000000	8.631782
2209.000000	8.545838
2208.000000	8.409356
2207.000000	8.508763
2206.000000	8.489649
2205.000000	8.411821
2204.000000	8.468515
2203.000000	8.478910
2202.000000	8.340430
2201.000000	8.278024
2200.000000	8.317270
2199.000000	8.356107
2198.000000	8.240507
2197.000000	8.120902
2196.000000	8.060333
2195.000000	7.930576
2194.000000	7.902012
2193.000000	7.829431
2192.000000	7.828147
2191.000000	7.908256
2190.000000	7.906981
2189.000000	7.731331
2188.000000	7.738298
2187.000000	7.716811
2186.000000	7.638097
2185.000000	7.528510
2184.000000	7.567444
2183.000000	7.447631
2182.000000	7.515844
2181.000000	7.564419
2180.000000	7.575031
2179.000000	7.522504
2178.000000	7.520296
2177.000000	7.576840
2176.000000	7.563840
2175.000000	7.565182
2174.000000	7.684867
2173.000000	7.482417
2172.000000	7.632717
2171.000000	7.582387
2170.000000	7.643750
2169.000000	7.613550
2168.000000	7.635466
2167.000000	7.769618
2166.000000	7.788734
2165.000000	7.820214
2164.000000	7.769272
2163.000000	7.729233
2162.000000	7.783758
2161.000000	7.789095
2160.000000	8.148254
2159.000000	7.993314
2158.000000	8.259427
2157.000000	8.281451
2156.000000	8.285421
2155.000000	8.296053
2154.000000	8.285425
2153.000000	8.532479
2152.000000	8.498897
2151.000000	8.529959
2150.000000	8.536370
2149.000000	8.573541
2148.000000	8.961700
2147.000000	8.836120
2146.000000	8.868257
2145.000000	8.904901
2144.000000	8.954469
2143.000000	9.072510
2142.000000	9.164583
2141.000000	9.217358
2140.000000	9.242470
2139.000000	9.434767
2138.000000	9.511938
2137.000000	9.454176
2136.000000	9.455983
2135.000000	9.622951
2134.000000	9.742114
2133.000000	9.553078
2132.000000	9.808928
2131.000000	9.858546
2130.000000	9.930885
2129.000000	9.880212
2128.000000	9.949808
2127.000000	9.838678
2126.000000	9.688270
2125.000000	9.864290
2124.000000	9.912305
2123.000000	9.759495
2122.000000	10.029526
2121.000000	10.189517
2120.000000	10.102430
2119.000000	10.173257
2118.000000	10.175699
2117.000000	10.138466
2116.000000	10.235305
2115.000000	10.194372
2114.000000	10.192770
2113.000000	10.086521
2112.000000	10.125120
2111.000000	10.241232
2110.000000	10.122769
2109.000000	10.175582
2108.000000	10.151923
2107.000000	10.252493
2106.000000	10.181757
2105.000000	10.258897
2104.000000	10.314626
2103.000000	10.288740
2102.000000	10.153503
2101.000000	10.276229
2100.000000	10.350644
2099.000000	10.245195
2098.000000	10.263558
2097.000000	10.401560
2096.000000	10.304443
2095.000000	10.232575
2094.000000	10.299330
2093.000000	10.297255
2092.000000	10.278157
2091.000000	10.221338
2090.000000	10.096328
2089.000000	10.181306
2088.000000	10.272417
2087.000000	10.286651
2086.000000	10.228583
2085.000000	10.107735
2084.000000	10.059084
2083.000000	9.977453
2082.000000	10.155913
2081.000000	10.001953
2080.000000	9.940573
2079.000000	9.864486
2078.000000	9.875941
2077.000000	9.911043
2076.000000	9.801222
2075.000000	9.685845
2074.000000	9.674301
2073.000000	9.614074
2072.000000	9.580747
2071.000000	9.506143
2070.000000	9.487451
2069.000000	9.416273
2068.000000	9.275508
2067.000000	9.192422
2066.000000	9.097836
2065.000000	8.965374
2064.000000	8.919860
2063.000000	8.857512
2062.000000	8.808459
2061.000000	8.716913
2060.000000	8.695745
2059.000000	8.602232
2058.000000	8.545574
2057.000000	8.484868
2056.000000	8.385549
2055.000000	8.318656
2054.000000	8.230258
2053.000000	8.115315
2052.000000	8.001240
2051.000000	7.918665
2050.000000	7.810264
2049.000000	7.886135
2048.000000	7.872797
2047.000000	7.790899
2046.000000	7.761859
2045.000000	7.749356
2044.000000	7.750959
2043.000000	7.767326
2042.000000	7.759343
2041.000000	7.790271
2040.000000	7.767306
2039.000000	7.719813
2038.000000	7.719342
2037.000000	7.771258
2036.000000	7.784682
2035.000000	7.811261
2034.000000	7.909429
2033.000000	8.043198
2032.000000	8.138890
2031.000000	8.104904
2030.000000	8.134549
2029.000000	8.238102
2028.000000	8.301796
2027.000000	8.405229
2026.000000	8.459615
2025.000000	8.451577
2024.000000	8.479906
2023.000000	8.492672
2022.000000	8.567640
2021.000000	8.630967
2020.000000	8.621561
2019.000000	8.646115
2018.000000	8.699872
2017.000000	8.694403
2016.000000	8.659893
2015.000000	8.704238
2014.000000	8.706371
2013.000000	8.661879
2012.000000	8.668684
2011.000000	8.665029
2010.000000	8.651376
2009.000000	8.623030
2008.000000	8.585421
2007.000000	8.531475
2006.000000	8.481188
2005.000000	8.467845
2004.000000	8.428292
2003.000000	8.402422
2002.000000	8.355992
2001.000000	8.293147
2000.000000	8.278894
1999.000000	8.232459
1998.000000	8.156470
1997.000000	8.137382
1996.000000	8.095572
1995.000000	8.046310
1994.000000	7.988744
1993.000000	7.932490
1992.000000	7.874292
1991.000000	7.815457
1990.000000	7.764641
1989.000000	7.697736
1988.000000	7.672313
1987.000000	7.615617
1986.000000	7.551243
1985.000000	7.493930
1984.000000	7.428930
1983.000000	7.402629
1982.000000	7.359483
1981.000000	7.307654
1980.000000	7.276790
1979.000000	7.231509
1978.000000	7.183067
1977.000000	7.110959
1976.000000	7.061320
1975.000000	7.003341
1974.000000	6.918639
1973.000000	6.880725
1972.000000	6.856500
1971.000000	6.808376
1970.000000	6.779478
1969.000000	6.763793
1968.000000	6.696016
1967.000000	6.671113
1966.000000	6.663739
1965.000000	6.660547
1964.000000	6.552233
1963.000000	6.506425
1962.000000	6.430676
1961.000000	6.361789
1960.000000	6.325233
1959.000000	6.289723
1958.000000	6.282189
1957.000000	6.248888
1956.000000	6.172104
1955.000000	6.162891
1954.000000	6.202222
1953.000000	6.139215
1952.000000	6.177795
1951.000000	6.118444
1950.000000	6.076991
1949.000000	6.004452
1948.000000	6.024205
1947.000000	5.987188
1946.000000	6.028153
1945.000000	6.054756
1944.000000	5.967075
1943.000000	5.999427
1942.000000	6.069153
1941.000000	6.075460
1940.000000	6.096292
1939.000000	6.146677
1938.000000	6.175647
1937.000000	6.165807
1936.000000	6.178947
1935.000000	6.250641
1934.000000	6.371275
1933.000000	6.388297
1932.000000	6.466722
1931.000000	6.521023
1930.000000	6.591893
1929.000000	6.673698
1928.000000	6.796166
1927.000000	6.823871
1926.000000	6.907270
1925.000000	7.051301
1924.000000	7.153734
1923.000000	7.216015
1922.000000	7.413376
1921.000000	7.602014
1920.000000	7.668942
1919.000000	7.780790
1918.000000	8.002288
1917.000000	8.216085
1916.000000	8.191652
1915.000000	8.486136
1914.000000	8.638782
1913.000000	8.933773
1912.000000	9.077206
1911.000000	9.274354
1910.000000	9.477748
1909.000000	9.700807
1908.000000	9.853008
1907.000000	10.130617
1906.000000	10.356559
1905.000000	10.695872
1904.000000	10.975246
1903.000000	11.197908
1902.000000	11.441160
1901.000000	11.784664
1900.000000	11.994030
1899.000000	12.264364
1898.000000	12.676422
1897.000000	12.936548
1896.000000	13.188110
1895.000000	13.496442
1894.000000	13.818213
1893.000000	14.102176
1892.000000	14.382918
1891.000000	14.660272
1890.000000	14.935002
1889.000000	15.246951
1888.000000	15.571927
1887.000000	15.775403
1886.000000	16.059978
1885.000000	16.320994
1884.000000	16.514742
1883.000000	16.767377
1882.000000	17.010298
1881.000000	17.237786
1880.000000	17.454724
1879.000000	17.713152
1878.000000	17.827452
1877.000000	18.070078
1876.000000	18.288240
1875.000000	18.465530
1874.000000	18.580952
1873.000000	18.693638
1872.000000	18.764491
1871.000000	18.894133
1870.000000	19.055402
1869.000000	19.176938
1868.000000	19.297351
1867.000000	19.339721
1866.000000	19.401907
1865.000000	19.466581
1864.000000	19.505618
1863.000000	19.567344
1862.000000	19.588998
1861.000000	19.631797
1860.000000	19.693580
1859.000000	19.729931
1858.000000	19.761626
1857.000000	19.766893
1856.000000	19.783671
1855.000000	19.812061
1854.000000	19.819453
1853.000000	19.858784
1852.000000	19.854944
1851.000000	19.871456
1850.000000	19.856038
1849.000000	19.889563
1848.000000	19.918543
1847.000000	19.948803
1846.000000	19.925072
1845.000000	19.926273
1844.000000	19.879254
1843.000000	19.850739
1842.000000	19.832686
1841.000000	19.797030
1840.000000	19.755375
1839.000000	19.758835
1838.000000	19.768200
1837.000000	19.739861
1836.000000	19.682530
1835.000000	19.653102
1834.000000	19.650426
1833.000000	19.613658
1832.000000	19.572794
1831.000000	19.542389
1830.000000	19.488969
1829.000000	19.458351
1828.000000	19.441855
1827.000000	19.410120
1826.000000	19.402581
1825.000000	19.359829
1824.000000	19.312361
1823.000000	19.275304
1822.000000	19.261723
1821.000000	19.250117
1820.000000	19.200168
1819.000000	19.169201
1818.000000	19.153529
1817.000000	19.138268
1816.000000	19.140198
1815.000000	19.112122
1814.000000	19.082929
1813.000000	19.061563
1812.000000	19.039034
1811.000000	19.013099
1810.000000	18.969410
1809.000000	18.948660
1808.000000	18.933330
1807.000000	18.916655
1806.000000	18.902484
1805.000000	18.878865
1804.000000	18.847815
1803.000000	18.840541
1802.000000	18.814124
1801.000000	18.798502
1800.000000	18.790301
1799.000000	18.772430
1798.000000	18.765058
1797.000000	18.748271
1796.000000	18.749701
1795.000000	18.713071
1794.000000	18.701760
1793.000000	18.705505
1792.000000	18.680987
1791.000000	18.675077
1790.000000	18.677517
1789.000000	18.654164
1788.000000	18.641569
1787.000000	18.617620
1786.000000	18.595203
1785.000000	18.592897
1784.000000	18.593727
1783.000000	18.573998
1782.000000	18.571506
1781.000000	18.552041
1780.000000	18.528724
1779.000000	18.514427
1778.000000	18.460295
1777.000000	18.432493
1776.000000	18.409841
1775.000000	18.355886
1774.000000	18.313755
1773.000000	18.295196
1772.000000	18.268155
1771.000000	18.225292
1770.000000	18.176103
1769.000000	18.136417
1768.000000	18.105862
1767.000000	18.053345
1766.000000	18.026443
1765.000000	17.996321
1764.000000	17.963867
1763.000000	17.908574
1762.000000	17.857935
1761.000000	17.843185
1760.000000	17.794723
1759.000000	17.752359
1758.000000	17.711887
1757.000000	17.704388
1756.000000	17.683687
1755.000000	17.656393
1754.000000	17.606755
1753.000000	17.563122
1752.000000	17.540956
1751.000000	17.495947
1750.000000	17.460923
1749.000000	17.437518
1748.000000	17.380445
1747.000000	17.332779
1746.000000	17.322992
1745.000000	17.291031
1744.000000	17.246057
1743.000000	17.226919
1742.000000	17.193843
1741.000000	17.167199
1740.000000	17.105037
1739.000000	17.089094
1738.000000	17.063466
1737.000000	17.015660
1736.000000	17.010521
1735.000000	16.964801
1734.000000	16.945395
1733.000000	16.962429
1732.000000	16.956535
1731.000000	16.989836
1730.000000	16.983963
1729.000000	17.014860
1728.000000	17.038090
1727.000000	17.037056
1726.000000	17.082503
1725.000000	17.140256
1724.000000	17.206194
1723.000000	17.219347
1722.000000	17.278762
1721.000000	17.343300
1720.000000	17.413561
1719.000000	17.471546
1718.000000	17.541428
1717.000000	17.574038
1716.000000	17.636746
1715.000000	17.688323
1714.000000	17.718224
1713.000000	17.777681
1712.000000	17.836598
1711.000000	17.881446
1710.000000	17.916401
1709.000000	17.931774
1708.000000	17.997224
1707.000000	18.007275
1706.000000	18.033924
1705.000000	18.082388
1704.000000	18.112148
1703.000000	18.050941
1702.000000	18.096913
1701.000000	18.102743
1700.000000	18.141767
1699.000000	18.093785
1698.000000	18.155488
1697.000000	18.172447
1696.000000	18.204622
1695.000000	18.168463
1694.000000	18.211515
1693.000000	18.237374
1692.000000	18.245736
1691.000000	18.297368
1690.000000	18.362467
1689.000000	18.398203
1688.000000	18.456856
1687.000000	18.555392
1686.000000	18.616620
1685.000000	18.709904
1684.000000	18.792065
1683.000000	18.891967
1682.000000	18.976520
1681.000000	19.083501
1680.000000	19.176884
1679.000000	19.273791
1678.000000	19.394827
1677.000000	19.505141
1676.000000	19.621284
1675.000000	19.733324
1674.000000	19.835329
1673.000000	19.940247
1672.000000	20.044898
1671.000000	20.165319
1670.000000	20.257015
1669.000000	20.343160
1668.000000	20.410436
1667.000000	20.507227
1666.000000	20.570319
1665.000000	20.606181
1664.000000	20.663281
1663.000000	20.710481
1662.000000	20.785989
1661.000000	20.823168
1660.000000	20.865878
1659.000000	20.918993
1658.000000	20.930400
1657.000000	20.945019
1656.000000	20.994568
1655.000000	21.007790
1654.000000	21.041807
1653.000000	21.062434
1652.000000	21.074377
1651.000000	21.036841
1650.000000	21.039744
1649.000000	21.032403
1648.000000	21.031739
1647.000000	21.033625
1646.000000	21.013735
1645.000000	20.991243
1644.000000	20.977190
1643.000000	20.958469
1642.000000	20.950595
1641.000000	20.930419
1640.000000	20.913785
1639.000000	20.904409
1638.000000	20.899252
1637.000000	20.880923
1636.000000	20.842716
1635.000000	20.823002
1634.000000	20.801529
1633.000000	20.762759
1632.000000	20.733527
1631.000000	20.707415
1630.000000	20.682830
1629.000000	20.662532
1628.000000	20.625259
1627.000000	20.577771
1626.000000	20.552512
1625.000000	20.525850
1624.000000	20.494255
1623.000000	20.465379
1622.000000	20.445254
1621.000000	20.425733
1620.000000	20.393844
1619.000000	20.330983
1618.000000	20.280490
1617.000000	20.254905
1616.000000	20.235645
1615.000000	20.197637
1614.000000	20.158996
1613.000000	20.110437
1612.000000	20.076416
1611.000000	20.044963
1610.000000	20.008514
1609.000000	19.968993
1608.000000	19.922187
1607.000000	19.878173
1606.000000	19.844934
1605.000000	19.803870
1604.000000	19.754147
1603.000000	19.707650
1602.000000	19.679131
1601.000000	19.637821
1600.000000	19.593185
1599.000000	19.566951
1598.000000	19.533656
1597.000000	19.499697
1596.000000	19.464431
1595.000000	19.429249
1594.000000	19.385074
1593.000000	19.351667
1592.000000	19.320813
1591.000000	19.286364
1590.000000	19.257155
1589.000000	19.214343
1588.000000	19.173052
1587.000000	19.150015
1586.000000	19.124078
1585.000000	19.083596
1584.000000	19.042917
1583.000000	19.021400
1582.000000	18.996135
1581.000000	18.968545
1580.000000	18.928917
1579.000000	18.892596
1578.000000	18.870294
1577.000000	18.846019
1576.000000	18.815325
1575.000000	18.774632
1574.000000	18.732155
1573.000000	18.713374
1572.000000	18.694326
1571.000000	18.657868
1570.000000	18.632927
1569.000000	18.604708
1568.000000	18.571909
1567.000000	18.538079
1566.000000	18.516713
1565.000000	18.502646
1564.000000	18.487023
1563.000000	18.461628
1562.000000	18.445391
1561.000000	18.435736
1560.000000	18.400773
1559.000000	18.388967
1558.000000	18.368866
1557.000000	18.347269
1556.000000	18.327524
1555.000000	18.312733
1554.000000	18.281288
1553.000000	18.271461
1552.000000	18.264774
1551.000000	18.232775
1550.000000	18.201452
1549.000000	18.173021
1548.000000	18.146572
1547.000000	18.120146
1546.000000	18.077451
1545.000000	18.046488
1544.000000	17.987546
1543.000000	17.928010
1542.000000	17.877127
1541.000000	17.828765
1540.000000	17.783215
1539.000000	17.707198
1538.000000	17.643803
1537.000000	17.602975
1536.000000	17.551581
1535.000000	17.487128
1534.000000	17.419215
1533.000000	17.381494
1532.000000	17.325312
1531.000000	17.261553
1530.000000	17.198785
1529.000000	17.152224
1528.000000	17.121620
1527.000000	17.064710
1526.000000	17.007290
1525.000000	16.962922
1524.000000	16.918315
1523.000000	16.877174
1522.000000	16.856132
1521.000000	16.818174
1520.000000	16.798853
1519.000000	16.765359
1518.000000	16.754473
1517.000000	16.722152
1516.000000	16.682813
1515.000000	16.671270
1514.000000	16.645274
1513.000000	16.622377
1512.000000	16.597665
1511.000000	16.581184
1510.000000	16.611225
1509.000000	16.613225
1508.000000	16.629070
1507.000000	16.622367
1506.000000	16.606642
1505.000000	16.583035
1504.000000	16.562614
1503.000000	16.542750
1502.000000	16.525594
1501.000000	16.527037
1500.000000	16.507005
1499.000000	16.490378
1498.000000	16.497099
1497.000000	16.490772
1496.000000	16.525874
1495.000000	16.525512
1494.000000	16.522522
1493.000000	16.535822
1492.000000	16.546720
1491.000000	16.590213
1490.000000	16.591708
1489.000000	16.627854
1488.000000	16.637775
1487.000000	16.670881
1486.000000	16.704369
1485.000000	16.733825
1484.000000	16.754949
1483.000000	16.809234
1482.000000	16.803552
1481.000000	16.866101
1480.000000	16.901726
1479.000000	16.927766
1478.000000	16.948485
1477.000000	16.975125
1476.000000	17.004601
1475.000000	17.036309
1474.000000	17.066904
1473.000000	17.108945
1472.000000	17.118414
1471.000000	17.163388
1470.000000	17.179868
1469.000000	17.199157
1468.000000	17.236514
1467.000000	17.263862
1466.000000	17.317289
1465.000000	17.347149
1464.000000	17.365222
1463.000000	17.366605
1462.000000	17.394998
1461.000000	17.475782
1460.000000	17.514548
1459.000000	17.542647
1458.000000	17.549301
1457.000000	17.576480
1456.000000	17.637354
1455.000000	17.671237
1454.000000	17.719167
1453.000000	17.739749
1452.000000	17.786312
1451.000000	17.852333
1450.000000	17.881253
1449.000000	17.914959
1448.000000	17.943353
1447.000000	17.984132
1446.000000	18.023758
1445.000000	18.110613
1444.000000	18.173571
1443.000000	18.203971
1442.000000	18.250114
1441.000000	18.299647
1440.000000	18.360920
1439.000000	18.413427
1438.000000	18.464514
1437.000000	18.524385
1436.000000	18.587793
1435.000000	18.659182
1434.000000	18.749378
1433.000000	18.839316
1432.000000	18.916966
1431.000000	19.001661
1430.000000	19.074417
1429.000000	19.143397
1428.000000	19.217943
1427.000000	19.308944
1426.000000	19.395162
1425.000000	19.471960
1424.000000	19.556871
1423.000000	19.670504
1422.000000	19.783617
1421.000000	19.877935
1420.000000	19.987589
1419.000000	20.098983
1418.000000	20.213615
1417.000000	20.329873
1416.000000	20.429504
1415.000000	20.561704
1414.000000	20.692268
1413.000000	20.812365
1412.000000	20.924584
1411.000000	21.050148
1410.000000	21.172789
1409.000000	21.279540
1408.000000	21.400662
1407.000000	21.542609
1406.000000	21.673422
1405.000000	21.793423
1404.000000	21.892521
1403.000000	22.011181
1402.000000	22.126839
1401.000000	22.248403
1400.000000	22.369942
1399.000000	22.474421
1398.000000	22.576561
1397.000000	22.691433
1396.000000	22.808469
1395.000000	22.909219
1394.000000	22.990526
1393.000000	23.070818
1392.000000	23.166730
1391.000000	23.257034
1390.000000	23.333306
1389.000000	23.423698
1388.000000	23.508563
1387.000000	23.574319
1386.000000	23.647028
1385.000000	23.738945
1384.000000	23.804489
1383.000000	23.849965
1382.000000	23.915841
1381.000000	23.984929
1380.000000	24.025130
1379.000000	24.056101
1378.000000	24.120522
1377.000000	24.182732
1376.000000	24.212835
1375.000000	24.247310
1374.000000	24.284728
1373.000000	24.326657
1372.000000	24.360857
1371.000000	24.379961
1370.000000	24.394087
1369.000000	24.422680
1368.000000	24.450978
1367.000000	24.468357
1366.000000	24.494727
1365.000000	24.526736
1364.000000	24.553403
1363.000000	24.597147
1362.000000	24.660856
1361.000000	24.692284
1360.000000	24.702023
1359.000000	24.717344
1358.000000	24.747745
1357.000000	24.793928
1356.000000	24.828432
1355.000000	24.860418
1354.000000	24.874805
1353.000000	24.881283
1352.000000	24.938826
1351.000000	24.985825
1350.000000	25.007494
1349.000000	25.021902
1348.000000	25.040963
1347.000000	25.060620
1346.000000	25.089395
1345.000000	25.147500
1344.000000	25.192360
1343.000000	25.220103
1342.000000	25.225353
1341.000000	25.231860
1340.000000	25.244759
1339.000000	25.267989
1338.000000	25.317210
1337.000000	25.368695
1336.000000	25.390356
1335.000000	25.392726
1334.000000	25.412530
1333.000000	25.440483
1332.000000	25.467653
1331.000000	25.493699
1330.000000	25.502737
1329.000000	25.490832
1328.000000	25.528765
1327.000000	25.563998
1326.000000	25.555230
1325.000000	25.544594
1324.000000	25.574821
1323.000000	25.630846
1322.000000	25.649074
1321.000000	25.638188
1320.000000	25.614795
1319.000000	25.595840
1318.000000	25.639784
1317.000000	25.665692
1316.000000	25.689045
1315.000000	25.669755
1314.000000	25.650126
1313.000000	25.646207
1312.000000	25.680779
1311.000000	25.718607
1310.000000	25.734022
1309.000000	25.726811
1308.000000	25.717261
1307.000000	25.716272
1306.000000	25.711107
1305.000000	25.730456
1304.000000	25.748060
1303.000000	25.739454
1302.000000	25.733085
1301.000000	25.742589
1300.000000	25.740783
1299.000000	25.728588
1298.000000	25.741841
1297.000000	25.747425
1296.000000	25.750681
1295.000000	25.748922
1294.000000	25.756145
1293.000000	25.744231
1292.000000	25.745803
1291.000000	25.752173
1290.000000	25.741722
1289.000000	25.735690
1288.000000	25.746039
1287.000000	25.744505
1286.000000	25.741853
1285.000000	25.744975
1284.000000	25.735258
1283.000000	25.693167
1282.000000	25.681038
1281.000000	25.681176
1280.000000	25.703366
1279.000000	25.702440
1278.000000	25.688479
1277.000000	25.688383
1276.000000	25.702614
1275.000000	25.694367
1274.000000	25.695817
1273.000000	25.696842
1272.000000	25.695610
1271.000000	25.692201
1270.000000	25.696720
1269.000000	25.685644
1268.000000	25.679415
1267.000000	25.694501
1266.000000	25.730864
1265.000000	25.729723
1264.000000	25.727192
1263.000000	25.709105
1262.000000	25.732426
1261.000000	25.728874
1260.000000	25.720436
1259.000000	25.751181
1258.000000	25.758690
1257.000000	25.739588
1256.000000	25.753185
1255.000000	25.766941
1254.000000	25.750407
1253.000000	25.746838
1252.000000	25.748350
1251.000000	25.759673
1250.000000	25.766444
1249.000000	25.755589
1248.000000	25.754662
1247.000000	25.747351
1246.000000	25.743449
1245.000000	25.733400
1244.000000	25.749358
1243.000000	25.729099
1242.000000	25.723079
1241.000000	25.719938
1240.000000	25.684211
1239.000000	25.671266
1238.000000	25.678859
1237.000000	25.660223
1236.000000	25.637368
1235.000000	25.626889
1234.000000	25.615299
1233.000000	25.602079
1232.000000	25.573397
1231.000000	25.550803
1230.000000	25.570939
1229.000000	25.541396
1228.000000	25.540233
1227.000000	25.510625
1226.000000	25.492026
1225.000000	25.492040
1224.000000	25.490810
1223.000000	25.472877
1222.000000	25.466142
1221.000000	25.457838
1220.000000	25.443481
1219.000000	25.411033
1218.000000	25.394276
1217.000000	25.391746
1216.000000	25.367982
1215.000000	25.355316
1214.000000	25.364529
1213.000000	25.337306
1212.000000	25.322754
1211.000000	25.285422
1210.000000	25.284520
1209.000000	25.290591
1208.000000	25.255729
1207.000000	25.232825
1206.000000	25.213258
1205.000000	25.178963
1204.000000	25.167198
1203.000000	25.140346
1202.000000	25.119670
1201.000000	25.093963
1200.000000	25.063644
1199.000000	25.064678
1198.000000	25.054318
1197.000000	25.022597
1196.000000	24.988601
1195.000000	24.969409
1194.000000	24.963585
1193.000000	24.944622
1192.000000	24.928736
1191.000000	24.921246
1190.000000	24.893548
1189.000000	24.852654
1188.000000	24.848548
1187.000000	24.855468
1186.000000	24.846372
1185.000000	24.834731
1184.000000	24.835537
1183.000000	24.848380
1182.000000	24.865601
1181.000000	24.873523
1180.000000	24.893851
1179.000000	24.920636
1178.000000	24.950026
1177.000000	24.958003
1176.000000	24.954706
1175.000000	24.975288
1174.000000	25.017935
1173.000000	25.050122
1172.000000	25.088606
1171.000000	25.124119
1170.000000	25.163798
1169.000000	25.202622
1168.000000	25.234285
1167.000000	25.277046
1166.000000	25.325637
1165.000000	25.369302
1164.000000	25.405409
1163.000000	25.448368
1162.000000	25.490780
1161.000000	25.527322
1160.000000	25.575074
1159.000000	25.611859
1158.000000	25.650972
1157.000000	25.695960
1156.000000	25.734194
1155.000000	25.764208
1154.000000	25.790926
1153.000000	25.809500
1152.000000	25.821815
1151.000000	25.854793
1150.000000	25.893372
1149.000000	25.926354
1148.000000	25.951290
1147.000000	25.984820
1146.000000	26.016888
1145.000000	26.040086
1144.000000	26.070539
1143.000000	26.095166
1142.000000	26.117175
1141.000000	26.135435
1140.000000	26.165853
1139.000000	26.182727
1138.000000	26.200195
1137.000000	26.205457
1136.000000	26.215518
1135.000000	26.237463
1134.000000	26.260860
1133.000000	26.291222
1132.000000	26.304245
1131.000000	26.320566
1130.000000	26.353107
1129.000000	26.370639
1128.000000	26.383221
1127.000000	26.404386
1126.000000	26.411259
1125.000000	26.406202
1124.000000	26.391502
1123.000000	26.387827
1122.000000	26.399346
1121.000000	26.415351
1120.000000	26.422309
1119.000000	26.439017
1118.000000	26.449402
1117.000000	26.446222
1116.000000	26.447995
1115.000000	26.451453
1114.000000	26.453016
1113.000000	26.460352
1112.000000	26.468569
1111.000000	26.472775
1110.000000	26.473620
1109.000000	26.471657
1108.000000	26.473925
1107.000000	26.477575
1106.000000	26.475445
1105.000000	26.471441
1104.000000	26.479020
1103.000000	26.484498
1102.000000	26.484219
1101.000000	26.454612
1100.000000	26.443497
1099.000000	26.454805
1098.000000	26.446798
1097.000000	26.480036
1096.000000	26.492152
1095.000000	26.486775
1094.000000	26.477829
1093.000000	26.457260
1092.000000	26.437792
1091.000000	26.463191
1090.000000	26.454203
1089.000000	26.469004
1088.000000	26.472090
1087.000000	26.479460
1086.000000	26.446896
1085.000000	26.436609
1084.000000	26.437674
1083.000000	26.448276
1082.000000	26.473859
1081.000000	26.465079
1080.000000	26.454399
1079.000000	26.429030
1078.000000	26.425717
1077.000000	26.426627
1076.000000	26.436148
1075.000000	26.447550
1074.000000	26.439780
1073.000000	26.441582
1072.000000	26.415106
1071.000000	26.401258
1070.000000	26.400033
1069.000000	26.417579
1068.000000	26.417965
1067.000000	26.413111
1066.000000	26.433084
1065.000000	26.383461
1064.000000	26.385919
1063.000000	26.381258
1062.000000	26.392924
1061.000000	26.408576
1060.000000	26.394079
1059.000000	26.395981
1058.000000	26.339335
1057.000000	26.350748
1056.000000	26.361222
1055.000000	26.349930
1054.000000	26.368945
1053.000000	26.343213
1052.000000	26.339320
1051.000000	26.345458
1050.000000	26.360986
1049.000000	26.356733
1048.000000	26.311868
1047.000000	26.322057
1046.000000	26.342363
1045.000000	26.335569
1044.000000	26.288913
1043.000000	26.290327
1042.000000	26.301978
1041.000000	26.324294
1040.000000	26.322250
1039.000000	26.299003
1038.000000	26.289071
1037.000000	26.304614
1036.000000	26.301809
1035.000000	26.271784
1034.000000	26.283884
1033.000000	26.305139
1032.000000	26.283211
1031.000000	26.278525
1030.000000	26.292617
1029.000000	26.303340
1028.000000	26.278201
1027.000000	26.282975
1026.000000	26.302099
1025.000000	26.312875
1024.000000	26.280382
1023.000000	26.283578
1022.000000	26.288519
1021.000000	26.267215
1020.000000	26.271768
1019.000000	26.299831
1018.000000	26.315717
1017.000000	26.280865
1016.000000	26.260294
1015.000000	26.279047
1014.000000	26.307391
1013.000000	26.313809
1012.000000	26.317336
1011.000000	26.305652
1010.000000	26.307068
1009.000000	26.300007
1008.000000	26.310904
1007.000000	26.326879
1006.000000	26.326077
1005.000000	26.322480
1004.000000	26.335950
1003.000000	26.341689
1002.000000	26.355540
1001.000000	26.364521
1000.000000	26.373968
999.000000	26.402741
998.000000	26.414909
997.000000	26.408126
996.000000	26.411271
995.000000	26.425824
994.000000	26.435231
993.000000	26.449181
992.000000	26.453858
991.000000	26.455850
990.000000	26.454601
989.000000	26.463305
988.000000	26.466611
987.000000	26.482508
986.000000	26.479487
985.000000	26.483097
984.000000	26.486029
983.000000	26.498789
982.000000	26.505486
981.000000	26.511537
980.000000	26.497131
979.000000	26.507585
978.000000	26.512923
977.000000	26.519567
976.000000	26.518627
975.000000	26.518324
974.000000	26.525633
973.000000	26.549255
972.000000	26.553510
971.000000	26.550657
970.000000	26.552169
969.000000	26.552940
968.000000	26.555161
967.000000	26.569480
966.000000	26.567004
965.000000	26.565856
964.000000	26.580641
963.000000	26.585242
962.000000	26.589356
961.000000	26.594143
960.000000	26.610611
959.000000	26.621906
958.000000	26.626553
957.000000	26.641056
956.000000	26.648101
955.000000	26.644956
954.000000	26.644597
953.000000	26.654144
952.000000	26.657678
951.000000	26.651014
950.000000	26.659447
949.000000	26.664856
948.000000	26.659938
947.000000	26.666210
946.000000	26.680412
945.000000	26.684835
944.000000	26.673094
943.000000	26.673285
942.000000	26.696310
941.000000	26.710039
940.000000	26.727984
939.000000	26.727799
938.000000	26.711957
937.000000	26.726750
936.000000	26.725736
935.000000	26.698982
934.000000	26.705334
933.000000	26.702882
932.000000	26.697123
931.000000	26.694506
930.000000	26.697703
929.000000	26.703694
928.000000	26.725001
927.000000	26.737215
926.000000	26.742773
925.000000	26.719632
924.000000	26.720565
923.000000	26.708887
922.000000	26.701284
921.000000	26.710490
920.000000	26.689619
919.000000	26.682686
918.000000	26.685560
917.000000	26.693953
916.000000	26.687223
915.000000	26.684018
914.000000	26.708117
913.000000	26.724059
912.000000	26.721915
911.000000	26.725539
910.000000	26.718726
909.000000	26.700831
908.000000	26.765144
907.000000	26.774203
906.000000	26.734095
905.000000	26.728827
904.000000	26.729191
903.000000	26.749595
902.000000	26.788571
901.000000	26.798050
900.000000	26.743457
899.000000	26.730192
898.000000	26.751724
897.000000	26.796128
896.000000	26.788442
895.000000	26.778416
894.000000	26.838414
893.000000	26.861297
892.000000	26.784704
891.000000	26.774666
890.000000	26.764449
889.000000	26.853770
888.000000	26.872379
887.000000	26.830769
886.000000	26.857285
885.000000	26.881730
884.000000	26.844115
883.000000	26.802695
882.000000	26.855857
881.000000	26.832683
880.000000	26.848172
879.000000	26.888977
878.000000	26.849913
877.000000	26.878019
876.000000	26.813108
875.000000	26.847383
874.000000	26.778785
873.000000	26.754035
872.000000	26.762859
871.000000	26.856335
870.000000	26.808482
869.000000	26.811701
868.000000	26.787528
867.000000	26.798762
866.000000	26.855876
865.000000	26.955022
864.000000	26.878989
863.000000	26.870475
862.000000	26.745946
861.000000	26.750599
860.000000	26.725715
859.000000	26.941374
858.000000	27.099459
857.000000	27.281205
856.000000	27.235317
855.000000	27.314379
854.000000	27.167085
853.000000	27.107620
852.000000	27.124751
851.000000	27.083512
850.000000	27.146016
849.000000	27.170158
848.000000	27.248845
847.000000	27.052005
846.000000	27.196670
845.000000	27.189559
844.000000	27.149101
843.000000	27.197538
842.000000	27.057667
841.000000	27.129955
840.000000	27.159301
839.000000	27.221912
838.000000	27.084473
837.000000	27.159847
836.000000	27.095480
835.000000	27.163553
834.000000	27.161924
833.000000	27.018827
832.000000	27.131848
831.000000	27.089426
830.000000	27.034707
829.000000	27.179119
828.000000	27.136836
827.000000	27.076550
826.000000	27.069761
825.000000	27.053203
824.000000	27.004435
823.000000	27.038226
822.000000	27.075276
821.000000	27.072596
820.000000	27.222284
819.000000	27.056384
818.000000	27.005925
817.000000	27.043116
816.000000	27.061506
815.000000	27.055104
814.000000	27.075892
813.000000	27.047563
812.000000	27.077816
811.000000	27.059741
810.000000	27.028339
809.000000	27.158676
808.000000	27.088018
807.000000	27.218706
806.000000	27.044383
805.000000	27.027374
804.000000	27.078015
803.000000	27.060826
802.000000	27.076827
801.000000	27.074268
800.000000	27.061813
799.000000	27.078615
798.000000	27.099287
797.000000	27.080752
796.000000	26.996898
795.000000	27.108431
794.000000	27.100614
793.000000	27.063308
792.000000	27.045433
791.000000	27.036361
790.000000	27.043013
789.000000	27.134308
788.000000	27.047252
787.000000	27.068647
786.000000	27.073939
785.000000	27.047399
784.000000	26.947655
783.000000	26.971108
782.000000	27.016719
781.000000	27.045538
780.000000	27.008771
779.000000	27.035444
778.000000	27.023695
777.000000	27.039210
776.000000	26.986476
775.000000	26.986508
774.000000	26.994176
773.000000	27.025998
772.000000	27.042795
771.000000	27.052896
770.000000	26.967613
769.000000	26.975949
768.000000	27.013621
767.000000	27.000299
766.000000	27.027886
765.000000	26.977989
764.000000	26.985037
763.000000	27.059156
762.000000	27.094544
761.000000	27.001960
760.000000	26.962154
759.000000	26.970711
758.000000	26.981520
757.000000	26.968451
756.000000	26.951941
755.000000	26.952847
754.000000	26.918546
753.000000	26.924056
752.000000	26.928653
751.000000	26.972503
750.000000	26.988138
749.000000	26.959623
748.000000	26.966716
747.000000	26.922886
746.000000	26.919204
745.000000	26.940685
744.000000	26.971071
743.000000	26.947909
742.000000	26.913742
741.000000	26.946580
740.000000	26.936524
739.000000	26.926308
738.000000	26.914676
737.000000	26.934699
736.000000	26.914201
735.000000	26.932152
734.000000	26.927278
733.000000	26.959874
732.000000	26.952199
731.000000	26.909428
730.000000	26.888591
729.000000	26.881122
728.000000	26.889197
727.000000	26.917243
726.000000	26.903911
725.000000	26.905542
724.000000	26.889895
723.000000	26.910512
722.000000	26.927742
721.000000	26.917870
720.000000	26.909999
719.000000	26.925328
718.000000	26.919415
717.000000	26.897769
716.000000	26.880281
715.000000	26.868457
714.000000	26.847268
713.000000	26.851870
712.000000	26.868781
711.000000	26.873989
710.000000	26.844764
709.000000	26.841258
708.000000	26.841045
707.000000	26.827886
706.000000	26.818303
705.000000	26.818696
704.000000	26.854131
703.000000	26.845938
702.000000	26.806415
701.000000	26.800611
700.000000	26.812928
699.000000	26.806122
698.000000	26.793829
697.000000	26.802195
696.000000	26.798527
695.000000	26.793118
694.000000	26.778514
693.000000	26.763923
692.000000	26.788691
691.000000	26.765626
690.000000	26.768234
689.000000	26.757761
688.000000	26.735096
687.000000	26.725894
686.000000	26.726549
685.000000	26.730637
684.000000	26.699561
683.000000	26.677799
682.000000	26.666612
681.000000	26.668889
680.000000	26.660261
679.000000	26.638982
678.000000	26.675387
677.000000	26.653575
676.000000	26.630398
675.000000	26.640883
674.000000	26.662576
673.000000	26.655618
672.000000	26.649787
671.000000	26.640414
670.000000	26.621964
669.000000	26.628041
668.000000	26.619089
667.000000	26.590011
666.000000	26.596033
665.000000	26.632130
664.000000	26.596492
663.000000	26.586680
662.000000	26.581517
661.000000	26.580521
660.000000	26.562447
659.000000	26.550241
658.000000	26.551351
657.000000	26.590675
656.000000	26.574552
655.000000	26.533125
654.000000	26.539691
653.000000	26.533203
652.000000	26.519474
651.000000	26.486290
650.000000	26.494370
649.000000	26.486375
648.000000	26.518498
647.000000	26.487112
646.000000	26.465940
645.000000	26.495299
644.000000	26.469862
643.000000	26.456098
642.000000	26.467863
641.000000	26.451739
640.000000	26.438032
639.000000	26.440046
638.000000	26.420993
637.000000	26.434908
636.000000	26.412535
635.000000	26.381709
634.000000	26.379890
633.000000	26.381582
632.000000	26.374216
631.000000	26.373197
630.000000	26.384623
629.000000	26.345159
628.000000	26.329197
627.000000	26.352506
626.000000	26.310894
625.000000	26.301165
624.000000	26.307373
623.000000	26.301833
622.000000	26.288262
621.000000	26.291713
620.000000	26.257429
619.000000	26.272366
618.000000	26.268640
617.000000	26.273855
616.000000	26.235035
615.000000	26.225273
614.000000	26.235371
613.000000	26.223918
612.000000	26.178199
611.000000	26.194538
610.000000	26.196486
609.000000	26.151949
608.000000	26.149243
607.000000	26.152633
606.000000	26.138638
605.000000	26.125572
604.000000	26.073943
603.000000	26.118541
602.000000	26.072066
601.000000	26.118375
600.000000	26.093776
599.000000	26.033595
598.000000	26.053978
597.000000	26.063670
596.000000	26.068619
595.000000	26.046401
594.000000	26.023733
593.000000	25.986961
592.000000	25.986234
591.000000	25.985408
590.000000	25.956840
589.000000	25.935015
588.000000	25.948017
587.000000	25.938860
586.000000	25.919653
585.000000	25.894872
584.000000	25.875647
583.000000	25.861564
582.000000	25.858697
581.000000	25.875313
580.000000	25.825231
579.000000	25.812447
578.000000	25.775789
577.000000	25.779711
576.000000	25.784658
575.000000	25.748873
574.000000	25.710009
573.000000	25.727207
572.000000	25.687446
571.000000	25.684790
570.000000	25.656140
569.000000	25.672810
568.000000	25.614957
567.000000	25.631401
566.000000	25.631729
565.000000	25.586469
564.000000	25.563316
563.000000	25.571874
562.000000	25.518372
561.000000	25.540742
560.000000	25.541314
559.000000	25.512269
558.000000	25.490282
557.000000	25.478123
556.000000	25.463092
555.000000	25.452971
554.000000	25.413288
553.000000	25.403734
552.000000	25.369714
551.000000	25.358703
550.000000	25.335049
549.000000	25.316177
548.000000	25.298601
547.000000	25.280415
546.000000	25.249609
545.000000	25.223801
544.000000	25.228981
543.000000	25.203544
542.000000	25.162634
541.000000	25.149173
540.000000	25.102407
539.000000	25.079398
538.000000	25.068077
537.000000	25.040175
536.000000	25.013822
535.000000	24.999953
534.000000	24.977987
533.000000	24.931246
532.000000	24.911228
531.000000	24.897144
530.000000	24.856635
529.000000	24.841498
528.000000	24.802575
527.000000	24.760989
526.000000	24.740759
525.000000	24.742781
524.000000	24.700510
523.000000	24.676068
522.000000	24.640571
521.000000	24.618433
520.000000	24.572607
519.000000	24.543707
518.000000	24.480496
517.000000	24.469912
516.000000	24.439536
515.000000	24.411977
514.000000	24.365324
513.000000	24.338177
512.000000	24.302083
511.000000	24.293930
510.000000	24.253114
509.000000	24.234179
508.000000	24.155110
507.000000	24.125036
506.000000	24.075883
505.000000	24.062614
504.000000	24.045222
503.000000	24.008922
502.000000	23.981038
501.000000	23.941386
500.000000	23.909331
499.000000	23.868426
498.000000	23.819515
497.000000	23.792629
496.000000	23.736719
495.000000	23.694639
494.000000	23.656865
493.000000	23.636580
492.000000	23.593487
491.000000	23.564010
490.000000	23.532322
489.000000	23.469344
488.000000	23.415768
487.000000	23.386548
486.000000	23.351916
485.000000	23.315540
484.000000	23.298271
483.000000	23.260117
482.000000	23.196923
481.000000	23.155622
480.000000	23.110920
479.000000	23.039985
478.000000	22.986431
477.000000	22.952216
476.000000	22.907197
475.000000	22.848299
474.000000	22.784352
473.000000	22.739911
472.000000	22.694932
471.000000	22.633330
470.000000	22.578379
469.000000	22.521235
468.000000	22.464652
467.000000	22.426727
466.000000	22.365221
465.000000	22.289998
464.000000	22.233084
463.000000	22.184033
462.000000	22.127404
461.000000	22.081170
460.000000	22.010851
459.000000	21.934275
458.000000	21.881065
457.000000	21.813599
456.000000	21.757613
455.000000	21.703589
454.000000	21.625597
453.000000	21.536493
452.000000	21.481042
451.000000	21.427422
450.000000	21.363469
449.000000	21.272158
448.000000	21.178839
447.000000	21.119449
446.000000	21.062182
445.000000	20.989407
444.000000	20.874998
443.000000	20.789515
442.000000	20.728605
441.000000	20.632105
440.000000	20.554696
439.000000	20.466121
438.000000	20.358493
437.000000	20.275338
436.000000	20.182804
435.000000	20.090285
434.000000	19.996872
433.000000	19.906418
432.000000	19.815008
431.000000	19.725670
430.000000	19.637870
429.000000	19.510197
428.000000	19.414272
427.000000	19.317477
426.000000	19.210918
425.000000	19.088106
424.000000	19.001612
423.000000	18.896109
422.000000	18.776967
421.000000	18.652478
420.000000	18.545609
419.000000	18.442130
418.000000	18.330675
417.000000	18.195028
416.000000	18.061439
415.000000	17.937745
414.000000	17.812405
413.000000	17.708928
412.000000	17.558966
411.000000	17.435190
410.000000	17.317751
409.000000	17.180513
408.000000	17.045503
407.000000	16.938207
406.000000	16.767513
405.000000	16.652284
404.000000	16.515363
403.000000	16.377436
402.000000	16.259527
401.000000	16.093479
400.000000	15.988432
399.000000	15.811600
398.000000	15.638378
397.000000	15.534471
396.000000	15.385256
395.000000	15.214662
394.000000	15.075219
393.000000	14.951317
392.000000	14.778838
391.000000	14.648204
390.000000	14.551804
389.000000	14.396127
388.000000	14.240265
387.000000	14.032369
386.000000	13.890911
385.000000	13.721003
384.000000	13.559107
383.000000	13.394912
382.000000	13.233669
381.000000	13.048274
380.000000	12.928287
379.000000	12.760814
378.000000	12.481149
377.000000	12.424718
376.000000	12.289303
375.000000	12.134728
374.000000	11.909227
373.000000	11.778216
372.000000	11.653550
371.000000	11.396642
370.000000	11.247305
369.000000	11.069063
368.000000	10.889803
367.000000	10.693999
366.000000	10.535666
365.000000	10.403794
364.000000	10.260770
363.000000	10.122367
362.000000	9.940447
361.000000	9.743305
360.000000	9.603735
359.000000	9.462867
358.000000	9.307193
357.000000	9.174353
356.000000	9.009426
355.000000	8.852582
354.000000	8.750135
353.000000	8.567523
352.000000	8.427747
351.000000	8.319578
350.000000	8.114889
349.000000	7.975642
348.000000	7.845586
347.000000	7.702250
346.000000	7.556914
345.000000	7.404754
344.000000	7.288316
343.000000	7.097142
342.000000	6.895217
341.000000	6.757120
340.000000	6.582986
339.000000	6.374365
338.000000	6.249062
337.000000	6.052541
336.000000	5.859207
335.000000	5.665488
334.000000	5.503536
333.000000	5.306003
332.000000	5.146989
331.000000	4.906060
330.000000	4.724805
329.000000	4.522045
328.000000	4.407776
327.000000	4.212903
326.000000	4.043062
325.000000	3.894778
324.000000	3.759353
323.000000	3.643322
322.000000	3.512817
321.000000	3.410944
320.000000	3.282405
319.000000	3.169429
318.000000	3.139202
317.000000	3.050757
316.000000	3.007450
315.000000	2.868456
314.000000	2.831580
313.000000	2.763706
312.000000	2.678404
311.000000	2.614159
310.000000	2.544776
309.000000	2.477924
308.000000	2.405295
307.000000	2.346570
306.000000	2.264886
305.000000	2.210617
304.000000	2.139024
303.000000	2.082996
302.000000	2.023448
301.000000	1.956176
300.000000	1.906822
299.000000	1.844338
298.000000	1.757077
297.000000	1.689558
296.000000	1.614246
295.000000	1.512119
294.000000	1.386676
293.000000	1.288702
292.000000	1.182342
291.000000	1.064592
290.000000	0.958736
289.000000	0.865229
288.000000	0.790061
287.000000	0.732887
286.000000	0.698585
285.000000	0.687720
284.000000	0.672129
283.000000	0.671872
282.000000	0.659389
281.000000	0.661868
280.000000	0.655249
279.000000	0.647853
278.000000	0.669304
277.000000	0.690656
276.000000	0.697461
275.000000	0.721331
274.000000	0.726747
273.000000	0.743347
272.000000	0.758815
271.000000	0.779281
270.000000	0.778291
269.000000	0.789995
268.000000	0.803128
267.000000	0.833536
266.000000	0.849381
265.000000	0.872338
264.000000	0.886437
263.000000	0.918328
262.000000	0.955068
261.000000	0.968586
260.000000	0.977418
259.000000	1.001500
258.000000	1.039533
257.000000	1.074762
256.000000	1.084863
255.000000	1.101778
254.000000	1.102105
253.000000	1.096881
252.000000	1.092417
251.000000	1.067198
250.000000	1.029075
249.000000	0.987829
248.000000	0.924446
247.000000	0.855444
246.000000	0.768388
245.000000	0.681017
244.000000	0.598833
243.000000	0.534253
242.000000	0.478812
241.000000	0.411461
240.000000	0.359914
239.000000	0.327249
238.000000	0.308628
237.000000	0.280142
236.000000	0.260398
235.000000	0.238227
234.000000	0.221663
233.000000	0.208681
232.000000	0.196206
231.000000	0.184196
230.000000	0.165320
229.000000	0.144662
228.000000	0.130439
227.000000	0.117799
226.000000	0.105557
225.000000	0.100449
224.000000	0.094100
223.000000	0.082522
222.000000	0.077354
221.000000	0.077917
220.000000	0.075837
219.000000	0.074919
218.000000	0.067712
217.000000	0.064178
216.000000	0.068147
215.000000	0.059137
214.000000	0.057052
213.000000	0.063871
212.000000	0.061285
211.000000	0.050900
210.000000	0.049781
209.000000	0.033186
208.000000	0.045687
207.000000	0.054580
206.000000	0.052968
205.000000	0.054932
204.000000	0.052575
203.000000	0.063307
202.000000	0.060718
201.000000	0.074783
200.000000	0.104121
