PE UV       SUBTECH     SPECTRUM    ASCII       PEDS        4.00        
   -1
TDgChevreUK 22.Sample.asc
18/03/08
15:25:08.00
18/03/08
15:25:08.00
Administrator

200.000000
1
Lambda 750
750N8071901
PerkinElmer UV WinLab 6.0.4.0738 / 1.61.00 Lambda 900

0
0
3350/servo 860.8/2
0
0
UV/VIS
1
1
1
CommonBeamDepol,150mm sphere / downward view
0
0
0
0
Program
Program
3350/servo 860.8/2
3350/0.2 860.8/0.2
3350/0.2 860.8/0.2
0
1
 
 
 
0
 
860.8
319.2
860.8
Front
100
on
 
 
0
0
0
 
0
 
 
 
0
 
 
0
0
0
0
0
 
 
 
 
0
0


0
0
#HDR
-1
-1
#GR
nm
%T
1.0
0.0
2350.000000
-1.000000
2151
8
36.873601
0.078430
#DATA
2350.000000	7.405811
2349.000000	7.715052
2348.000000	7.540624
2347.000000	7.865202
2346.000000	7.958634
2345.000000	7.502965
2344.000000	7.346847
2343.000000	7.365633
2342.000000	7.592882
2341.000000	7.616115
2340.000000	7.739083
2339.000000	8.027814
2338.000000	8.063611
2337.000000	8.196683
2336.000000	8.100998
2335.000000	8.258310
2334.000000	8.067939
2333.000000	8.826916
2332.000000	8.717557
2331.000000	8.376391
2330.000000	8.183938
2329.000000	8.036975
2328.000000	8.373474
2327.000000	8.205030
2326.000000	8.167193
2325.000000	8.348642
2324.000000	8.111320
2323.000000	8.139714
2322.000000	8.099218
2321.000000	8.128622
2320.000000	8.105000
2319.000000	8.056918
2318.000000	7.900911
2317.000000	8.219980
2316.000000	7.881474
2315.000000	8.087296
2314.000000	7.992595
2313.000000	7.663526
2312.000000	7.601748
2311.000000	7.834462
2310.000000	7.705448
2309.000000	7.581517
2308.000000	7.566701
2307.000000	7.612561
2306.000000	7.762216
2305.000000	7.516239
2304.000000	7.390650
2303.000000	7.422365
2302.000000	7.262076
2301.000000	7.254027
2300.000000	7.032506
2299.000000	7.246440
2298.000000	7.202349
2297.000000	7.046042
2296.000000	7.194927
2295.000000	7.293223
2294.000000	7.127096
2293.000000	7.110726
2292.000000	6.988283
2291.000000	6.819191
2290.000000	6.799797
2289.000000	6.880231
2288.000000	7.050574
2287.000000	6.943926
2286.000000	6.670248
2285.000000	6.823611
2284.000000	6.801593
2283.000000	6.677275
2282.000000	6.789087
2281.000000	6.918586
2280.000000	6.819648
2279.000000	6.856069
2278.000000	6.874756
2277.000000	6.969531
2276.000000	6.878663
2275.000000	6.716609
2274.000000	6.762502
2273.000000	7.073927
2272.000000	7.111076
2271.000000	6.962849
2270.000000	7.091788
2269.000000	7.079502
2268.000000	7.046545
2267.000000	7.188718
2266.000000	7.303435
2265.000000	7.237591
2264.000000	7.413123
2263.000000	7.345574
2262.000000	7.466855
2261.000000	7.674081
2260.000000	7.679885
2259.000000	7.747988
2258.000000	7.944205
2257.000000	8.067708
2256.000000	8.023164
2255.000000	8.150965
2254.000000	8.255111
2253.000000	8.355936
2252.000000	8.629934
2251.000000	8.832179
2250.000000	8.970062
2249.000000	9.031480
2248.000000	9.060985
2247.000000	9.151003
2246.000000	9.242244
2245.000000	9.424653
2244.000000	9.461842
2243.000000	9.615156
2242.000000	9.798761
2241.000000	9.741384
2240.000000	9.870089
2239.000000	9.947341
2238.000000	10.001714
2237.000000	10.087367
2236.000000	10.078146
2235.000000	10.056165
2234.000000	10.176254
2233.000000	10.317238
2232.000000	10.399062
2231.000000	10.453298
2230.000000	10.458785
2229.000000	10.457679
2228.000000	10.469179
2227.000000	10.530754
2226.000000	10.457975
2225.000000	10.337307
2224.000000	10.272426
2223.000000	10.237104
2222.000000	10.315782
2221.000000	10.470895
2220.000000	10.497031
2219.000000	10.343443
2218.000000	10.189243
2217.000000	10.148959
2216.000000	10.147389
2215.000000	10.239251
2214.000000	10.299179
2213.000000	10.333813
2212.000000	10.142283
2211.000000	10.054007
2210.000000	10.008768
2209.000000	9.991914
2208.000000	9.970800
2207.000000	9.944151
2206.000000	9.846573
2205.000000	9.731101
2204.000000	9.558760
2203.000000	9.552171
2202.000000	9.617498
2201.000000	9.468182
2200.000000	9.540702
2199.000000	9.537252
2198.000000	9.600907
2197.000000	9.505119
2196.000000	9.371220
2195.000000	9.190119
2194.000000	9.186608
2193.000000	9.198614
2192.000000	9.063003
2191.000000	8.872406
2190.000000	8.895632
2189.000000	8.973336
2188.000000	8.938514
2187.000000	8.811484
2186.000000	8.797687
2185.000000	8.778184
2184.000000	8.832093
2183.000000	8.790249
2182.000000	8.791520
2181.000000	8.657409
2180.000000	8.765587
2179.000000	8.663471
2178.000000	8.720547
2177.000000	8.713528
2176.000000	8.707636
2175.000000	8.680219
2174.000000	8.728545
2173.000000	8.779486
2172.000000	8.686587
2171.000000	8.867775
2170.000000	8.909085
2169.000000	8.845706
2168.000000	9.047116
2167.000000	9.035949
2166.000000	8.723992
2165.000000	8.949407
2164.000000	8.924528
2163.000000	9.064438
2162.000000	9.071737
2161.000000	9.219837
2160.000000	9.445681
2159.000000	9.604508
2158.000000	9.530116
2157.000000	9.573151
2156.000000	9.769296
2155.000000	10.036061
2154.000000	9.907249
2153.000000	10.005675
2152.000000	10.390645
2151.000000	10.106022
2150.000000	10.136183
2149.000000	10.146303
2148.000000	10.172917
2147.000000	10.434354
2146.000000	10.453580
2145.000000	10.489719
2144.000000	10.730369
2143.000000	10.819388
2142.000000	10.865229
2141.000000	11.029209
2140.000000	10.969053
2139.000000	10.948408
2138.000000	11.004645
2137.000000	11.140958
2136.000000	11.210812
2135.000000	11.241143
2134.000000	11.297612
2133.000000	11.233292
2132.000000	11.656679
2131.000000	11.589888
2130.000000	11.768585
2129.000000	11.662273
2128.000000	11.877481
2127.000000	11.778239
2126.000000	11.688841
2125.000000	11.795995
2124.000000	11.899953
2123.000000	11.802675
2122.000000	11.965387
2121.000000	11.981218
2120.000000	11.871872
2119.000000	12.028512
2118.000000	12.103744
2117.000000	11.991979
2116.000000	12.051752
2115.000000	11.979241
2114.000000	12.068800
2113.000000	12.053738
2112.000000	12.126173
2111.000000	12.001531
2110.000000	12.036986
2109.000000	12.086342
2108.000000	12.095497
2107.000000	12.106060
2106.000000	12.049010
2105.000000	11.894758
2104.000000	12.078028
2103.000000	12.056363
2102.000000	12.159176
2101.000000	12.249815
2100.000000	12.291282
2099.000000	12.221704
2098.000000	12.117820
2097.000000	12.175388
2096.000000	12.234661
2095.000000	12.193741
2094.000000	12.179521
2093.000000	12.115930
2092.000000	12.196526
2091.000000	12.178753
2090.000000	12.030068
2089.000000	11.937544
2088.000000	12.001573
2087.000000	12.000874
2086.000000	12.057893
2085.000000	12.032051
2084.000000	11.942943
2083.000000	11.894739
2082.000000	11.868454
2081.000000	11.723476
2080.000000	11.703749
2079.000000	11.693843
2078.000000	11.633973
2077.000000	11.583252
2076.000000	11.509845
2075.000000	11.438076
2074.000000	11.398622
2073.000000	11.354089
2072.000000	11.279210
2071.000000	11.158506
2070.000000	11.101704
2069.000000	10.958257
2068.000000	10.902975
2067.000000	10.755150
2066.000000	10.657133
2065.000000	10.534914
2064.000000	10.453399
2063.000000	10.361255
2062.000000	10.221862
2061.000000	10.160380
2060.000000	10.079566
2059.000000	10.038519
2058.000000	9.955761
2057.000000	9.808112
2056.000000	9.774990
2055.000000	9.689230
2054.000000	9.553250
2053.000000	9.428797
2052.000000	9.367882
2051.000000	9.332065
2050.000000	9.263687
2049.000000	9.179157
2048.000000	9.122131
2047.000000	9.123798
2046.000000	9.073863
2045.000000	9.018922
2044.000000	9.000742
2043.000000	8.958277
2042.000000	8.983921
2041.000000	9.012916
2040.000000	9.015726
2039.000000	8.985097
2038.000000	9.017979
2037.000000	9.095323
2036.000000	9.084645
2035.000000	9.151256
2034.000000	9.252641
2033.000000	9.346434
2032.000000	9.416167
2031.000000	9.443839
2030.000000	9.479834
2029.000000	9.496550
2028.000000	9.607615
2027.000000	9.689979
2026.000000	9.755756
2025.000000	9.843212
2024.000000	9.875862
2023.000000	9.917687
2022.000000	9.953088
2021.000000	9.979731
2020.000000	9.971549
2019.000000	9.976576
2018.000000	10.030489
2017.000000	10.014545
2016.000000	9.985384
2015.000000	9.988152
2014.000000	9.968017
2013.000000	9.970549
2012.000000	9.968678
2011.000000	9.964230
2010.000000	9.910958
2009.000000	9.858344
2008.000000	9.796498
2007.000000	9.707424
2006.000000	9.637552
2005.000000	9.622555
2004.000000	9.589130
2003.000000	9.541778
2002.000000	9.465965
2001.000000	9.357390
2000.000000	9.310986
1999.000000	9.277251
1998.000000	9.194745
1997.000000	9.154390
1996.000000	9.067610
1995.000000	9.024801
1994.000000	8.929170
1993.000000	8.877136
1992.000000	8.810326
1991.000000	8.727605
1990.000000	8.651802
1989.000000	8.576675
1988.000000	8.518500
1987.000000	8.492015
1986.000000	8.442286
1985.000000	8.375114
1984.000000	8.285923
1983.000000	8.200143
1982.000000	8.185925
1981.000000	8.085652
1980.000000	8.064833
1979.000000	8.023070
1978.000000	7.940013
1977.000000	7.879572
1976.000000	7.801524
1975.000000	7.709593
1974.000000	7.658353
1973.000000	7.606339
1972.000000	7.608257
1971.000000	7.569516
1970.000000	7.487500
1969.000000	7.418721
1968.000000	7.381525
1967.000000	7.360456
1966.000000	7.317487
1965.000000	7.258076
1964.000000	7.201681
1963.000000	7.173138
1962.000000	7.133605
1961.000000	7.041990
1960.000000	6.987532
1959.000000	6.960876
1958.000000	6.896124
1957.000000	6.902772
1956.000000	6.884673
1955.000000	6.874803
1954.000000	6.795759
1953.000000	6.795871
1952.000000	6.830277
1951.000000	6.806898
1950.000000	6.733131
1949.000000	6.733265
1948.000000	6.725935
1947.000000	6.737034
1946.000000	6.659103
1945.000000	6.718815
1944.000000	6.677011
1943.000000	6.702787
1942.000000	6.755179
1941.000000	6.736385
1940.000000	6.847620
1939.000000	6.870460
1938.000000	6.845680
1937.000000	6.933605
1936.000000	6.969638
1935.000000	7.010293
1934.000000	7.127473
1933.000000	7.131766
1932.000000	7.187894
1931.000000	7.363374
1930.000000	7.498570
1929.000000	7.597240
1928.000000	7.669625
1927.000000	7.755270
1926.000000	7.850576
1925.000000	7.951361
1924.000000	8.163379
1923.000000	8.397737
1922.000000	8.565692
1921.000000	8.794083
1920.000000	8.818569
1919.000000	8.845392
1918.000000	9.138605
1917.000000	9.412584
1916.000000	9.476003
1915.000000	9.789099
1914.000000	10.087899
1913.000000	10.342606
1912.000000	10.536874
1911.000000	10.847689
1910.000000	11.011659
1909.000000	11.315683
1908.000000	11.539807
1907.000000	11.922651
1906.000000	12.252437
1905.000000	12.572463
1904.000000	12.984615
1903.000000	13.301200
1902.000000	13.662044
1901.000000	14.042031
1900.000000	14.438491
1899.000000	14.797217
1898.000000	15.231088
1897.000000	15.689312
1896.000000	16.036757
1895.000000	16.401585
1894.000000	16.807432
1893.000000	17.193326
1892.000000	17.514907
1891.000000	17.970260
1890.000000	18.372372
1889.000000	18.794954
1888.000000	19.167963
1887.000000	19.498234
1886.000000	19.881976
1885.000000	20.236207
1884.000000	20.596430
1883.000000	20.906374
1882.000000	21.257753
1881.000000	21.539198
1880.000000	21.867146
1879.000000	22.168855
1878.000000	22.417688
1877.000000	22.753351
1876.000000	22.974659
1875.000000	23.257444
1874.000000	23.507236
1873.000000	23.702092
1872.000000	23.889639
1871.000000	24.063082
1870.000000	24.225062
1869.000000	24.422563
1868.000000	24.536058
1867.000000	24.576182
1866.000000	24.725314
1865.000000	24.854885
1864.000000	24.940414
1863.000000	25.008944
1862.000000	25.052343
1861.000000	25.104575
1860.000000	25.185534
1859.000000	25.264079
1858.000000	25.310384
1857.000000	25.337715
1856.000000	25.354305
1855.000000	25.400772
1854.000000	25.471152
1853.000000	25.484430
1852.000000	25.510377
1851.000000	25.500565
1850.000000	25.501632
1849.000000	25.522993
1848.000000	25.526992
1847.000000	25.484342
1846.000000	25.478391
1845.000000	25.464822
1844.000000	25.479527
1843.000000	25.440683
1842.000000	25.428040
1841.000000	25.400949
1840.000000	25.349128
1839.000000	25.347269
1838.000000	25.309241
1837.000000	25.236561
1836.000000	25.173209
1835.000000	25.120611
1834.000000	25.060167
1833.000000	25.018490
1832.000000	24.982420
1831.000000	24.926121
1830.000000	24.886801
1829.000000	24.830094
1828.000000	24.776773
1827.000000	24.738965
1826.000000	24.695836
1825.000000	24.660081
1824.000000	24.636335
1823.000000	24.625951
1822.000000	24.562086
1821.000000	24.506694
1820.000000	24.463048
1819.000000	24.427880
1818.000000	24.399611
1817.000000	24.372731
1816.000000	24.336345
1815.000000	24.303185
1814.000000	24.278669
1813.000000	24.226362
1812.000000	24.182673
1811.000000	24.148292
1810.000000	24.112298
1809.000000	24.071913
1808.000000	24.035101
1807.000000	24.008638
1806.000000	23.963243
1805.000000	23.917811
1804.000000	23.891090
1803.000000	23.862971
1802.000000	23.834952
1801.000000	23.806372
1800.000000	23.783519
1799.000000	23.753184
1798.000000	23.716339
1797.000000	23.686501
1796.000000	23.676704
1795.000000	23.661555
1794.000000	23.646031
1793.000000	23.631979
1792.000000	23.621209
1791.000000	23.597240
1790.000000	23.565299
1789.000000	23.542259
1788.000000	23.530357
1787.000000	23.514494
1786.000000	23.491343
1785.000000	23.462463
1784.000000	23.425578
1783.000000	23.384408
1782.000000	23.355565
1781.000000	23.331282
1780.000000	23.312746
1779.000000	23.274283
1778.000000	23.221696
1777.000000	23.179993
1776.000000	23.134987
1775.000000	23.082533
1774.000000	23.018510
1773.000000	22.982914
1772.000000	22.930189
1771.000000	22.850826
1770.000000	22.816310
1769.000000	22.757080
1768.000000	22.662502
1767.000000	22.619005
1766.000000	22.568116
1765.000000	22.535521
1764.000000	22.486923
1763.000000	22.420047
1762.000000	22.362594
1761.000000	22.315988
1760.000000	22.259273
1759.000000	22.199247
1758.000000	22.159390
1757.000000	22.099921
1756.000000	22.046862
1755.000000	22.008495
1754.000000	21.951406
1753.000000	21.924054
1752.000000	21.881061
1751.000000	21.807226
1750.000000	21.771684
1749.000000	21.722327
1748.000000	21.645520
1747.000000	21.571967
1746.000000	21.540610
1745.000000	21.442230
1744.000000	21.400321
1743.000000	21.363341
1742.000000	21.298586
1741.000000	21.232935
1740.000000	21.182872
1739.000000	21.147831
1738.000000	21.092962
1737.000000	21.039071
1736.000000	21.014360
1735.000000	21.000058
1734.000000	20.989490
1733.000000	20.958805
1732.000000	20.968314
1731.000000	20.983729
1730.000000	20.981607
1729.000000	21.028949
1728.000000	21.035064
1727.000000	21.081771
1726.000000	21.146812
1725.000000	21.221565
1724.000000	21.292486
1723.000000	21.347036
1722.000000	21.437816
1721.000000	21.526139
1720.000000	21.599011
1719.000000	21.725223
1718.000000	21.808844
1717.000000	21.886970
1716.000000	21.958124
1715.000000	22.069014
1714.000000	22.153553
1713.000000	22.198281
1712.000000	22.281994
1711.000000	22.376337
1710.000000	22.417112
1709.000000	22.453108
1708.000000	22.511047
1707.000000	22.530012
1706.000000	22.583889
1705.000000	22.615008
1704.000000	22.663597
1703.000000	22.666940
1702.000000	22.679450
1701.000000	22.705100
1700.000000	22.744086
1699.000000	22.745598
1698.000000	22.781408
1697.000000	22.817526
1696.000000	22.829620
1695.000000	22.871283
1694.000000	22.929934
1693.000000	22.963985
1692.000000	23.014157
1691.000000	23.125786
1690.000000	23.198221
1689.000000	23.287504
1688.000000	23.384560
1687.000000	23.498988
1686.000000	23.592971
1685.000000	23.755338
1684.000000	23.891862
1683.000000	24.024079
1682.000000	24.197010
1681.000000	24.339912
1680.000000	24.495618
1679.000000	24.688584
1678.000000	24.862569
1677.000000	25.004244
1676.000000	25.200552
1675.000000	25.365374
1674.000000	25.534550
1673.000000	25.696464
1672.000000	25.863605
1671.000000	26.018779
1670.000000	26.156059
1669.000000	26.331331
1668.000000	26.460998
1667.000000	26.597099
1666.000000	26.682351
1665.000000	26.762609
1664.000000	26.854318
1663.000000	26.924011
1662.000000	26.994672
1661.000000	27.062568
1660.000000	27.158775
1659.000000	27.225955
1658.000000	27.259952
1657.000000	27.294667
1656.000000	27.343653
1655.000000	27.363075
1654.000000	27.378899
1653.000000	27.419381
1652.000000	27.427459
1651.000000	27.400897
1650.000000	27.397246
1649.000000	27.392567
1648.000000	27.372991
1647.000000	27.358304
1646.000000	27.352603
1645.000000	27.347423
1644.000000	27.325482
1643.000000	27.283376
1642.000000	27.251865
1641.000000	27.224754
1640.000000	27.196221
1639.000000	27.163864
1638.000000	27.131806
1637.000000	27.102725
1636.000000	27.048361
1635.000000	26.991403
1634.000000	26.950597
1633.000000	26.921353
1632.000000	26.887781
1631.000000	26.834315
1630.000000	26.786863
1629.000000	26.732879
1628.000000	26.676937
1627.000000	26.625109
1626.000000	26.575110
1625.000000	26.525551
1624.000000	26.475429
1623.000000	26.430925
1622.000000	26.371381
1621.000000	26.316153
1620.000000	26.273974
1619.000000	26.212966
1618.000000	26.151714
1617.000000	26.096984
1616.000000	26.045182
1615.000000	25.975764
1614.000000	25.912527
1613.000000	25.840136
1612.000000	25.779039
1611.000000	25.723464
1610.000000	25.654794
1609.000000	25.589542
1608.000000	25.520972
1607.000000	25.450807
1606.000000	25.395563
1605.000000	25.325741
1604.000000	25.248194
1603.000000	25.181246
1602.000000	25.120648
1601.000000	25.051612
1600.000000	24.988468
1599.000000	24.935149
1598.000000	24.873900
1597.000000	24.801655
1596.000000	24.733790
1595.000000	24.687863
1594.000000	24.624267
1593.000000	24.568333
1592.000000	24.520980
1591.000000	24.461141
1590.000000	24.413543
1589.000000	24.347487
1588.000000	24.290078
1587.000000	24.239503
1586.000000	24.188449
1585.000000	24.144307
1584.000000	24.090842
1583.000000	24.033154
1582.000000	23.978486
1581.000000	23.940343
1580.000000	23.894285
1579.000000	23.847064
1578.000000	23.800430
1577.000000	23.735316
1576.000000	23.679592
1575.000000	23.634925
1574.000000	23.590535
1573.000000	23.545763
1572.000000	23.501677
1571.000000	23.449224
1570.000000	23.409952
1569.000000	23.363657
1568.000000	23.311966
1567.000000	23.270148
1566.000000	23.227769
1565.000000	23.186347
1564.000000	23.159103
1563.000000	23.142014
1562.000000	23.111819
1561.000000	23.072172
1560.000000	23.043596
1559.000000	23.021299
1558.000000	22.992541
1557.000000	22.952113
1556.000000	22.917885
1555.000000	22.892972
1554.000000	22.842167
1553.000000	22.812595
1552.000000	22.779940
1551.000000	22.734155
1550.000000	22.697923
1549.000000	22.653043
1548.000000	22.599336
1547.000000	22.558781
1546.000000	22.477298
1545.000000	22.424748
1544.000000	22.356176
1543.000000	22.266904
1542.000000	22.189641
1541.000000	22.121052
1540.000000	22.038670
1539.000000	21.957442
1538.000000	21.882203
1537.000000	21.787783
1536.000000	21.680062
1535.000000	21.600283
1534.000000	21.520076
1533.000000	21.452449
1532.000000	21.362983
1531.000000	21.264319
1530.000000	21.195284
1529.000000	21.133062
1528.000000	21.054208
1527.000000	20.981463
1526.000000	20.924862
1525.000000	20.859804
1524.000000	20.801346
1523.000000	20.736787
1522.000000	20.683153
1521.000000	20.638737
1520.000000	20.604520
1519.000000	20.567575
1518.000000	20.522043
1517.000000	20.477715
1516.000000	20.445923
1515.000000	20.407523
1514.000000	20.363856
1513.000000	20.334569
1512.000000	20.321723
1511.000000	20.292710
1510.000000	20.282836
1509.000000	20.254246
1508.000000	20.218327
1507.000000	20.216354
1506.000000	20.221454
1505.000000	20.213494
1504.000000	20.243510
1503.000000	20.218793
1502.000000	20.211300
1501.000000	20.180884
1500.000000	20.157488
1499.000000	20.164261
1498.000000	20.161270
1497.000000	20.145570
1496.000000	20.152009
1495.000000	20.161179
1494.000000	20.160156
1493.000000	20.170298
1492.000000	20.190601
1491.000000	20.229027
1490.000000	20.239975
1489.000000	20.263791
1488.000000	20.291392
1487.000000	20.316484
1486.000000	20.345051
1485.000000	20.379942
1484.000000	20.417318
1483.000000	20.469883
1482.000000	20.482695
1481.000000	20.535518
1480.000000	20.580750
1479.000000	20.616181
1478.000000	20.639903
1477.000000	20.656831
1476.000000	20.687419
1475.000000	20.728032
1474.000000	20.759134
1473.000000	20.810769
1472.000000	20.841141
1471.000000	20.871106
1470.000000	20.911542
1469.000000	20.943285
1468.000000	20.978900
1467.000000	21.010137
1466.000000	21.069466
1465.000000	21.109689
1464.000000	21.137644
1463.000000	21.149072
1462.000000	21.216224
1461.000000	21.291404
1460.000000	21.322451
1459.000000	21.357003
1458.000000	21.387640
1457.000000	21.450539
1456.000000	21.506293
1455.000000	21.539925
1454.000000	21.581785
1453.000000	21.643642
1452.000000	21.717716
1451.000000	21.798204
1450.000000	21.835864
1449.000000	21.887017
1448.000000	21.950326
1447.000000	22.011423
1446.000000	22.122738
1445.000000	22.205408
1444.000000	22.266542
1443.000000	22.329035
1442.000000	22.402235
1441.000000	22.489635
1440.000000	22.554472
1439.000000	22.653436
1438.000000	22.760656
1437.000000	22.880784
1436.000000	22.974656
1435.000000	23.069405
1434.000000	23.163940
1433.000000	23.265632
1432.000000	23.392131
1431.000000	23.515058
1430.000000	23.640336
1429.000000	23.755260
1428.000000	23.887134
1427.000000	24.024433
1426.000000	24.174158
1425.000000	24.333279
1424.000000	24.476469
1423.000000	24.609097
1422.000000	24.770913
1421.000000	24.960378
1420.000000	25.131711
1419.000000	25.298045
1418.000000	25.486674
1417.000000	25.681973
1416.000000	25.866907
1415.000000	26.051688
1414.000000	26.235842
1413.000000	26.452266
1412.000000	26.669408
1411.000000	26.868840
1410.000000	27.062348
1409.000000	27.286763
1408.000000	27.502642
1407.000000	27.700431
1406.000000	27.898127
1405.000000	28.104828
1404.000000	28.316576
1403.000000	28.529279
1402.000000	28.725687
1401.000000	28.916863
1400.000000	29.096869
1399.000000	29.276695
1398.000000	29.467414
1397.000000	29.662039
1396.000000	29.854623
1395.000000	30.027900
1394.000000	30.195985
1393.000000	30.361900
1392.000000	30.517703
1391.000000	30.678021
1390.000000	30.832265
1389.000000	30.971505
1388.000000	31.106717
1387.000000	31.261573
1386.000000	31.422466
1385.000000	31.554207
1384.000000	31.674959
1383.000000	31.792508
1382.000000	31.891630
1381.000000	31.982972
1380.000000	32.091521
1379.000000	32.192983
1378.000000	32.268461
1377.000000	32.338480
1376.000000	32.409154
1375.000000	32.492575
1374.000000	32.565214
1373.000000	32.623080
1372.000000	32.674741
1371.000000	32.730132
1370.000000	32.793430
1369.000000	32.862846
1368.000000	32.938498
1367.000000	32.995866
1366.000000	33.048797
1365.000000	33.100100
1364.000000	33.145714
1363.000000	33.204152
1362.000000	33.262791
1361.000000	33.326324
1360.000000	33.377819
1359.000000	33.448725
1358.000000	33.510014
1357.000000	33.569759
1356.000000	33.633038
1355.000000	33.703089
1354.000000	33.770824
1353.000000	33.816266
1352.000000	33.866463
1351.000000	33.938321
1350.000000	34.014798
1349.000000	34.055735
1348.000000	34.114445
1347.000000	34.179522
1346.000000	34.224719
1345.000000	34.284889
1344.000000	34.357261
1343.000000	34.423295
1342.000000	34.470272
1341.000000	34.525516
1340.000000	34.566058
1339.000000	34.616986
1338.000000	34.661700
1337.000000	34.730555
1336.000000	34.794762
1335.000000	34.820368
1334.000000	34.855525
1333.000000	34.881804
1332.000000	34.922692
1331.000000	34.971806
1330.000000	35.028587
1329.000000	35.044538
1328.000000	35.051798
1327.000000	35.096141
1326.000000	35.132630
1325.000000	35.153390
1324.000000	35.158556
1323.000000	35.188130
1322.000000	35.238189
1321.000000	35.268874
1320.000000	35.261837
1319.000000	35.265715
1318.000000	35.286186
1317.000000	35.295923
1316.000000	35.337654
1315.000000	35.357250
1314.000000	35.369230
1313.000000	35.365745
1312.000000	35.364426
1311.000000	35.393010
1310.000000	35.449328
1309.000000	35.455579
1308.000000	35.457486
1307.000000	35.451000
1306.000000	35.455381
1305.000000	35.456633
1304.000000	35.463058
1303.000000	35.491882
1302.000000	35.503776
1301.000000	35.510528
1300.000000	35.508525
1299.000000	35.513920
1298.000000	35.511886
1297.000000	35.507858
1296.000000	35.500138
1295.000000	35.499570
1294.000000	35.509477
1293.000000	35.485743
1292.000000	35.495670
1291.000000	35.483283
1290.000000	35.474999
1289.000000	35.479316
1288.000000	35.484737
1287.000000	35.465482
1286.000000	35.412784
1285.000000	35.407366
1284.000000	35.380663
1283.000000	35.392186
1282.000000	35.403661
1281.000000	35.414275
1280.000000	35.413049
1279.000000	35.422638
1278.000000	35.407864
1277.000000	35.406612
1276.000000	35.399002
1275.000000	35.392029
1274.000000	35.392573
1273.000000	35.399950
1272.000000	35.394738
1271.000000	35.398240
1270.000000	35.390045
1269.000000	35.392323
1268.000000	35.386424
1267.000000	35.385840
1266.000000	35.397191
1265.000000	35.402003
1264.000000	35.424238
1263.000000	35.436385
1262.000000	35.457972
1261.000000	35.455757
1260.000000	35.451582
1259.000000	35.452550
1258.000000	35.445342
1257.000000	35.460459
1256.000000	35.496417
1255.000000	35.494914
1254.000000	35.473730
1253.000000	35.462691
1252.000000	35.480412
1251.000000	35.478363
1250.000000	35.467333
1249.000000	35.442145
1248.000000	35.449216
1247.000000	35.444607
1246.000000	35.409190
1245.000000	35.413883
1244.000000	35.398450
1243.000000	35.375601
1242.000000	35.348462
1241.000000	35.298847
1240.000000	35.288449
1239.000000	35.267531
1238.000000	35.251645
1237.000000	35.186565
1236.000000	35.151564
1235.000000	35.138712
1234.000000	35.082254
1233.000000	35.052655
1232.000000	35.052463
1231.000000	35.035231
1230.000000	35.009993
1229.000000	34.945668
1228.000000	34.918112
1227.000000	34.901733
1226.000000	34.891394
1225.000000	34.860768
1224.000000	34.835986
1223.000000	34.815433
1222.000000	34.790091
1221.000000	34.748218
1220.000000	34.709519
1219.000000	34.681329
1218.000000	34.645232
1217.000000	34.608274
1216.000000	34.566449
1215.000000	34.539749
1214.000000	34.490224
1213.000000	34.471424
1212.000000	34.460879
1211.000000	34.413591
1210.000000	34.372220
1209.000000	34.334842
1208.000000	34.305914
1207.000000	34.254749
1206.000000	34.224088
1205.000000	34.201686
1204.000000	34.147751
1203.000000	34.099298
1202.000000	34.087744
1201.000000	34.050840
1200.000000	33.984334
1199.000000	33.950341
1198.000000	33.937171
1197.000000	33.910031
1196.000000	33.856848
1195.000000	33.813675
1194.000000	33.793879
1193.000000	33.773503
1192.000000	33.751874
1191.000000	33.725951
1190.000000	33.696732
1189.000000	33.651733
1188.000000	33.643432
1187.000000	33.645797
1186.000000	33.633075
1185.000000	33.639583
1184.000000	33.655552
1183.000000	33.669931
1182.000000	33.698822
1181.000000	33.731633
1180.000000	33.767908
1179.000000	33.808860
1178.000000	33.849417
1177.000000	33.888527
1176.000000	33.932116
1175.000000	33.990974
1174.000000	34.053401
1173.000000	34.108013
1172.000000	34.176877
1171.000000	34.252543
1170.000000	34.328712
1169.000000	34.387832
1168.000000	34.455531
1167.000000	34.531650
1166.000000	34.609226
1165.000000	34.694716
1164.000000	34.769752
1163.000000	34.849906
1162.000000	34.936186
1161.000000	35.009350
1160.000000	35.086506
1159.000000	35.166781
1158.000000	35.218755
1157.000000	35.268329
1156.000000	35.333562
1155.000000	35.413291
1154.000000	35.490864
1153.000000	35.557685
1152.000000	35.620453
1151.000000	35.676516
1150.000000	35.732781
1149.000000	35.793928
1148.000000	35.852287
1147.000000	35.907172
1146.000000	35.963414
1145.000000	36.013563
1144.000000	36.057178
1143.000000	36.096733
1142.000000	36.150686
1141.000000	36.187193
1140.000000	36.215669
1139.000000	36.266050
1138.000000	36.313016
1137.000000	36.355882
1136.000000	36.406646
1135.000000	36.457603
1134.000000	36.501033
1133.000000	36.534418
1132.000000	36.562280
1131.000000	36.605699
1130.000000	36.648922
1129.000000	36.676817
1128.000000	36.681010
1127.000000	36.702417
1126.000000	36.712685
1125.000000	36.734520
1124.000000	36.751895
1123.000000	36.755694
1122.000000	36.773176
1121.000000	36.804797
1120.000000	36.816439
1119.000000	36.818746
1118.000000	36.838399
1117.000000	36.841836
1116.000000	36.849004
1115.000000	36.853973
1114.000000	36.847163
1113.000000	36.856409
1112.000000	36.866113
1111.000000	36.862083
1110.000000	36.852255
1109.000000	36.861934
1108.000000	36.868893
1107.000000	36.865037
1106.000000	36.862099
1105.000000	36.873601
1104.000000	36.862529
1103.000000	36.844836
1102.000000	36.835913
1101.000000	36.855997
1100.000000	36.855908
1099.000000	36.861587
1098.000000	36.864522
1097.000000	36.860216
1096.000000	36.870941
1095.000000	36.852516
1094.000000	36.833315
1093.000000	36.828215
1092.000000	36.838738
1091.000000	36.852437
1090.000000	36.853323
1089.000000	36.850091
1088.000000	36.857871
1087.000000	36.822046
1086.000000	36.805119
1085.000000	36.807069
1084.000000	36.815003
1083.000000	36.816768
1082.000000	36.816683
1081.000000	36.789180
1080.000000	36.774693
1079.000000	36.766065
1078.000000	36.780769
1077.000000	36.786936
1076.000000	36.779836
1075.000000	36.767618
1074.000000	36.723796
1073.000000	36.713611
1072.000000	36.713536
1071.000000	36.701443
1070.000000	36.705934
1069.000000	36.713132
1068.000000	36.710969
1067.000000	36.711869
1066.000000	36.669713
1065.000000	36.657606
1064.000000	36.646602
1063.000000	36.636429
1062.000000	36.655096
1061.000000	36.645103
1060.000000	36.586590
1059.000000	36.589200
1058.000000	36.587015
1057.000000	36.592049
1056.000000	36.581256
1055.000000	36.574229
1054.000000	36.538340
1053.000000	36.531019
1052.000000	36.517189
1051.000000	36.539280
1050.000000	36.483684
1049.000000	36.497989
1048.000000	36.485247
1047.000000	36.494553
1046.000000	36.512081
1045.000000	36.455469
1044.000000	36.436167
1043.000000	36.436074
1042.000000	36.444815
1041.000000	36.460830
1040.000000	36.409152
1039.000000	36.416593
1038.000000	36.399334
1037.000000	36.374669
1036.000000	36.382198
1035.000000	36.397639
1034.000000	36.399486
1033.000000	36.405189
1032.000000	36.367399
1031.000000	36.374025
1030.000000	36.384997
1029.000000	36.355472
1028.000000	36.356647
1027.000000	36.348697
1026.000000	36.362849
1025.000000	36.346007
1024.000000	36.355718
1023.000000	36.342175
1022.000000	36.326107
1021.000000	36.341386
1020.000000	36.347327
1019.000000	36.352875
1018.000000	36.344019
1017.000000	36.351489
1016.000000	36.330876
1015.000000	36.342975
1014.000000	36.350431
1013.000000	36.357909
1012.000000	36.341733
1011.000000	36.369565
1010.000000	36.371324
1009.000000	36.357749
1008.000000	36.360809
1007.000000	36.368365
1006.000000	36.382890
1005.000000	36.380265
1004.000000	36.384519
1003.000000	36.407954
1002.000000	36.412686
1001.000000	36.416357
1000.000000	36.432066
999.000000	36.447048
998.000000	36.463691
997.000000	36.456874
996.000000	36.466462
995.000000	36.477686
994.000000	36.468542
993.000000	36.476464
992.000000	36.479864
991.000000	36.508311
990.000000	36.502720
989.000000	36.502323
988.000000	36.497161
987.000000	36.507197
986.000000	36.520219
985.000000	36.520157
984.000000	36.532053
983.000000	36.533669
982.000000	36.532149
981.000000	36.539502
980.000000	36.552772
979.000000	36.558116
978.000000	36.557209
977.000000	36.565572
976.000000	36.575241
975.000000	36.573602
974.000000	36.585090
973.000000	36.599078
972.000000	36.601751
971.000000	36.613015
970.000000	36.622372
969.000000	36.622868
968.000000	36.615369
967.000000	36.630178
966.000000	36.638371
965.000000	36.648071
964.000000	36.651331
963.000000	36.656353
962.000000	36.666123
961.000000	36.667587
960.000000	36.677822
959.000000	36.690005
958.000000	36.694336
957.000000	36.702723
956.000000	36.724723
955.000000	36.722496
954.000000	36.710901
953.000000	36.725353
952.000000	36.735856
951.000000	36.741535
950.000000	36.742636
949.000000	36.747658
948.000000	36.750632
947.000000	36.755906
946.000000	36.767686
945.000000	36.783344
944.000000	36.776669
943.000000	36.766808
942.000000	36.793342
941.000000	36.799546
940.000000	36.789948
939.000000	36.774145
938.000000	36.745295
937.000000	36.728423
936.000000	36.754348
935.000000	36.773416
934.000000	36.757702
933.000000	36.745134
932.000000	36.752477
931.000000	36.736848
930.000000	36.720599
929.000000	36.737384
928.000000	36.714411
927.000000	36.722434
926.000000	36.726546
925.000000	36.701045
924.000000	36.676684
923.000000	36.670833
922.000000	36.677930
921.000000	36.683164
920.000000	36.670084
919.000000	36.663743
918.000000	36.651904
917.000000	36.675622
916.000000	36.669655
915.000000	36.643062
914.000000	36.665880
913.000000	36.669506
912.000000	36.673472
911.000000	36.656748
910.000000	36.651336
909.000000	36.673699
908.000000	36.665615
907.000000	36.639740
906.000000	36.649660
905.000000	36.639691
904.000000	36.664621
903.000000	36.666645
902.000000	36.689291
901.000000	36.657283
900.000000	36.642002
899.000000	36.647978
898.000000	36.644172
897.000000	36.663448
896.000000	36.679227
895.000000	36.664966
894.000000	36.682621
893.000000	36.681838
892.000000	36.672659
891.000000	36.686841
890.000000	36.646490
889.000000	36.669029
888.000000	36.730394
887.000000	36.772359
886.000000	36.750017
885.000000	36.758182
884.000000	36.721009
883.000000	36.677172
882.000000	36.713847
881.000000	36.677751
880.000000	36.679758
879.000000	36.754126
878.000000	36.723787
877.000000	36.726013
876.000000	36.721553
875.000000	36.736461
874.000000	36.742364
873.000000	36.750302
872.000000	36.706684
871.000000	36.739331
870.000000	36.685460
869.000000	36.715705
868.000000	36.649980
867.000000	36.680665
866.000000	36.671976
865.000000	36.652357
864.000000	36.621638
863.000000	36.657794
862.000000	36.625256
861.000000	36.555672
860.000000	36.607308
859.000000	36.531322
858.000000	36.825896
857.000000	36.683399
856.000000	36.549922
855.000000	36.654888
854.000000	36.728026
853.000000	36.625695
852.000000	36.248297
851.000000	36.599680
850.000000	36.578896
849.000000	36.651093
848.000000	36.697712
847.000000	36.593736
846.000000	36.539956
845.000000	36.498030
844.000000	36.526042
843.000000	36.569213
842.000000	36.547178
841.000000	36.561172
840.000000	36.436657
839.000000	36.639117
838.000000	36.417044
837.000000	36.388896
836.000000	36.480349
835.000000	36.460417
834.000000	36.360881
833.000000	36.378266
832.000000	36.450180
831.000000	36.392302
830.000000	36.366361
829.000000	36.403446
828.000000	36.362006
827.000000	36.309155
826.000000	36.388774
825.000000	36.319377
824.000000	36.418408
823.000000	36.351218
822.000000	36.297689
821.000000	36.220853
820.000000	36.324509
819.000000	36.313768
818.000000	36.251080
817.000000	36.169522
816.000000	36.277397
815.000000	36.200633
814.000000	36.218268
813.000000	36.157572
812.000000	36.161575
811.000000	36.252113
810.000000	36.103217
809.000000	36.260285
808.000000	36.138514
807.000000	36.266459
806.000000	36.211564
805.000000	36.108701
804.000000	36.149282
803.000000	36.215813
802.000000	36.111126
801.000000	36.068342
800.000000	36.030744
799.000000	36.008703
798.000000	36.102265
797.000000	36.127290
796.000000	36.017392
795.000000	36.089043
794.000000	36.154302
793.000000	36.094135
792.000000	36.038127
791.000000	35.964606
790.000000	35.951340
789.000000	36.084106
788.000000	35.987337
787.000000	36.016806
786.000000	35.930138
785.000000	35.979665
784.000000	35.848600
783.000000	35.819847
782.000000	35.854128
781.000000	35.885147
780.000000	35.872494
779.000000	35.894885
778.000000	35.876892
777.000000	35.879200
776.000000	35.839436
775.000000	35.838827
774.000000	35.815119
773.000000	35.850194
772.000000	35.824255
771.000000	35.755500
770.000000	35.707247
769.000000	35.649068
768.000000	35.676892
767.000000	35.749733
766.000000	35.764460
765.000000	35.696896
764.000000	35.651121
763.000000	35.725383
762.000000	35.679811
761.000000	35.642846
760.000000	35.582876
759.000000	35.610964
758.000000	35.622740
757.000000	35.557271
756.000000	35.562862
755.000000	35.553723
754.000000	35.505630
753.000000	35.510247
752.000000	35.476291
751.000000	35.488412
750.000000	35.469239
749.000000	35.462621
748.000000	35.423791
747.000000	35.390499
746.000000	35.419099
745.000000	35.425889
744.000000	35.442181
743.000000	35.345459
742.000000	35.330744
741.000000	35.352853
740.000000	35.309762
739.000000	35.306984
738.000000	35.277848
737.000000	35.245098
736.000000	35.212347
735.000000	35.216480
734.000000	35.216645
733.000000	35.217471
732.000000	35.186444
731.000000	35.171755
730.000000	35.146253
729.000000	35.128107
728.000000	35.102149
727.000000	35.118710
726.000000	35.122800
725.000000	35.094327
724.000000	35.053509
723.000000	35.016334
722.000000	35.039192
721.000000	35.053846
720.000000	35.021412
719.000000	34.981205
718.000000	34.948479
717.000000	34.917213
716.000000	34.877415
715.000000	34.853703
714.000000	34.863299
713.000000	34.835472
712.000000	34.806226
711.000000	34.791690
710.000000	34.752523
709.000000	34.743317
708.000000	34.753096
707.000000	34.729169
706.000000	34.672859
705.000000	34.649116
704.000000	34.635688
703.000000	34.620303
702.000000	34.596265
701.000000	34.538940
700.000000	34.504560
699.000000	34.503868
698.000000	34.509675
697.000000	34.469506
696.000000	34.442485
695.000000	34.435744
694.000000	34.432689
693.000000	34.371312
692.000000	34.344167
691.000000	34.311266
690.000000	34.270628
689.000000	34.231863
688.000000	34.204387
687.000000	34.184720
686.000000	34.171912
685.000000	34.134025
684.000000	34.084554
683.000000	34.057786
682.000000	34.024270
681.000000	34.025790
680.000000	33.976985
679.000000	33.943973
678.000000	33.917250
677.000000	33.904445
676.000000	33.869583
675.000000	33.854532
674.000000	33.836839
673.000000	33.798909
672.000000	33.761944
671.000000	33.729400
670.000000	33.721203
669.000000	33.681743
668.000000	33.650884
667.000000	33.621720
666.000000	33.573990
665.000000	33.542441
664.000000	33.514207
663.000000	33.483792
662.000000	33.444212
661.000000	33.451615
660.000000	33.399151
659.000000	33.380722
658.000000	33.331397
657.000000	33.297055
656.000000	33.264703
655.000000	33.243836
654.000000	33.212608
653.000000	33.183539
652.000000	33.145719
651.000000	33.114325
650.000000	33.072672
649.000000	33.050685
648.000000	32.999332
647.000000	32.957006
646.000000	32.956039
645.000000	32.927782
644.000000	32.880058
643.000000	32.809007
642.000000	32.809908
641.000000	32.792436
640.000000	32.736904
639.000000	32.696028
638.000000	32.643977
637.000000	32.600312
636.000000	32.589665
635.000000	32.539547
634.000000	32.483598
633.000000	32.475800
632.000000	32.442805
631.000000	32.437148
630.000000	32.407378
629.000000	32.322058
628.000000	32.276472
627.000000	32.267832
626.000000	32.228410
625.000000	32.177792
624.000000	32.169164
623.000000	32.094490
622.000000	32.044693
621.000000	32.007238
620.000000	31.971998
619.000000	31.954896
618.000000	31.948898
617.000000	31.918553
616.000000	31.838086
615.000000	31.823721
614.000000	31.753028
613.000000	31.733311
612.000000	31.716586
611.000000	31.638908
610.000000	31.628697
609.000000	31.576607
608.000000	31.505043
607.000000	31.499684
606.000000	31.451367
605.000000	31.426716
604.000000	31.374700
603.000000	31.316076
602.000000	31.278378
601.000000	31.259015
600.000000	31.242945
599.000000	31.146502
598.000000	31.125737
597.000000	31.079306
596.000000	31.042856
595.000000	31.003781
594.000000	30.987730
593.000000	30.888251
592.000000	30.854096
591.000000	30.812089
590.000000	30.739019
589.000000	30.745537
588.000000	30.715094
587.000000	30.663902
586.000000	30.568306
585.000000	30.549184
584.000000	30.505640
583.000000	30.443459
582.000000	30.410773
581.000000	30.387587
580.000000	30.322851
579.000000	30.261664
578.000000	30.186651
577.000000	30.174382
576.000000	30.134686
575.000000	30.092421
574.000000	30.006717
573.000000	29.998948
572.000000	29.914405
571.000000	29.876144
570.000000	29.811335
569.000000	29.811776
568.000000	29.726622
567.000000	29.695000
566.000000	29.638108
565.000000	29.608834
564.000000	29.544847
563.000000	29.470940
562.000000	29.389993
561.000000	29.386659
560.000000	29.371359
559.000000	29.301916
558.000000	29.238650
557.000000	29.231881
556.000000	29.133149
555.000000	29.110019
554.000000	29.062056
553.000000	29.013339
552.000000	28.958253
551.000000	28.901861
550.000000	28.843075
549.000000	28.758520
548.000000	28.717335
547.000000	28.643904
546.000000	28.602127
545.000000	28.550650
544.000000	28.479513
543.000000	28.396349
542.000000	28.347193
541.000000	28.302459
540.000000	28.232345
539.000000	28.181691
538.000000	28.124256
537.000000	28.031580
536.000000	27.965975
535.000000	27.930316
534.000000	27.874758
533.000000	27.788181
532.000000	27.741373
531.000000	27.678444
530.000000	27.586993
529.000000	27.541364
528.000000	27.476941
527.000000	27.404426
526.000000	27.327752
525.000000	27.275582
524.000000	27.196043
523.000000	27.148433
522.000000	27.070136
521.000000	26.999294
520.000000	26.930011
519.000000	26.854208
518.000000	26.771452
517.000000	26.702785
516.000000	26.636541
515.000000	26.556673
514.000000	26.488483
513.000000	26.389945
512.000000	26.331401
511.000000	26.257186
510.000000	26.173618
509.000000	26.109905
508.000000	26.011872
507.000000	25.934903
506.000000	25.856668
505.000000	25.780637
504.000000	25.690962
503.000000	25.609592
502.000000	25.527417
501.000000	25.436863
500.000000	25.358566
499.000000	25.283531
498.000000	25.188098
497.000000	25.107643
496.000000	25.000257
495.000000	24.894387
494.000000	24.799419
493.000000	24.742435
492.000000	24.623300
491.000000	24.528600
490.000000	24.428350
489.000000	24.330110
488.000000	24.227056
487.000000	24.129772
486.000000	24.036550
485.000000	23.949760
484.000000	23.862034
483.000000	23.757755
482.000000	23.661689
481.000000	23.568040
480.000000	23.453217
479.000000	23.341493
478.000000	23.242737
477.000000	23.118942
476.000000	23.001314
475.000000	22.884808
474.000000	22.752452
473.000000	22.637161
472.000000	22.523416
471.000000	22.411317
470.000000	22.307544
469.000000	22.194322
468.000000	22.060623
467.000000	21.934419
466.000000	21.812434
465.000000	21.680389
464.000000	21.563821
463.000000	21.450020
462.000000	21.315294
461.000000	21.196434
460.000000	21.057050
459.000000	20.909242
458.000000	20.790740
457.000000	20.675223
456.000000	20.538200
455.000000	20.405971
454.000000	20.264052
453.000000	20.111795
452.000000	19.985325
451.000000	19.854778
450.000000	19.694852
449.000000	19.548685
448.000000	19.409170
447.000000	19.272271
446.000000	19.115156
445.000000	18.962968
444.000000	18.822507
443.000000	18.687731
442.000000	18.539948
441.000000	18.378284
440.000000	18.243589
439.000000	18.080788
438.000000	17.916167
437.000000	17.788575
436.000000	17.637513
435.000000	17.477005
434.000000	17.297103
433.000000	17.144203
432.000000	17.008369
431.000000	16.835416
430.000000	16.667484
429.000000	16.505649
428.000000	16.359844
427.000000	16.220285
426.000000	16.052140
425.000000	15.901504
424.000000	15.760808
423.000000	15.580342
422.000000	15.419533
421.000000	15.301702
420.000000	15.153824
419.000000	15.008053
418.000000	14.851869
417.000000	14.694949
416.000000	14.585262
415.000000	14.450157
414.000000	14.300624
413.000000	14.192667
412.000000	14.067915
411.000000	13.943579
410.000000	13.840387
409.000000	13.741273
408.000000	13.629224
407.000000	13.534882
406.000000	13.421209
405.000000	13.329086
404.000000	13.219363
403.000000	13.116228
402.000000	13.038838
401.000000	12.928898
400.000000	12.841219
399.000000	12.709999
398.000000	12.597929
397.000000	12.503606
396.000000	12.394299
395.000000	12.284631
394.000000	12.157880
393.000000	12.037069
392.000000	11.934413
391.000000	11.807631
390.000000	11.700395
389.000000	11.589213
388.000000	11.450934
387.000000	11.280922
386.000000	11.172070
385.000000	11.030942
384.000000	10.903162
383.000000	10.773071
382.000000	10.627413
381.000000	10.491877
380.000000	10.366322
379.000000	10.236186
378.000000	10.102995
377.000000	9.908882
376.000000	9.851342
375.000000	9.696097
374.000000	9.548635
373.000000	9.393146
372.000000	9.331929
371.000000	9.170361
370.000000	8.989297
369.000000	8.917613
368.000000	8.772265
367.000000	8.668406
366.000000	8.515326
365.000000	8.398494
364.000000	8.301658
363.000000	8.196469
362.000000	8.063945
361.000000	7.925950
360.000000	7.840198
359.000000	7.712783
358.000000	7.582117
357.000000	7.473443
356.000000	7.377181
355.000000	7.258951
354.000000	7.142911
353.000000	7.034243
352.000000	6.924532
351.000000	6.812113
350.000000	6.732910
349.000000	6.609160
348.000000	6.464364
347.000000	6.406597
346.000000	6.267603
345.000000	6.153626
344.000000	6.111354
343.000000	5.965396
342.000000	5.861203
341.000000	5.736524
340.000000	5.619431
339.000000	5.538029
338.000000	5.441586
337.000000	5.381014
336.000000	5.218502
335.000000	5.143468
334.000000	5.033707
333.000000	4.893091
332.000000	4.786726
331.000000	4.732811
330.000000	4.608804
329.000000	4.538579
328.000000	4.390824
327.000000	4.367919
326.000000	4.251947
325.000000	4.164337
324.000000	4.151661
323.000000	4.010402
322.000000	3.962154
321.000000	3.879682
320.000000	3.819842
319.000000	3.664740
318.000000	3.645347
317.000000	3.587836
316.000000	3.510315
315.000000	3.410130
314.000000	3.349065
313.000000	3.249778
312.000000	3.169613
311.000000	3.103214
310.000000	3.003593
309.000000	2.928447
308.000000	2.828937
307.000000	2.745189
306.000000	2.656048
305.000000	2.522318
304.000000	2.412754
303.000000	2.299908
302.000000	2.193396
301.000000	2.088234
300.000000	1.959247
299.000000	1.881557
298.000000	1.764788
297.000000	1.683452
296.000000	1.589189
295.000000	1.507044
294.000000	1.423185
293.000000	1.350695
292.000000	1.284824
291.000000	1.229692
290.000000	1.141590
289.000000	1.101841
288.000000	1.058700
287.000000	1.027694
286.000000	1.016670
285.000000	1.023515
284.000000	1.027758
283.000000	1.030837
282.000000	1.044268
281.000000	1.064983
280.000000	1.078127
279.000000	1.091017
278.000000	1.111753
277.000000	1.118246
276.000000	1.153688
275.000000	1.181791
274.000000	1.227958
273.000000	1.269801
272.000000	1.307184
271.000000	1.315995
270.000000	1.346882
269.000000	1.356651
268.000000	1.383273
267.000000	1.429514
266.000000	1.480145
265.000000	1.510918
264.000000	1.545273
263.000000	1.592722
262.000000	1.631142
261.000000	1.667944
260.000000	1.682967
259.000000	1.703854
258.000000	1.754544
257.000000	1.788659
256.000000	1.809685
255.000000	1.832991
254.000000	1.835827
253.000000	1.808239
252.000000	1.800858
251.000000	1.768693
250.000000	1.735092
249.000000	1.673408
248.000000	1.579809
247.000000	1.478040
246.000000	1.382535
245.000000	1.283709
244.000000	1.152077
243.000000	1.030547
242.000000	0.938320
241.000000	0.837175
240.000000	0.765354
239.000000	0.689605
238.000000	0.626564
237.000000	0.581546
236.000000	0.539664
235.000000	0.516713
234.000000	0.474623
233.000000	0.432179
232.000000	0.404526
231.000000	0.368391
230.000000	0.335293
229.000000	0.308378
228.000000	0.272059
227.000000	0.234873
226.000000	0.227793
225.000000	0.214699
224.000000	0.187577
223.000000	0.166920
222.000000	0.151472
221.000000	0.148419
220.000000	0.151674
219.000000	0.138579
218.000000	0.133739
217.000000	0.133091
216.000000	0.125761
215.000000	0.136364
214.000000	0.129693
213.000000	0.108008
212.000000	0.102284
211.000000	0.099149
210.000000	0.086904
209.000000	0.078430
208.000000	0.078808
207.000000	0.100632
206.000000	0.103581
205.000000	0.096642
204.000000	0.103747
203.000000	0.099822
202.000000	0.091563
201.000000	0.101259
200.000000	0.094107
