PE UV       SUBTECH     SPECTRUM    ASCII       PEDS        4.00        
   -1
TDgVeauUK 62.Sample.asc
18/03/08
17:49:31.00
18/03/08
17:49:31.00
Administrator

200.000000
1
Lambda 750
750N8071901
PerkinElmer UV WinLab 6.0.4.0738 / 1.61.00 Lambda 900

0
0
3350/servo 860.8/2
0
0
UV/VIS
1
1
1
CommonBeamDepol,150mm sphere / downward view
0
0
0
0
Program
Program
3350/servo 860.8/2
3350/0.2 860.8/0.2
3350/0.2 860.8/0.2
0
1
 
 
 
0
 
860.8
319.2
860.8
Front
100
on
 
 
0
0
0
 
0
 
 
 
0
 
 
0
0
0
0
0
 
 
 
 
0
0


0
0
#HDR
-1
-1
#GR
nm
%T
1.0
0.0
2350.000000
-1.000000
2151
8
49.060569
0.079648
#DATA
2350.000000	12.070753
2349.000000	12.448375
2348.000000	12.234613
2347.000000	12.952122
2346.000000	12.610176
2345.000000	12.168856
2344.000000	12.505438
2343.000000	12.089218
2342.000000	12.501804
2341.000000	12.414559
2340.000000	12.686178
2339.000000	12.876341
2338.000000	12.477100
2337.000000	12.726826
2336.000000	12.976700
2335.000000	13.249974
2334.000000	13.126581
2333.000000	13.160210
2332.000000	13.632410
2331.000000	13.081491
2330.000000	13.171165
2329.000000	13.078155
2328.000000	12.779141
2327.000000	13.019878
2326.000000	13.128256
2325.000000	12.929713
2324.000000	12.869161
2323.000000	12.911417
2322.000000	12.871600
2321.000000	12.822441
2320.000000	12.949554
2319.000000	12.741240
2318.000000	12.989512
2317.000000	12.906537
2316.000000	12.861438
2315.000000	12.712412
2314.000000	12.655986
2313.000000	12.705978
2312.000000	12.463128
2311.000000	12.284372
2310.000000	12.189129
2309.000000	12.250939
2308.000000	12.117189
2307.000000	12.180755
2306.000000	12.157433
2305.000000	11.753419
2304.000000	11.527072
2303.000000	11.836897
2302.000000	11.751041
2301.000000	11.792550
2300.000000	11.608580
2299.000000	11.439204
2298.000000	11.312499
2297.000000	11.190728
2296.000000	11.158361
2295.000000	11.084581
2294.000000	11.207806
2293.000000	11.059695
2292.000000	11.001821
2291.000000	10.874634
2290.000000	10.659986
2289.000000	10.672379
2288.000000	10.532785
2287.000000	10.736288
2286.000000	10.749003
2285.000000	10.500054
2284.000000	10.535102
2283.000000	10.624276
2282.000000	10.544860
2281.000000	10.428916
2280.000000	10.399384
2279.000000	10.423997
2278.000000	10.363727
2277.000000	10.418958
2276.000000	10.692430
2275.000000	10.831140
2274.000000	10.646622
2273.000000	10.731328
2272.000000	10.912934
2271.000000	10.865403
2270.000000	10.752799
2269.000000	10.888568
2268.000000	10.841691
2267.000000	10.970473
2266.000000	11.193336
2265.000000	11.260512
2264.000000	11.343444
2263.000000	11.414165
2262.000000	11.547147
2261.000000	11.821229
2260.000000	11.910059
2259.000000	11.973648
2258.000000	12.116713
2257.000000	12.321180
2256.000000	12.525552
2255.000000	12.713587
2254.000000	12.834173
2253.000000	13.041790
2252.000000	13.289091
2251.000000	13.470445
2250.000000	13.676739
2249.000000	13.782562
2248.000000	13.906026
2247.000000	14.281236
2246.000000	14.460366
2245.000000	14.577168
2244.000000	14.883155
2243.000000	15.022190
2242.000000	15.176684
2241.000000	15.254129
2240.000000	15.317822
2239.000000	15.456700
2238.000000	15.519917
2237.000000	15.663312
2236.000000	15.775396
2235.000000	15.879768
2234.000000	15.951638
2233.000000	15.929111
2232.000000	16.058487
2231.000000	16.149518
2230.000000	16.183951
2229.000000	16.229665
2228.000000	16.359071
2227.000000	16.365419
2226.000000	16.172343
2225.000000	16.138217
2224.000000	16.202870
2223.000000	16.198506
2222.000000	16.204164
2221.000000	16.217101
2220.000000	16.275218
2219.000000	16.213738
2218.000000	16.008517
2217.000000	15.990757
2216.000000	16.064030
2215.000000	16.008879
2214.000000	15.936523
2213.000000	15.830326
2212.000000	15.776356
2211.000000	15.666508
2210.000000	15.549138
2209.000000	15.507156
2208.000000	15.439904
2207.000000	15.399549
2206.000000	15.266210
2205.000000	15.155952
2204.000000	15.174881
2203.000000	15.088895
2202.000000	15.017349
2201.000000	14.962242
2200.000000	14.945995
2199.000000	14.842557
2198.000000	14.722523
2197.000000	14.668785
2196.000000	14.521494
2195.000000	14.490292
2194.000000	14.399302
2193.000000	14.196510
2192.000000	14.098880
2191.000000	14.254545
2190.000000	14.139261
2189.000000	13.979694
2188.000000	13.987160
2187.000000	13.872083
2186.000000	13.805275
2185.000000	13.809015
2184.000000	13.813651
2183.000000	13.816683
2182.000000	13.719002
2181.000000	13.541138
2180.000000	13.557184
2179.000000	13.653628
2178.000000	13.652387
2177.000000	13.632629
2176.000000	13.595441
2175.000000	13.517476
2174.000000	13.706152
2173.000000	13.638057
2172.000000	13.616670
2171.000000	13.620734
2170.000000	13.846177
2169.000000	13.905329
2168.000000	13.959062
2167.000000	14.044587
2166.000000	14.053244
2165.000000	14.063175
2164.000000	14.291126
2163.000000	14.111874
2162.000000	14.441112
2161.000000	14.600621
2160.000000	14.730853
2159.000000	14.828968
2158.000000	14.820288
2157.000000	14.982038
2156.000000	15.162440
2155.000000	15.271031
2154.000000	15.402902
2153.000000	15.692715
2152.000000	15.510940
2151.000000	15.591760
2150.000000	15.805815
2149.000000	16.150460
2148.000000	16.156151
2147.000000	16.359737
2146.000000	16.326923
2145.000000	16.649611
2144.000000	16.727927
2143.000000	16.719024
2142.000000	16.979627
2141.000000	17.159770
2140.000000	17.180555
2139.000000	17.295250
2138.000000	17.455155
2137.000000	17.649211
2136.000000	17.427451
2135.000000	17.711361
2134.000000	17.801471
2133.000000	17.601318
2132.000000	17.899126
2131.000000	18.107026
2130.000000	18.218223
2129.000000	18.263725
2128.000000	18.153995
2127.000000	18.206455
2126.000000	18.425835
2125.000000	18.410988
2124.000000	18.389536
2123.000000	18.453707
2122.000000	18.560458
2121.000000	18.605846
2120.000000	18.506749
2119.000000	18.606673
2118.000000	18.711700
2117.000000	18.646482
2116.000000	18.819264
2115.000000	18.912113
2114.000000	18.751296
2113.000000	18.776965
2112.000000	18.834374
2111.000000	18.660793
2110.000000	18.805776
2109.000000	18.890310
2108.000000	18.708123
2107.000000	18.800464
2106.000000	18.933472
2105.000000	18.839346
2104.000000	19.075261
2103.000000	19.073225
2102.000000	19.023464
2101.000000	19.075682
2100.000000	19.092982
2099.000000	19.021747
2098.000000	19.005870
2097.000000	18.874040
2096.000000	19.018460
2095.000000	18.926432
2094.000000	18.974293
2093.000000	19.014901
2092.000000	19.117303
2091.000000	18.946994
2090.000000	18.956045
2089.000000	18.924798
2088.000000	18.924270
2087.000000	18.797131
2086.000000	18.789333
2085.000000	18.833323
2084.000000	18.691837
2083.000000	18.623674
2082.000000	18.625593
2081.000000	18.540071
2080.000000	18.377399
2079.000000	18.330844
2078.000000	18.219876
2077.000000	18.149347
2076.000000	18.031739
2075.000000	17.909529
2074.000000	17.895072
2073.000000	17.819424
2072.000000	17.722914
2071.000000	17.655592
2070.000000	17.467038
2069.000000	17.296461
2068.000000	17.127074
2067.000000	16.999828
2066.000000	16.870717
2065.000000	16.674830
2064.000000	16.539522
2063.000000	16.428864
2062.000000	16.277045
2061.000000	16.085340
2060.000000	15.932174
2059.000000	15.806155
2058.000000	15.602401
2057.000000	15.451213
2056.000000	15.330789
2055.000000	15.261345
2054.000000	15.112892
2053.000000	14.915767
2052.000000	14.802417
2051.000000	14.680462
2050.000000	14.519113
2049.000000	14.386331
2048.000000	14.356305
2047.000000	14.338485
2046.000000	14.244279
2045.000000	14.222509
2044.000000	14.167002
2043.000000	14.089819
2042.000000	14.091622
2041.000000	14.157659
2040.000000	14.207272
2039.000000	14.238102
2038.000000	14.261170
2037.000000	14.272176
2036.000000	14.348104
2035.000000	14.460748
2034.000000	14.550093
2033.000000	14.634758
2032.000000	14.755593
2031.000000	14.861513
2030.000000	14.961823
2029.000000	15.082132
2028.000000	15.221267
2027.000000	15.358748
2026.000000	15.480258
2025.000000	15.536673
2024.000000	15.584245
2023.000000	15.672784
2022.000000	15.764279
2021.000000	15.797423
2020.000000	15.875010
2019.000000	15.946814
2018.000000	15.940631
2017.000000	15.948598
2016.000000	15.981138
2015.000000	16.005490
2014.000000	15.982410
2013.000000	15.918430
2012.000000	15.859241
2011.000000	15.831256
2010.000000	15.773871
2009.000000	15.742080
2008.000000	15.709040
2007.000000	15.594402
2006.000000	15.474567
2005.000000	15.381165
2004.000000	15.304925
2003.000000	15.264598
2002.000000	15.170872
2001.000000	15.046781
2000.000000	14.982866
1999.000000	14.881113
1998.000000	14.781627
1997.000000	14.678485
1996.000000	14.601791
1995.000000	14.505725
1994.000000	14.354189
1993.000000	14.219862
1992.000000	14.153426
1991.000000	14.045669
1990.000000	13.959740
1989.000000	13.857906
1988.000000	13.717431
1987.000000	13.605528
1986.000000	13.498512
1985.000000	13.420673
1984.000000	13.323743
1983.000000	13.241457
1982.000000	13.157198
1981.000000	13.060870
1980.000000	12.972465
1979.000000	12.884486
1978.000000	12.745119
1977.000000	12.646094
1976.000000	12.512914
1975.000000	12.466917
1974.000000	12.374431
1973.000000	12.300660
1972.000000	12.211969
1971.000000	12.139685
1970.000000	12.027946
1969.000000	11.944931
1968.000000	11.851222
1967.000000	11.787534
1966.000000	11.695652
1965.000000	11.589554
1964.000000	11.480219
1963.000000	11.427897
1962.000000	11.325322
1961.000000	11.238119
1960.000000	11.178462
1959.000000	11.109782
1958.000000	11.070404
1957.000000	11.041560
1956.000000	10.941458
1955.000000	10.894323
1954.000000	10.846781
1953.000000	10.755454
1952.000000	10.704140
1951.000000	10.725906
1950.000000	10.683049
1949.000000	10.689521
1948.000000	10.648308
1947.000000	10.605909
1946.000000	10.556691
1945.000000	10.626864
1944.000000	10.642970
1943.000000	10.707004
1942.000000	10.690006
1941.000000	10.700542
1940.000000	10.795629
1939.000000	10.816745
1938.000000	10.921867
1937.000000	11.014902
1936.000000	11.077432
1935.000000	11.184665
1934.000000	11.301412
1933.000000	11.353647
1932.000000	11.461535
1931.000000	11.684611
1930.000000	11.887325
1929.000000	11.970669
1928.000000	12.186793
1927.000000	12.476941
1926.000000	12.602246
1925.000000	12.796968
1924.000000	13.036311
1923.000000	13.269927
1922.000000	13.433659
1921.000000	13.850514
1920.000000	14.037996
1919.000000	14.334398
1918.000000	14.660081
1917.000000	14.993948
1916.000000	15.263219
1915.000000	15.673416
1914.000000	16.086538
1913.000000	16.377517
1912.000000	16.687401
1911.000000	17.083261
1910.000000	17.576016
1909.000000	17.855583
1908.000000	18.358686
1907.000000	18.724030
1906.000000	19.266287
1905.000000	19.700096
1904.000000	20.270773
1903.000000	20.699687
1902.000000	21.158627
1901.000000	21.759747
1900.000000	22.248514
1899.000000	22.785236
1898.000000	23.336600
1897.000000	23.825216
1896.000000	24.311872
1895.000000	24.854919
1894.000000	25.365975
1893.000000	25.892744
1892.000000	26.330471
1891.000000	26.825437
1890.000000	27.345779
1889.000000	27.781743
1888.000000	28.218675
1887.000000	28.662472
1886.000000	29.143211
1885.000000	29.592792
1884.000000	30.005553
1883.000000	30.448946
1882.000000	30.785460
1881.000000	31.120251
1880.000000	31.488546
1879.000000	31.839702
1878.000000	32.159923
1877.000000	32.480717
1876.000000	32.792214
1875.000000	33.087081
1874.000000	33.362029
1873.000000	33.631655
1872.000000	33.844526
1871.000000	34.063340
1870.000000	34.260550
1869.000000	34.439497
1868.000000	34.650710
1867.000000	34.782921
1866.000000	34.889138
1865.000000	35.018569
1864.000000	35.110621
1863.000000	35.235808
1862.000000	35.273696
1861.000000	35.348004
1860.000000	35.411428
1859.000000	35.475887
1858.000000	35.520388
1857.000000	35.567830
1856.000000	35.617482
1855.000000	35.631088
1854.000000	35.680165
1853.000000	35.754468
1852.000000	35.750452
1851.000000	35.782381
1850.000000	35.813355
1849.000000	35.796127
1848.000000	35.779031
1847.000000	35.765800
1846.000000	35.771305
1845.000000	35.764531
1844.000000	35.715036
1843.000000	35.683282
1842.000000	35.654840
1841.000000	35.641734
1840.000000	35.556746
1839.000000	35.551737
1838.000000	35.521788
1837.000000	35.446109
1836.000000	35.415302
1835.000000	35.339351
1834.000000	35.258357
1833.000000	35.235788
1832.000000	35.192204
1831.000000	35.121166
1830.000000	35.057615
1829.000000	35.000531
1828.000000	34.944038
1827.000000	34.895351
1826.000000	34.837313
1825.000000	34.774008
1824.000000	34.743174
1823.000000	34.704937
1822.000000	34.652320
1821.000000	34.611324
1820.000000	34.553580
1819.000000	34.511329
1818.000000	34.464679
1817.000000	34.421832
1816.000000	34.378095
1815.000000	34.327220
1814.000000	34.290410
1813.000000	34.227760
1812.000000	34.171963
1811.000000	34.142824
1810.000000	34.101598
1809.000000	34.066600
1808.000000	34.019869
1807.000000	33.974940
1806.000000	33.941399
1805.000000	33.896265
1804.000000	33.843583
1803.000000	33.789881
1802.000000	33.750781
1801.000000	33.724769
1800.000000	33.707103
1799.000000	33.668093
1798.000000	33.635561
1797.000000	33.616407
1796.000000	33.576971
1795.000000	33.542814
1794.000000	33.524823
1793.000000	33.499030
1792.000000	33.469825
1791.000000	33.462627
1790.000000	33.433136
1789.000000	33.383689
1788.000000	33.372781
1787.000000	33.351725
1786.000000	33.309163
1785.000000	33.275263
1784.000000	33.252691
1783.000000	33.210148
1782.000000	33.174581
1781.000000	33.127150
1780.000000	33.084666
1779.000000	33.066640
1778.000000	33.010002
1777.000000	32.933917
1776.000000	32.903939
1775.000000	32.834187
1774.000000	32.756677
1773.000000	32.733400
1772.000000	32.658126
1771.000000	32.570653
1770.000000	32.506575
1769.000000	32.449208
1768.000000	32.393482
1767.000000	32.343069
1766.000000	32.277322
1765.000000	32.220294
1764.000000	32.170672
1763.000000	32.073432
1762.000000	32.010650
1761.000000	31.940434
1760.000000	31.873159
1759.000000	31.822390
1758.000000	31.766457
1757.000000	31.704634
1756.000000	31.661346
1755.000000	31.579118
1754.000000	31.535365
1753.000000	31.465648
1752.000000	31.387290
1751.000000	31.334891
1750.000000	31.259457
1749.000000	31.221668
1748.000000	31.166477
1747.000000	31.079593
1746.000000	30.995180
1745.000000	30.968308
1744.000000	30.887482
1743.000000	30.827062
1742.000000	30.758317
1741.000000	30.703700
1740.000000	30.659257
1739.000000	30.588368
1738.000000	30.533376
1737.000000	30.483076
1736.000000	30.452316
1735.000000	30.425992
1734.000000	30.440323
1733.000000	30.412752
1732.000000	30.413144
1731.000000	30.441164
1730.000000	30.458222
1729.000000	30.500422
1728.000000	30.524095
1727.000000	30.568425
1726.000000	30.622610
1725.000000	30.687440
1724.000000	30.774430
1723.000000	30.856219
1722.000000	30.953980
1721.000000	31.074451
1720.000000	31.146342
1719.000000	31.288620
1718.000000	31.386317
1717.000000	31.475158
1716.000000	31.594220
1715.000000	31.678484
1714.000000	31.759340
1713.000000	31.822968
1712.000000	31.930494
1711.000000	32.006866
1710.000000	32.082913
1709.000000	32.122219
1708.000000	32.185402
1707.000000	32.216600
1706.000000	32.294029
1705.000000	32.288379
1704.000000	32.302666
1703.000000	32.328174
1702.000000	32.349268
1701.000000	32.388130
1700.000000	32.379570
1699.000000	32.381698
1698.000000	32.416185
1697.000000	32.450231
1696.000000	32.503010
1695.000000	32.514958
1694.000000	32.555747
1693.000000	32.602909
1692.000000	32.667405
1691.000000	32.734993
1690.000000	32.837421
1689.000000	32.936946
1688.000000	33.029175
1687.000000	33.183157
1686.000000	33.336712
1685.000000	33.467427
1684.000000	33.629684
1683.000000	33.790024
1682.000000	33.965397
1681.000000	34.173476
1680.000000	34.364575
1679.000000	34.540027
1678.000000	34.743639
1677.000000	34.942096
1676.000000	35.135179
1675.000000	35.329623
1674.000000	35.546573
1673.000000	35.729929
1672.000000	35.919734
1671.000000	36.116561
1670.000000	36.288831
1669.000000	36.491969
1668.000000	36.628497
1667.000000	36.784702
1666.000000	36.893185
1665.000000	36.999854
1664.000000	37.100994
1663.000000	37.221636
1662.000000	37.304646
1661.000000	37.375553
1660.000000	37.445826
1659.000000	37.545459
1658.000000	37.596143
1657.000000	37.609681
1656.000000	37.657465
1655.000000	37.689955
1654.000000	37.739452
1653.000000	37.767909
1652.000000	37.776004
1651.000000	37.763216
1650.000000	37.763458
1649.000000	37.747769
1648.000000	37.735037
1647.000000	37.707770
1646.000000	37.698368
1645.000000	37.662272
1644.000000	37.640474
1643.000000	37.616291
1642.000000	37.585105
1641.000000	37.547098
1640.000000	37.498848
1639.000000	37.470604
1638.000000	37.444393
1637.000000	37.399794
1636.000000	37.321472
1635.000000	37.285722
1634.000000	37.248061
1633.000000	37.175738
1632.000000	37.118970
1631.000000	37.071022
1630.000000	37.012932
1629.000000	36.958488
1628.000000	36.900624
1627.000000	36.849723
1626.000000	36.774727
1625.000000	36.718468
1624.000000	36.662588
1623.000000	36.595828
1622.000000	36.533939
1621.000000	36.462776
1620.000000	36.404679
1619.000000	36.331996
1618.000000	36.252935
1617.000000	36.198632
1616.000000	36.129106
1615.000000	36.051556
1614.000000	35.978083
1613.000000	35.901238
1612.000000	35.840381
1611.000000	35.766579
1610.000000	35.696402
1609.000000	35.609168
1608.000000	35.526017
1607.000000	35.447170
1606.000000	35.359847
1605.000000	35.292872
1604.000000	35.203552
1603.000000	35.114194
1602.000000	35.055472
1601.000000	34.988184
1600.000000	34.917347
1599.000000	34.832919
1598.000000	34.751285
1597.000000	34.673684
1596.000000	34.597118
1595.000000	34.533962
1594.000000	34.474352
1593.000000	34.405021
1592.000000	34.341047
1591.000000	34.273812
1590.000000	34.194113
1589.000000	34.129440
1588.000000	34.077041
1587.000000	34.024983
1586.000000	33.958614
1585.000000	33.890989
1584.000000	33.843139
1583.000000	33.787221
1582.000000	33.717485
1581.000000	33.658176
1580.000000	33.602471
1579.000000	33.546343
1578.000000	33.501995
1577.000000	33.442565
1576.000000	33.361686
1575.000000	33.305724
1574.000000	33.250971
1573.000000	33.186533
1572.000000	33.127677
1571.000000	33.086984
1570.000000	33.041457
1569.000000	32.980954
1568.000000	32.928127
1567.000000	32.870905
1566.000000	32.823553
1565.000000	32.793437
1564.000000	32.764861
1563.000000	32.725424
1562.000000	32.672342
1561.000000	32.634346
1560.000000	32.605205
1559.000000	32.580818
1558.000000	32.547930
1557.000000	32.501101
1556.000000	32.483026
1555.000000	32.465589
1554.000000	32.424982
1553.000000	32.382170
1552.000000	32.354028
1551.000000	32.303148
1550.000000	32.246084
1549.000000	32.190620
1548.000000	32.138418
1547.000000	32.083560
1546.000000	32.013641
1545.000000	31.935512
1544.000000	31.854011
1543.000000	31.758092
1542.000000	31.683947
1541.000000	31.584952
1540.000000	31.502463
1539.000000	31.403680
1538.000000	31.306860
1537.000000	31.196837
1536.000000	31.086178
1535.000000	30.991652
1534.000000	30.893646
1533.000000	30.814547
1532.000000	30.700975
1531.000000	30.603670
1530.000000	30.518967
1529.000000	30.407066
1528.000000	30.324404
1527.000000	30.244574
1526.000000	30.169538
1525.000000	30.093326
1524.000000	30.013777
1523.000000	29.963254
1522.000000	29.899196
1521.000000	29.836175
1520.000000	29.781843
1519.000000	29.735817
1518.000000	29.688313
1517.000000	29.637670
1516.000000	29.609255
1515.000000	29.558822
1514.000000	29.533316
1513.000000	29.474545
1512.000000	29.448129
1511.000000	29.420497
1510.000000	29.385631
1509.000000	29.361715
1508.000000	29.340690
1507.000000	29.327260
1506.000000	29.315539
1505.000000	29.286168
1504.000000	29.261516
1503.000000	29.272872
1502.000000	29.229308
1501.000000	29.222289
1500.000000	29.234977
1499.000000	29.221355
1498.000000	29.227360
1497.000000	29.262370
1496.000000	29.268330
1495.000000	29.266510
1494.000000	29.272442
1493.000000	29.283622
1492.000000	29.303364
1491.000000	29.335808
1490.000000	29.352800
1489.000000	29.385153
1488.000000	29.423766
1487.000000	29.459592
1486.000000	29.489555
1485.000000	29.525743
1484.000000	29.585272
1483.000000	29.641731
1482.000000	29.655717
1481.000000	29.729024
1480.000000	29.771003
1479.000000	29.806073
1478.000000	29.854455
1477.000000	29.897056
1476.000000	29.937939
1475.000000	29.978081
1474.000000	30.039771
1473.000000	30.078965
1472.000000	30.120622
1471.000000	30.176671
1470.000000	30.210559
1469.000000	30.246348
1468.000000	30.296907
1467.000000	30.327351
1466.000000	30.402517
1465.000000	30.457877
1464.000000	30.510224
1463.000000	30.560081
1462.000000	30.608875
1461.000000	30.667177
1460.000000	30.713445
1459.000000	30.758768
1458.000000	30.825741
1457.000000	30.889073
1456.000000	30.936966
1455.000000	30.980020
1454.000000	31.071546
1453.000000	31.150916
1452.000000	31.194839
1451.000000	31.258505
1450.000000	31.331059
1449.000000	31.393531
1448.000000	31.510422
1447.000000	31.592110
1446.000000	31.657936
1445.000000	31.733912
1444.000000	31.828768
1443.000000	31.907222
1442.000000	31.990781
1441.000000	32.087435
1440.000000	32.211870
1439.000000	32.324818
1438.000000	32.426322
1437.000000	32.518505
1436.000000	32.629652
1435.000000	32.765199
1434.000000	32.882220
1433.000000	33.000719
1432.000000	33.135957
1431.000000	33.284149
1430.000000	33.423919
1429.000000	33.575243
1428.000000	33.734813
1427.000000	33.904523
1426.000000	34.066431
1425.000000	34.235075
1424.000000	34.406495
1423.000000	34.595033
1422.000000	34.778951
1421.000000	34.978267
1420.000000	35.182930
1419.000000	35.384827
1418.000000	35.591472
1417.000000	35.798630
1416.000000	36.034760
1415.000000	36.260058
1414.000000	36.481868
1413.000000	36.716544
1412.000000	36.957496
1411.000000	37.202291
1410.000000	37.432790
1409.000000	37.680855
1408.000000	37.913810
1407.000000	38.145055
1406.000000	38.382228
1405.000000	38.615457
1404.000000	38.861271
1403.000000	39.115105
1402.000000	39.349008
1401.000000	39.558133
1400.000000	39.766058
1399.000000	39.986669
1398.000000	40.213567
1397.000000	40.433072
1396.000000	40.637767
1395.000000	40.844857
1394.000000	41.040578
1393.000000	41.232679
1392.000000	41.433649
1391.000000	41.625083
1390.000000	41.785322
1389.000000	41.955233
1388.000000	42.135529
1387.000000	42.298732
1386.000000	42.448705
1385.000000	42.591936
1384.000000	42.748762
1383.000000	42.901879
1382.000000	43.014984
1381.000000	43.128778
1380.000000	43.260779
1379.000000	43.367140
1378.000000	43.440715
1377.000000	43.526923
1376.000000	43.633171
1375.000000	43.715468
1374.000000	43.790528
1373.000000	43.861135
1372.000000	43.918453
1371.000000	44.005629
1370.000000	44.092872
1369.000000	44.163129
1368.000000	44.230134
1367.000000	44.279492
1366.000000	44.336528
1365.000000	44.415498
1364.000000	44.480891
1363.000000	44.535441
1362.000000	44.604922
1361.000000	44.693965
1360.000000	44.781087
1359.000000	44.856145
1358.000000	44.907590
1357.000000	44.981981
1356.000000	45.088475
1355.000000	45.182525
1354.000000	45.247982
1353.000000	45.304274
1352.000000	45.389955
1351.000000	45.483372
1350.000000	45.559987
1349.000000	45.601317
1348.000000	45.668033
1347.000000	45.761462
1346.000000	45.865203
1345.000000	45.946686
1344.000000	45.994842
1343.000000	46.047272
1342.000000	46.112180
1341.000000	46.194587
1340.000000	46.255573
1339.000000	46.298955
1338.000000	46.366962
1337.000000	46.448488
1336.000000	46.515429
1335.000000	46.569301
1334.000000	46.601521
1333.000000	46.634654
1332.000000	46.698062
1331.000000	46.764963
1330.000000	46.811771
1329.000000	46.845450
1328.000000	46.879376
1327.000000	46.923435
1326.000000	46.956348
1325.000000	46.984385
1324.000000	47.005071
1323.000000	47.032404
1322.000000	47.059673
1321.000000	47.098731
1320.000000	47.120922
1319.000000	47.136444
1318.000000	47.156763
1317.000000	47.180279
1316.000000	47.229057
1315.000000	47.246115
1314.000000	47.242362
1313.000000	47.241653
1312.000000	47.270407
1311.000000	47.304844
1310.000000	47.316355
1309.000000	47.330135
1308.000000	47.339186
1307.000000	47.355683
1306.000000	47.357277
1305.000000	47.359820
1304.000000	47.393059
1303.000000	47.420370
1302.000000	47.425168
1301.000000	47.424704
1300.000000	47.427548
1299.000000	47.428581
1298.000000	47.434204
1297.000000	47.420433
1296.000000	47.433728
1295.000000	47.418225
1294.000000	47.417753
1293.000000	47.406974
1292.000000	47.410430
1291.000000	47.391906
1290.000000	47.387624
1289.000000	47.386193
1288.000000	47.375356
1287.000000	47.365177
1286.000000	47.330082
1285.000000	47.322481
1284.000000	47.299516
1283.000000	47.300062
1282.000000	47.304623
1281.000000	47.303963
1280.000000	47.287490
1279.000000	47.286802
1278.000000	47.286349
1277.000000	47.288585
1276.000000	47.274346
1275.000000	47.270634
1274.000000	47.272841
1273.000000	47.251131
1272.000000	47.279368
1271.000000	47.270738
1270.000000	47.262661
1269.000000	47.279653
1268.000000	47.285376
1267.000000	47.287850
1266.000000	47.279095
1265.000000	47.290890
1264.000000	47.322820
1263.000000	47.324652
1262.000000	47.351303
1261.000000	47.334282
1260.000000	47.344965
1259.000000	47.360327
1258.000000	47.383759
1257.000000	47.390508
1256.000000	47.371942
1255.000000	47.378962
1254.000000	47.384821
1253.000000	47.391514
1252.000000	47.384996
1251.000000	47.381360
1250.000000	47.379115
1249.000000	47.360533
1248.000000	47.349749
1247.000000	47.339912
1246.000000	47.327925
1245.000000	47.320736
1244.000000	47.301180
1243.000000	47.279211
1242.000000	47.254653
1241.000000	47.214846
1240.000000	47.165437
1239.000000	47.134553
1238.000000	47.117545
1237.000000	47.049356
1236.000000	47.020215
1235.000000	46.999966
1234.000000	46.958533
1233.000000	46.916297
1232.000000	46.899866
1231.000000	46.865582
1230.000000	46.851648
1229.000000	46.813504
1228.000000	46.760313
1227.000000	46.736341
1226.000000	46.710864
1225.000000	46.699715
1224.000000	46.670401
1223.000000	46.631053
1222.000000	46.621571
1221.000000	46.578962
1220.000000	46.542770
1219.000000	46.495587
1218.000000	46.459388
1217.000000	46.429862
1216.000000	46.371146
1215.000000	46.332578
1214.000000	46.311756
1213.000000	46.285515
1212.000000	46.224310
1211.000000	46.176580
1210.000000	46.141451
1209.000000	46.090233
1208.000000	46.023319
1207.000000	45.960772
1206.000000	45.917693
1205.000000	45.882113
1204.000000	45.806788
1203.000000	45.765959
1202.000000	45.738237
1201.000000	45.664040
1200.000000	45.603136
1199.000000	45.558495
1198.000000	45.524700
1197.000000	45.472186
1196.000000	45.421787
1195.000000	45.378269
1194.000000	45.344324
1193.000000	45.304023
1192.000000	45.263246
1191.000000	45.240536
1190.000000	45.198566
1189.000000	45.156035
1188.000000	45.150517
1187.000000	45.152880
1186.000000	45.144663
1185.000000	45.143318
1184.000000	45.148781
1183.000000	45.164129
1182.000000	45.189104
1181.000000	45.214450
1180.000000	45.249434
1179.000000	45.290179
1178.000000	45.338287
1177.000000	45.396359
1176.000000	45.452334
1175.000000	45.510498
1174.000000	45.569101
1173.000000	45.645880
1172.000000	45.726790
1171.000000	45.801847
1170.000000	45.896062
1169.000000	45.991526
1168.000000	46.089588
1167.000000	46.188186
1166.000000	46.279653
1165.000000	46.367560
1164.000000	46.476341
1163.000000	46.587664
1162.000000	46.680973
1161.000000	46.765834
1160.000000	46.858152
1159.000000	46.956613
1158.000000	47.040302
1157.000000	47.133073
1156.000000	47.225363
1155.000000	47.290183
1154.000000	47.350012
1153.000000	47.430308
1152.000000	47.512066
1151.000000	47.597006
1150.000000	47.666876
1149.000000	47.739026
1148.000000	47.818063
1147.000000	47.887534
1146.000000	47.937392
1145.000000	47.994626
1144.000000	48.053010
1143.000000	48.116071
1142.000000	48.174160
1141.000000	48.221641
1140.000000	48.287384
1139.000000	48.340773
1138.000000	48.377473
1137.000000	48.430920
1136.000000	48.498577
1135.000000	48.552090
1134.000000	48.600766
1133.000000	48.652894
1132.000000	48.696957
1131.000000	48.738419
1130.000000	48.779956
1129.000000	48.809725
1128.000000	48.843022
1127.000000	48.883891
1126.000000	48.918956
1125.000000	48.919570
1124.000000	48.915784
1123.000000	48.930961
1122.000000	48.962038
1121.000000	48.973294
1120.000000	48.994243
1119.000000	49.010829
1118.000000	49.018458
1117.000000	49.014205
1116.000000	49.021707
1115.000000	49.031709
1114.000000	49.036981
1113.000000	49.053810
1112.000000	49.052688
1111.000000	49.058525
1110.000000	49.050372
1109.000000	49.053712
1108.000000	49.060569
1107.000000	49.056483
1106.000000	49.053952
1105.000000	49.053395
1104.000000	49.056030
1103.000000	49.052601
1102.000000	49.023058
1101.000000	49.019360
1100.000000	49.030722
1099.000000	49.038651
1098.000000	49.037689
1097.000000	49.044425
1096.000000	49.045292
1095.000000	49.040806
1094.000000	49.034596
1093.000000	49.004194
1092.000000	48.989800
1091.000000	48.998741
1090.000000	49.002092
1089.000000	49.010759
1088.000000	49.002096
1087.000000	49.005144
1086.000000	48.983831
1085.000000	48.966027
1084.000000	48.960904
1083.000000	48.959803
1082.000000	48.964003
1081.000000	48.952954
1080.000000	48.916597
1079.000000	48.896271
1078.000000	48.894643
1077.000000	48.899196
1076.000000	48.906080
1075.000000	48.881860
1074.000000	48.883251
1073.000000	48.842489
1072.000000	48.836019
1071.000000	48.826799
1070.000000	48.816921
1069.000000	48.832077
1068.000000	48.808293
1067.000000	48.787874
1066.000000	48.770112
1065.000000	48.744896
1064.000000	48.733425
1063.000000	48.733269
1062.000000	48.728125
1061.000000	48.716787
1060.000000	48.704117
1059.000000	48.665556
1058.000000	48.657644
1057.000000	48.628004
1056.000000	48.636916
1055.000000	48.624316
1054.000000	48.581390
1053.000000	48.570509
1052.000000	48.577834
1051.000000	48.554835
1050.000000	48.551553
1049.000000	48.511035
1048.000000	48.494255
1047.000000	48.502559
1046.000000	48.499998
1045.000000	48.504251
1044.000000	48.460949
1043.000000	48.440693
1042.000000	48.446344
1041.000000	48.432489
1040.000000	48.401518
1039.000000	48.406116
1038.000000	48.411921
1037.000000	48.400779
1036.000000	48.372240
1035.000000	48.378750
1034.000000	48.359718
1033.000000	48.364603
1032.000000	48.340985
1031.000000	48.338485
1030.000000	48.338565
1029.000000	48.351628
1028.000000	48.326109
1027.000000	48.306282
1026.000000	48.315440
1025.000000	48.283166
1024.000000	48.281045
1023.000000	48.287337
1022.000000	48.269713
1021.000000	48.284207
1020.000000	48.282274
1019.000000	48.292949
1018.000000	48.265181
1017.000000	48.279833
1016.000000	48.282090
1015.000000	48.269037
1014.000000	48.285821
1013.000000	48.292937
1012.000000	48.273069
1011.000000	48.270973
1010.000000	48.281899
1009.000000	48.300599
1008.000000	48.291036
1007.000000	48.304361
1006.000000	48.314762
1005.000000	48.310820
1004.000000	48.316317
1003.000000	48.331558
1002.000000	48.337538
1001.000000	48.332452
1000.000000	48.352918
999.000000	48.365852
998.000000	48.382119
997.000000	48.364746
996.000000	48.362046
995.000000	48.355074
994.000000	48.365578
993.000000	48.373932
992.000000	48.377282
991.000000	48.374148
990.000000	48.370276
989.000000	48.392332
988.000000	48.396832
987.000000	48.397215
986.000000	48.403196
985.000000	48.406625
984.000000	48.412197
983.000000	48.421672
982.000000	48.417151
981.000000	48.428455
980.000000	48.425124
979.000000	48.436068
978.000000	48.451603
977.000000	48.452494
976.000000	48.465310
975.000000	48.465012
974.000000	48.467610
973.000000	48.467433
972.000000	48.470871
971.000000	48.488218
970.000000	48.506378
969.000000	48.507669
968.000000	48.506990
967.000000	48.507465
966.000000	48.510412
965.000000	48.505036
964.000000	48.529113
963.000000	48.547207
962.000000	48.554736
961.000000	48.555574
960.000000	48.564236
959.000000	48.581813
958.000000	48.571630
957.000000	48.578389
956.000000	48.588525
955.000000	48.603773
954.000000	48.618455
953.000000	48.627960
952.000000	48.624581
951.000000	48.632896
950.000000	48.631691
949.000000	48.627326
948.000000	48.647667
947.000000	48.654300
946.000000	48.645372
945.000000	48.642691
944.000000	48.642932
943.000000	48.631932
942.000000	48.636829
941.000000	48.662047
940.000000	48.651418
939.000000	48.638239
938.000000	48.633945
937.000000	48.641070
936.000000	48.635255
935.000000	48.615643
934.000000	48.620719
933.000000	48.616199
932.000000	48.606047
931.000000	48.604202
930.000000	48.592617
929.000000	48.571811
928.000000	48.561614
927.000000	48.564965
926.000000	48.570139
925.000000	48.562234
924.000000	48.554585
923.000000	48.546426
922.000000	48.544100
921.000000	48.531525
920.000000	48.516467
919.000000	48.529211
918.000000	48.533553
917.000000	48.523224
916.000000	48.516151
915.000000	48.527047
914.000000	48.525045
913.000000	48.516825
912.000000	48.502772
911.000000	48.506231
910.000000	48.501213
909.000000	48.486963
908.000000	48.463232
907.000000	48.474752
906.000000	48.502302
905.000000	48.507180
904.000000	48.497077
903.000000	48.476041
902.000000	48.464341
901.000000	48.477289
900.000000	48.463363
899.000000	48.503567
898.000000	48.467346
897.000000	48.503758
896.000000	48.516405
895.000000	48.543506
894.000000	48.581007
893.000000	48.537698
892.000000	48.506101
891.000000	48.511853
890.000000	48.573381
889.000000	48.563568
888.000000	48.536848
887.000000	48.577587
886.000000	48.615041
885.000000	48.586887
884.000000	48.592005
883.000000	48.598707
882.000000	48.588222
881.000000	48.538675
880.000000	48.570337
879.000000	48.545633
878.000000	48.523317
877.000000	48.557097
876.000000	48.485972
875.000000	48.512921
874.000000	48.604129
873.000000	48.605436
872.000000	48.528441
871.000000	48.551471
870.000000	48.550060
869.000000	48.556898
868.000000	48.538838
867.000000	48.506279
866.000000	48.529113
865.000000	48.625017
864.000000	48.483595
863.000000	48.507865
862.000000	48.482586
861.000000	48.506261
860.000000	48.525467
859.000000	48.331032
858.000000	48.377465
857.000000	48.277794
856.000000	48.108619
855.000000	48.393062
854.000000	48.292829
853.000000	48.114981
852.000000	48.501329
851.000000	48.454365
850.000000	48.325945
849.000000	48.227682
848.000000	48.232210
847.000000	48.216950
846.000000	48.358184
845.000000	48.242543
844.000000	48.131473
843.000000	48.207595
842.000000	48.292411
841.000000	48.207180
840.000000	48.410358
839.000000	48.197906
838.000000	48.110451
837.000000	47.988280
836.000000	48.116297
835.000000	47.991724
834.000000	47.984955
833.000000	48.030220
832.000000	47.992196
831.000000	47.892014
830.000000	48.070314
829.000000	47.970870
828.000000	47.959504
827.000000	47.892638
826.000000	48.022297
825.000000	47.979028
824.000000	48.008364
823.000000	48.069790
822.000000	47.955746
821.000000	47.787111
820.000000	47.852499
819.000000	47.880116
818.000000	47.929159
817.000000	48.037569
816.000000	47.849281
815.000000	47.830022
814.000000	47.875488
813.000000	47.829873
812.000000	47.850997
811.000000	47.864676
810.000000	47.819245
809.000000	47.629771
808.000000	47.728213
807.000000	47.610755
806.000000	47.769540
805.000000	47.829588
804.000000	47.704781
803.000000	47.770596
802.000000	47.758452
801.000000	47.744243
800.000000	47.635011
799.000000	47.672270
798.000000	47.715548
797.000000	47.694246
796.000000	47.634353
795.000000	47.694500
794.000000	47.592423
793.000000	47.569914
792.000000	47.581967
791.000000	47.654148
790.000000	47.602488
789.000000	47.558233
788.000000	47.531638
787.000000	47.517265
786.000000	47.528156
785.000000	47.610663
784.000000	47.543640
783.000000	47.455107
782.000000	47.441540
781.000000	47.417183
780.000000	47.367659
779.000000	47.381396
778.000000	47.341743
777.000000	47.364597
776.000000	47.349588
775.000000	47.315285
774.000000	47.300727
773.000000	47.321077
772.000000	47.372854
771.000000	47.322922
770.000000	47.321471
769.000000	47.230618
768.000000	47.236459
767.000000	47.229831
766.000000	47.173762
765.000000	47.225772
764.000000	47.195616
763.000000	47.234096
762.000000	47.232355
761.000000	47.143445
760.000000	47.093423
759.000000	47.065433
758.000000	47.099501
757.000000	47.045187
756.000000	47.030942
755.000000	47.031817
754.000000	47.034162
753.000000	47.006934
752.000000	46.915349
751.000000	46.914696
750.000000	46.889243
749.000000	46.870815
748.000000	46.907984
747.000000	46.812390
746.000000	46.822766
745.000000	46.864119
744.000000	46.770240
743.000000	46.749728
742.000000	46.766139
741.000000	46.732035
740.000000	46.739170
739.000000	46.738742
738.000000	46.704481
737.000000	46.642145
736.000000	46.653868
735.000000	46.647236
734.000000	46.552331
733.000000	46.532188
732.000000	46.563508
731.000000	46.568135
730.000000	46.539276
729.000000	46.514305
728.000000	46.451526
727.000000	46.455342
726.000000	46.417862
725.000000	46.408916
724.000000	46.334678
723.000000	46.298518
722.000000	46.283275
721.000000	46.265742
720.000000	46.253248
719.000000	46.225326
718.000000	46.187101
717.000000	46.154371
716.000000	46.158772
715.000000	46.139796
714.000000	46.075511
713.000000	46.058028
712.000000	46.075768
711.000000	46.037474
710.000000	45.965908
709.000000	45.970197
708.000000	45.962922
707.000000	45.895002
706.000000	45.817306
705.000000	45.785801
704.000000	45.784800
703.000000	45.753765
702.000000	45.742012
701.000000	45.698448
700.000000	45.660262
699.000000	45.603381
698.000000	45.592917
697.000000	45.618811
696.000000	45.613757
695.000000	45.526875
694.000000	45.477761
693.000000	45.448076
692.000000	45.400933
691.000000	45.358067
690.000000	45.302562
689.000000	45.245147
688.000000	45.159264
687.000000	45.159890
686.000000	45.154497
685.000000	45.100047
684.000000	45.071254
683.000000	45.027926
682.000000	44.985999
681.000000	44.978744
680.000000	44.933039
679.000000	44.860719
678.000000	44.801816
677.000000	44.803635
676.000000	44.778101
675.000000	44.697329
674.000000	44.681469
673.000000	44.625721
672.000000	44.535418
671.000000	44.518063
670.000000	44.478764
669.000000	44.429832
668.000000	44.398175
667.000000	44.393991
666.000000	44.300602
665.000000	44.242076
664.000000	44.180111
663.000000	44.180071
662.000000	44.127944
661.000000	44.068552
660.000000	44.061147
659.000000	43.955675
658.000000	43.900570
657.000000	43.846150
656.000000	43.845793
655.000000	43.768346
654.000000	43.707840
653.000000	43.640100
652.000000	43.541152
651.000000	43.523888
650.000000	43.499233
649.000000	43.422329
648.000000	43.362168
647.000000	43.348374
646.000000	43.266396
645.000000	43.188624
644.000000	43.095698
643.000000	43.086605
642.000000	43.019252
641.000000	42.923790
640.000000	42.848689
639.000000	42.833356
638.000000	42.793466
637.000000	42.694228
636.000000	42.640810
635.000000	42.629446
634.000000	42.526098
633.000000	42.430742
632.000000	42.386300
631.000000	42.373369
630.000000	42.293807
629.000000	42.246122
628.000000	42.160048
627.000000	42.079020
626.000000	42.041102
625.000000	41.984534
624.000000	41.930254
623.000000	41.888532
622.000000	41.809923
621.000000	41.754546
620.000000	41.679509
619.000000	41.632936
618.000000	41.592391
617.000000	41.527546
616.000000	41.421692
615.000000	41.413103
614.000000	41.333757
613.000000	41.265348
612.000000	41.251590
611.000000	41.162010
610.000000	41.082200
609.000000	41.057039
608.000000	40.944749
607.000000	40.926456
606.000000	40.889034
605.000000	40.824578
604.000000	40.740081
603.000000	40.682660
602.000000	40.663155
601.000000	40.571032
600.000000	40.534106
599.000000	40.478335
598.000000	40.385885
597.000000	40.328437
596.000000	40.293470
595.000000	40.215766
594.000000	40.166472
593.000000	40.126198
592.000000	40.063494
591.000000	39.999870
590.000000	39.937697
589.000000	39.843629
588.000000	39.822630
587.000000	39.750378
586.000000	39.666799
585.000000	39.640655
584.000000	39.551950
583.000000	39.490651
582.000000	39.466475
581.000000	39.367298
580.000000	39.312535
579.000000	39.238302
578.000000	39.144133
577.000000	39.122601
576.000000	39.036954
575.000000	38.982138
574.000000	38.885656
573.000000	38.858714
572.000000	38.738778
571.000000	38.740151
570.000000	38.695621
569.000000	38.600389
568.000000	38.518801
567.000000	38.477518
566.000000	38.389176
565.000000	38.370110
564.000000	38.296160
563.000000	38.209588
562.000000	38.170277
561.000000	38.092686
560.000000	38.039787
559.000000	38.049876
558.000000	37.914833
557.000000	37.886820
556.000000	37.797271
555.000000	37.759961
554.000000	37.658208
553.000000	37.625984
552.000000	37.521687
551.000000	37.453143
550.000000	37.382882
549.000000	37.320928
548.000000	37.227783
547.000000	37.116183
546.000000	37.067390
545.000000	37.022383
544.000000	36.939393
543.000000	36.860980
542.000000	36.759808
541.000000	36.720126
540.000000	36.638912
539.000000	36.557351
538.000000	36.511351
537.000000	36.437322
536.000000	36.326741
535.000000	36.276226
534.000000	36.180055
533.000000	36.112137
532.000000	36.050529
531.000000	35.928062
530.000000	35.850253
529.000000	35.820638
528.000000	35.740832
527.000000	35.663721
526.000000	35.596880
525.000000	35.530548
524.000000	35.432094
523.000000	35.381301
522.000000	35.289546
521.000000	35.216767
520.000000	35.138879
519.000000	35.043258
518.000000	34.961181
517.000000	34.901334
516.000000	34.805364
515.000000	34.734255
514.000000	34.648186
513.000000	34.558331
512.000000	34.474950
511.000000	34.366054
510.000000	34.283527
509.000000	34.201308
508.000000	34.105356
507.000000	34.000157
506.000000	33.906572
505.000000	33.766850
504.000000	33.696596
503.000000	33.605166
502.000000	33.492130
501.000000	33.391526
500.000000	33.272634
499.000000	33.181936
498.000000	33.054931
497.000000	32.958808
496.000000	32.826078
495.000000	32.713360
494.000000	32.614494
493.000000	32.488924
492.000000	32.362489
491.000000	32.263731
490.000000	32.127917
489.000000	31.983545
488.000000	31.877591
487.000000	31.737625
486.000000	31.598623
485.000000	31.461099
484.000000	31.345414
483.000000	31.229074
482.000000	31.109111
481.000000	30.990313
480.000000	30.854904
479.000000	30.726015
478.000000	30.553611
477.000000	30.385031
476.000000	30.254841
475.000000	30.099152
474.000000	29.945423
473.000000	29.805444
472.000000	29.662711
471.000000	29.484920
470.000000	29.317277
469.000000	29.157236
468.000000	28.984084
467.000000	28.811743
466.000000	28.640233
465.000000	28.465312
464.000000	28.303819
463.000000	28.133706
462.000000	27.926152
461.000000	27.729344
460.000000	27.586223
459.000000	27.410498
458.000000	27.193723
457.000000	27.009688
456.000000	26.818017
455.000000	26.610348
454.000000	26.444288
453.000000	26.248847
452.000000	26.032536
451.000000	25.833509
450.000000	25.627244
449.000000	25.422962
448.000000	25.206757
447.000000	24.991359
446.000000	24.789619
445.000000	24.570237
444.000000	24.350440
443.000000	24.145735
442.000000	23.932405
441.000000	23.688715
440.000000	23.458711
439.000000	23.249572
438.000000	23.013854
437.000000	22.772072
436.000000	22.529902
435.000000	22.297780
434.000000	22.064845
433.000000	21.828409
432.000000	21.600390
431.000000	21.367241
430.000000	21.120944
429.000000	20.887229
428.000000	20.636179
427.000000	20.398394
426.000000	20.135247
425.000000	19.867593
424.000000	19.631506
423.000000	19.393093
422.000000	19.132974
421.000000	18.900835
420.000000	18.665237
419.000000	18.406846
418.000000	18.164890
417.000000	17.956138
416.000000	17.750198
415.000000	17.529433
414.000000	17.352177
413.000000	17.173778
412.000000	17.009242
411.000000	16.835558
410.000000	16.750360
409.000000	16.616328
408.000000	16.504385
407.000000	16.408963
406.000000	16.313187
405.000000	16.249394
404.000000	16.162531
403.000000	16.079935
402.000000	16.050703
401.000000	15.949377
400.000000	15.876622
399.000000	15.800085
398.000000	15.714313
397.000000	15.644725
396.000000	15.591424
395.000000	15.499944
394.000000	15.432603
393.000000	15.333418
392.000000	15.258477
391.000000	15.149896
390.000000	15.030610
389.000000	14.936082
388.000000	14.846003
387.000000	14.707449
386.000000	14.583868
385.000000	14.451599
384.000000	14.308234
383.000000	14.190512
382.000000	14.046664
381.000000	13.893682
380.000000	13.749559
379.000000	13.565906
378.000000	13.391075
377.000000	13.278787
376.000000	13.112928
375.000000	13.009908
374.000000	12.809762
373.000000	12.639922
372.000000	12.442478
371.000000	12.257757
370.000000	12.067227
369.000000	11.958384
368.000000	11.741634
367.000000	11.568693
366.000000	11.486243
365.000000	11.266777
364.000000	11.070210
363.000000	10.949815
362.000000	10.778750
361.000000	10.600476
360.000000	10.440640
359.000000	10.196832
358.000000	10.069225
357.000000	9.903037
356.000000	9.730659
355.000000	9.599947
354.000000	9.488725
353.000000	9.263903
352.000000	9.146741
351.000000	8.993708
350.000000	8.827720
349.000000	8.695952
348.000000	8.594265
347.000000	8.421286
346.000000	8.260223
345.000000	8.169340
344.000000	8.021643
343.000000	7.869711
342.000000	7.751528
341.000000	7.635485
340.000000	7.543136
339.000000	7.425747
338.000000	7.216392
337.000000	7.156851
336.000000	7.023635
335.000000	6.903856
334.000000	6.797799
333.000000	6.684068
332.000000	6.618555
331.000000	6.510697
330.000000	6.414332
329.000000	6.317858
328.000000	6.230549
327.000000	6.108772
326.000000	5.993788
325.000000	5.951926
324.000000	5.848513
323.000000	5.755034
322.000000	5.635790
321.000000	5.521234
320.000000	5.462719
319.000000	5.391689
318.000000	5.274906
317.000000	5.213945
316.000000	5.136792
315.000000	4.978595
314.000000	4.877308
313.000000	4.774246
312.000000	4.682489
311.000000	4.570683
310.000000	4.459376
309.000000	4.349188
308.000000	4.257723
307.000000	4.147627
306.000000	3.961389
305.000000	3.847356
304.000000	3.744885
303.000000	3.615071
302.000000	3.452815
301.000000	3.312821
300.000000	3.161108
299.000000	3.005584
298.000000	2.856689
297.000000	2.675139
296.000000	2.481067
295.000000	2.285702
294.000000	2.044415
293.000000	1.828444
292.000000	1.614086
291.000000	1.464248
290.000000	1.301033
289.000000	1.185463
288.000000	1.103582
287.000000	1.069252
286.000000	1.060549
285.000000	1.044650
284.000000	1.054384
283.000000	1.058782
282.000000	1.074871
281.000000	1.092305
280.000000	1.098396
279.000000	1.102147
278.000000	1.112322
277.000000	1.137447
276.000000	1.157218
275.000000	1.189188
274.000000	1.216826
273.000000	1.249416
272.000000	1.281669
271.000000	1.305199
270.000000	1.304657
269.000000	1.324358
268.000000	1.342377
267.000000	1.382474
266.000000	1.404008
265.000000	1.430174
264.000000	1.449796
263.000000	1.483057
262.000000	1.512914
261.000000	1.546019
260.000000	1.568253
259.000000	1.585815
258.000000	1.617981
257.000000	1.666690
256.000000	1.681245
255.000000	1.695763
254.000000	1.703192
253.000000	1.684927
252.000000	1.660107
251.000000	1.608466
250.000000	1.544802
249.000000	1.496081
248.000000	1.418369
247.000000	1.322285
246.000000	1.211643
245.000000	1.084676
244.000000	0.977158
243.000000	0.880636
242.000000	0.775000
241.000000	0.691194
240.000000	0.625085
239.000000	0.566577
238.000000	0.526423
237.000000	0.494844
236.000000	0.469384
235.000000	0.434043
234.000000	0.410831
233.000000	0.378259
232.000000	0.348255
231.000000	0.336672
230.000000	0.310901
229.000000	0.282201
228.000000	0.257579
227.000000	0.231173
226.000000	0.205320
225.000000	0.196000
224.000000	0.193475
223.000000	0.176730
222.000000	0.158574
221.000000	0.150955
220.000000	0.130123
219.000000	0.112635
218.000000	0.122251
217.000000	0.133960
216.000000	0.132021
215.000000	0.118717
214.000000	0.126700
213.000000	0.130064
212.000000	0.107970
211.000000	0.107481
210.000000	0.098295
209.000000	0.086107
208.000000	0.087590
207.000000	0.079648
206.000000	0.107276
205.000000	0.131226
204.000000	0.107279
203.000000	0.103866
202.000000	0.149105
201.000000	0.172688
200.000000	0.176364
