PE UV       SUBTECH     SPECTRUM    ASCII       PEDS        4.00        
   -1
TDgVeauAl 22.Sample.Cycle1.asc
18/03/08
18:39:15.00
18/03/08
18:39:15.00
Administrator

200.000000
1
Lambda 750
750N8071901
PerkinElmer UV WinLab 6.0.4.0738 / 1.61.00 Lambda 900

0
0
3350/servo 860.8/2
0
0
UV/VIS
1
1
1
CommonBeamDepol,150mm sphere / downward view
0
0
0
0
Program
Program
3350/servo 860.8/2
3350/0.2 860.8/0.2
3350/0.2 860.8/0.2
0
1
 
 
 
0
 
860.8
319.2
860.8
Front
100
on
 
 
0
0
0
 
0
 
 
 
0
 
 
0
0
0
0
0
 
 
 
 
0
0


0
0
#HDR
-1
-1
#GR
nm
%T
1.0
0.0
2350.000000
-1.000000
2151
8
34.810834
0.095307
#DATA
2350.000000	7.080483
2349.000000	7.027910
2348.000000	7.256490
2347.000000	7.620964
2346.000000	7.421090
2345.000000	6.891552
2344.000000	7.103845
2343.000000	6.914142
2342.000000	6.724450
2341.000000	7.018156
2340.000000	6.938405
2339.000000	7.200968
2338.000000	7.535134
2337.000000	7.891835
2336.000000	7.795082
2335.000000	7.686905
2334.000000	7.588954
2333.000000	7.746665
2332.000000	8.149979
2331.000000	8.057721
2330.000000	7.995976
2329.000000	8.049405
2328.000000	7.621342
2327.000000	7.998672
2326.000000	7.899378
2325.000000	8.165194
2324.000000	7.735024
2323.000000	7.559671
2322.000000	7.366482
2321.000000	7.301103
2320.000000	7.517714
2319.000000	7.405787
2318.000000	7.622025
2317.000000	7.623164
2316.000000	7.667034
2315.000000	7.482220
2314.000000	7.491875
2313.000000	7.211545
2312.000000	7.105851
2311.000000	7.122755
2310.000000	7.168752
2309.000000	7.061937
2308.000000	6.838930
2307.000000	7.195959
2306.000000	7.081643
2305.000000	7.043940
2304.000000	6.856975
2303.000000	7.015056
2302.000000	6.896548
2301.000000	6.672770
2300.000000	6.884736
2299.000000	6.676230
2298.000000	6.723256
2297.000000	6.616854
2296.000000	6.633497
2295.000000	6.641299
2294.000000	6.334935
2293.000000	6.419723
2292.000000	6.330782
2291.000000	6.270967
2290.000000	6.383844
2289.000000	6.327275
2288.000000	6.379855
2287.000000	6.450547
2286.000000	6.382884
2285.000000	6.267259
2284.000000	6.165998
2283.000000	6.232560
2282.000000	6.114869
2281.000000	5.998520
2280.000000	6.292108
2279.000000	6.551949
2278.000000	6.314575
2277.000000	6.285632
2276.000000	6.198783
2275.000000	6.225118
2274.000000	6.365358
2273.000000	6.484504
2272.000000	6.398736
2271.000000	6.387377
2270.000000	6.312973
2269.000000	6.293069
2268.000000	6.402597
2267.000000	6.493704
2266.000000	6.428283
2265.000000	6.511756
2264.000000	6.670410
2263.000000	6.596160
2262.000000	6.597388
2261.000000	6.871970
2260.000000	7.073846
2259.000000	7.173692
2258.000000	7.297034
2257.000000	7.377847
2256.000000	7.383968
2255.000000	7.321365
2254.000000	7.606166
2253.000000	7.821697
2252.000000	7.769893
2251.000000	7.860061
2250.000000	8.037466
2249.000000	8.218290
2248.000000	8.332667
2247.000000	8.462970
2246.000000	8.550475
2245.000000	8.593765
2244.000000	8.663061
2243.000000	8.833572
2242.000000	9.009598
2241.000000	9.074912
2240.000000	9.102171
2239.000000	9.135913
2238.000000	9.163223
2237.000000	9.176108
2236.000000	9.267432
2235.000000	9.337639
2234.000000	9.420254
2233.000000	9.547203
2232.000000	9.535150
2231.000000	9.556599
2230.000000	9.711663
2229.000000	9.772798
2228.000000	9.668582
2227.000000	9.562609
2226.000000	9.608001
2225.000000	9.680645
2224.000000	9.688222
2223.000000	9.668898
2222.000000	9.713612
2221.000000	9.656387
2220.000000	9.709098
2219.000000	9.581989
2218.000000	9.419374
2217.000000	9.423765
2216.000000	9.422594
2215.000000	9.379287
2214.000000	9.377349
2213.000000	9.375597
2212.000000	9.325102
2211.000000	9.341734
2210.000000	9.253014
2209.000000	9.203080
2208.000000	9.041325
2207.000000	8.984132
2206.000000	8.918628
2205.000000	8.890286
2204.000000	8.871949
2203.000000	8.790062
2202.000000	8.926022
2201.000000	8.910444
2200.000000	8.848070
2199.000000	8.683588
2198.000000	8.604275
2197.000000	8.695393
2196.000000	8.627820
2195.000000	8.627675
2194.000000	8.515251
2193.000000	8.353922
2192.000000	8.427494
2191.000000	8.423209
2190.000000	8.206648
2189.000000	8.205014
2188.000000	8.274186
2187.000000	8.195129
2186.000000	8.251720
2185.000000	8.186044
2184.000000	8.067061
2183.000000	7.979255
2182.000000	8.015731
2181.000000	8.038313
2180.000000	8.025488
2179.000000	7.935127
2178.000000	7.959807
2177.000000	7.974610
2176.000000	7.821378
2175.000000	7.966363
2174.000000	8.007226
2173.000000	8.043315
2172.000000	8.044911
2171.000000	8.126379
2170.000000	8.010327
2169.000000	8.102116
2168.000000	8.139436
2167.000000	8.214398
2166.000000	8.228465
2165.000000	8.253097
2164.000000	8.312118
2163.000000	8.320487
2162.000000	8.537781
2161.000000	8.368873
2160.000000	8.693351
2159.000000	8.666792
2158.000000	8.755472
2157.000000	8.703660
2156.000000	8.815234
2155.000000	8.944605
2154.000000	9.032959
2153.000000	9.237309
2152.000000	9.196956
2151.000000	9.192086
2150.000000	9.408024
2149.000000	9.454469
2148.000000	9.405869
2147.000000	9.456511
2146.000000	9.664107
2145.000000	9.548361
2144.000000	9.882371
2143.000000	9.934013
2142.000000	9.959354
2141.000000	10.130712
2140.000000	10.017127
2139.000000	10.262146
2138.000000	10.356851
2137.000000	10.357375
2136.000000	10.348256
2135.000000	10.355387
2134.000000	10.523644
2133.000000	10.263293
2132.000000	10.668734
2131.000000	10.753088
2130.000000	10.758700
2129.000000	10.768714
2128.000000	10.665087
2127.000000	10.653737
2126.000000	10.738140
2125.000000	10.759037
2124.000000	10.900725
2123.000000	10.932763
2122.000000	10.970413
2121.000000	10.973309
2120.000000	11.053359
2119.000000	10.936068
2118.000000	10.953808
2117.000000	10.967715
2116.000000	11.095507
2115.000000	11.256386
2114.000000	11.212531
2113.000000	11.105816
2112.000000	11.159159
2111.000000	11.216439
2110.000000	11.031307
2109.000000	11.099419
2108.000000	11.278392
2107.000000	11.191361
2106.000000	11.252227
2105.000000	11.175290
2104.000000	11.121639
2103.000000	11.302159
2102.000000	11.293369
2101.000000	11.384289
2100.000000	11.355712
2099.000000	11.327811
2098.000000	11.418542
2097.000000	11.401201
2096.000000	11.313130
2095.000000	11.145819
2094.000000	11.282195
2093.000000	11.288361
2092.000000	11.310427
2091.000000	11.333917
2090.000000	11.328278
2089.000000	11.194537
2088.000000	11.183801
2087.000000	11.203999
2086.000000	11.298668
2085.000000	11.249219
2084.000000	11.117230
2083.000000	11.115697
2082.000000	11.052780
2081.000000	11.007253
2080.000000	11.056540
2079.000000	10.979773
2078.000000	10.925847
2077.000000	10.991667
2076.000000	10.837700
2075.000000	10.721094
2074.000000	10.712891
2073.000000	10.628106
2072.000000	10.532741
2071.000000	10.428252
2070.000000	10.455622
2069.000000	10.266339
2068.000000	10.144341
2067.000000	10.086657
2066.000000	9.998486
2065.000000	9.897016
2064.000000	9.848729
2063.000000	9.722543
2062.000000	9.668492
2061.000000	9.497965
2060.000000	9.459214
2059.000000	9.418102
2058.000000	9.281898
2057.000000	9.170560
2056.000000	9.098130
2055.000000	8.985287
2054.000000	8.877665
2053.000000	8.783589
2052.000000	8.734155
2051.000000	8.648067
2050.000000	8.566347
2049.000000	8.516130
2048.000000	8.470250
2047.000000	8.440055
2046.000000	8.411268
2045.000000	8.351318
2044.000000	8.323316
2043.000000	8.333047
2042.000000	8.339857
2041.000000	8.406432
2040.000000	8.439993
2039.000000	8.406311
2038.000000	8.440045
2037.000000	8.472202
2036.000000	8.521496
2035.000000	8.618998
2034.000000	8.633748
2033.000000	8.688238
2032.000000	8.806703
2031.000000	8.881412
2030.000000	8.928932
2029.000000	9.023136
2028.000000	9.098700
2027.000000	9.169550
2026.000000	9.298978
2025.000000	9.360438
2024.000000	9.374652
2023.000000	9.418744
2022.000000	9.449825
2021.000000	9.470846
2020.000000	9.526079
2019.000000	9.538420
2018.000000	9.560391
2017.000000	9.595052
2016.000000	9.607529
2015.000000	9.620601
2014.000000	9.589689
2013.000000	9.599632
2012.000000	9.612855
2011.000000	9.562384
2010.000000	9.519036
2009.000000	9.495700
2008.000000	9.485055
2007.000000	9.457866
2006.000000	9.376111
2005.000000	9.318316
2004.000000	9.284821
2003.000000	9.254157
2002.000000	9.200900
2001.000000	9.119676
2000.000000	9.046486
1999.000000	8.983659
1998.000000	8.927214
1997.000000	8.908630
1996.000000	8.854186
1995.000000	8.800029
1994.000000	8.725423
1993.000000	8.619103
1992.000000	8.565886
1991.000000	8.480014
1990.000000	8.440422
1989.000000	8.390076
1988.000000	8.339829
1987.000000	8.280603
1986.000000	8.196495
1985.000000	8.186605
1984.000000	8.121793
1983.000000	8.061909
1982.000000	8.009915
1981.000000	7.936798
1980.000000	7.855507
1979.000000	7.812186
1978.000000	7.739375
1977.000000	7.666837
1976.000000	7.625777
1975.000000	7.630592
1974.000000	7.576807
1973.000000	7.518935
1972.000000	7.520700
1971.000000	7.383488
1970.000000	7.354067
1969.000000	7.316542
1968.000000	7.246768
1967.000000	7.201578
1966.000000	7.132919
1965.000000	7.103174
1964.000000	7.035155
1963.000000	7.025769
1962.000000	6.946676
1961.000000	6.926930
1960.000000	6.860446
1959.000000	6.792471
1958.000000	6.815598
1957.000000	6.786445
1956.000000	6.731692
1955.000000	6.671625
1954.000000	6.684624
1953.000000	6.621031
1952.000000	6.590825
1951.000000	6.619272
1950.000000	6.592013
1949.000000	6.543581
1948.000000	6.509111
1947.000000	6.485450
1946.000000	6.484892
1945.000000	6.513549
1944.000000	6.431324
1943.000000	6.502453
1942.000000	6.572181
1941.000000	6.538922
1940.000000	6.572295
1939.000000	6.552505
1938.000000	6.631841
1937.000000	6.649092
1936.000000	6.741497
1935.000000	6.828361
1934.000000	6.734795
1933.000000	6.849339
1932.000000	7.004266
1931.000000	6.978974
1930.000000	7.105572
1929.000000	7.181997
1928.000000	7.344911
1927.000000	7.414921
1926.000000	7.506749
1925.000000	7.734953
1924.000000	7.790617
1923.000000	7.922234
1922.000000	8.076280
1921.000000	8.195425
1920.000000	8.368131
1919.000000	8.591791
1918.000000	8.794714
1917.000000	8.948942
1916.000000	9.030744
1915.000000	9.326155
1914.000000	9.577409
1913.000000	9.831081
1912.000000	9.999586
1911.000000	10.238977
1910.000000	10.517068
1909.000000	10.775370
1908.000000	10.955377
1907.000000	11.316450
1906.000000	11.612131
1905.000000	11.889478
1904.000000	12.322103
1903.000000	12.506717
1902.000000	12.837615
1901.000000	13.284322
1900.000000	13.642455
1899.000000	14.031067
1898.000000	14.389297
1897.000000	14.734013
1896.000000	15.073593
1895.000000	15.491311
1894.000000	15.803019
1893.000000	16.208469
1892.000000	16.543878
1891.000000	16.914745
1890.000000	17.272644
1889.000000	17.593602
1888.000000	17.958995
1887.000000	18.267514
1886.000000	18.594317
1885.000000	18.941937
1884.000000	19.253050
1883.000000	19.602243
1882.000000	19.869048
1881.000000	20.085575
1880.000000	20.363736
1879.000000	20.645400
1878.000000	20.916705
1877.000000	21.145218
1876.000000	21.405664
1875.000000	21.698022
1874.000000	21.912938
1873.000000	22.045172
1872.000000	22.252587
1871.000000	22.396591
1870.000000	22.547926
1869.000000	22.696999
1868.000000	22.838756
1867.000000	22.922845
1866.000000	22.966211
1865.000000	23.096604
1864.000000	23.142738
1863.000000	23.213827
1862.000000	23.287482
1861.000000	23.371456
1860.000000	23.438195
1859.000000	23.482835
1858.000000	23.540309
1857.000000	23.577897
1856.000000	23.569652
1855.000000	23.621979
1854.000000	23.658564
1853.000000	23.717691
1852.000000	23.689951
1851.000000	23.708915
1850.000000	23.725864
1849.000000	23.724204
1848.000000	23.736740
1847.000000	23.756096
1846.000000	23.735037
1845.000000	23.694885
1844.000000	23.653024
1843.000000	23.666939
1842.000000	23.649122
1841.000000	23.657593
1840.000000	23.618783
1839.000000	23.585838
1838.000000	23.554352
1837.000000	23.518572
1836.000000	23.462714
1835.000000	23.417533
1834.000000	23.380885
1833.000000	23.322728
1832.000000	23.289832
1831.000000	23.241149
1830.000000	23.207269
1829.000000	23.169123
1828.000000	23.136679
1827.000000	23.094737
1826.000000	23.064276
1825.000000	23.038132
1824.000000	23.014747
1823.000000	22.980658
1822.000000	22.917689
1821.000000	22.878596
1820.000000	22.853687
1819.000000	22.815489
1818.000000	22.782614
1817.000000	22.749915
1816.000000	22.694479
1815.000000	22.671170
1814.000000	22.648741
1813.000000	22.613378
1812.000000	22.581034
1811.000000	22.544461
1810.000000	22.524344
1809.000000	22.501046
1808.000000	22.464112
1807.000000	22.428965
1806.000000	22.402564
1805.000000	22.371182
1804.000000	22.327494
1803.000000	22.294733
1802.000000	22.272598
1801.000000	22.251946
1800.000000	22.227154
1799.000000	22.189689
1798.000000	22.158772
1797.000000	22.131952
1796.000000	22.109968
1795.000000	22.112702
1794.000000	22.107209
1793.000000	22.091305
1792.000000	22.068417
1791.000000	22.055510
1790.000000	22.010034
1789.000000	21.984143
1788.000000	21.978508
1787.000000	21.941236
1786.000000	21.913366
1785.000000	21.896095
1784.000000	21.883508
1783.000000	21.856858
1782.000000	21.818652
1781.000000	21.780899
1780.000000	21.751617
1779.000000	21.734810
1778.000000	21.686479
1777.000000	21.643102
1776.000000	21.580210
1775.000000	21.538805
1774.000000	21.496569
1773.000000	21.452391
1772.000000	21.378160
1771.000000	21.339897
1770.000000	21.310869
1769.000000	21.258442
1768.000000	21.208632
1767.000000	21.127230
1766.000000	21.084709
1765.000000	21.048977
1764.000000	21.019369
1763.000000	20.960563
1762.000000	20.917959
1761.000000	20.847664
1760.000000	20.822387
1759.000000	20.796125
1758.000000	20.712820
1757.000000	20.657807
1756.000000	20.633306
1755.000000	20.592392
1754.000000	20.548241
1753.000000	20.487201
1752.000000	20.440807
1751.000000	20.398790
1750.000000	20.351262
1749.000000	20.334636
1748.000000	20.270152
1747.000000	20.187553
1746.000000	20.136905
1745.000000	20.104307
1744.000000	20.040684
1743.000000	19.985015
1742.000000	19.936331
1741.000000	19.908870
1740.000000	19.866298
1739.000000	19.823352
1738.000000	19.774744
1737.000000	19.753060
1736.000000	19.720381
1735.000000	19.701655
1734.000000	19.708141
1733.000000	19.695403
1732.000000	19.675974
1731.000000	19.659545
1730.000000	19.667004
1729.000000	19.691978
1728.000000	19.755197
1727.000000	19.795737
1726.000000	19.839841
1725.000000	19.867771
1724.000000	19.955288
1723.000000	20.016841
1722.000000	20.066589
1721.000000	20.189746
1720.000000	20.240259
1719.000000	20.393972
1718.000000	20.424254
1717.000000	20.493439
1716.000000	20.567932
1715.000000	20.645582
1714.000000	20.739424
1713.000000	20.779441
1712.000000	20.856261
1711.000000	20.931199
1710.000000	20.984416
1709.000000	21.011997
1708.000000	21.072489
1707.000000	21.125948
1706.000000	21.165691
1705.000000	21.187133
1704.000000	21.218377
1703.000000	21.231970
1702.000000	21.247562
1701.000000	21.256034
1700.000000	21.266849
1699.000000	21.258744
1698.000000	21.306346
1697.000000	21.340314
1696.000000	21.372598
1695.000000	21.377291
1694.000000	21.434712
1693.000000	21.463158
1692.000000	21.518142
1691.000000	21.560928
1690.000000	21.606841
1689.000000	21.729807
1688.000000	21.806137
1687.000000	21.879121
1686.000000	22.027088
1685.000000	22.105951
1684.000000	22.234832
1683.000000	22.365670
1682.000000	22.513991
1681.000000	22.671605
1680.000000	22.815574
1679.000000	22.959048
1678.000000	23.115127
1677.000000	23.262807
1676.000000	23.402175
1675.000000	23.567909
1674.000000	23.739507
1673.000000	23.883766
1672.000000	24.019864
1671.000000	24.207466
1670.000000	24.350708
1669.000000	24.457546
1668.000000	24.564768
1667.000000	24.720548
1666.000000	24.777554
1665.000000	24.879852
1664.000000	24.955302
1663.000000	25.020486
1662.000000	25.114873
1661.000000	25.182840
1660.000000	25.259970
1659.000000	25.311652
1658.000000	25.366899
1657.000000	25.393758
1656.000000	25.436831
1655.000000	25.470861
1654.000000	25.506961
1653.000000	25.519408
1652.000000	25.512454
1651.000000	25.530585
1650.000000	25.528790
1649.000000	25.531546
1648.000000	25.514336
1647.000000	25.519249
1646.000000	25.530654
1645.000000	25.507820
1644.000000	25.470544
1643.000000	25.462075
1642.000000	25.442163
1641.000000	25.406160
1640.000000	25.373022
1639.000000	25.340848
1638.000000	25.313080
1637.000000	25.307076
1636.000000	25.253036
1635.000000	25.210568
1634.000000	25.177380
1633.000000	25.146336
1632.000000	25.100734
1631.000000	25.057363
1630.000000	25.014865
1629.000000	24.970246
1628.000000	24.935276
1627.000000	24.896381
1626.000000	24.853383
1625.000000	24.813441
1624.000000	24.771808
1623.000000	24.730494
1622.000000	24.679811
1621.000000	24.628410
1620.000000	24.569317
1619.000000	24.521899
1618.000000	24.471154
1617.000000	24.412597
1616.000000	24.356966
1615.000000	24.305211
1614.000000	24.256481
1613.000000	24.206303
1612.000000	24.147060
1611.000000	24.080861
1610.000000	24.019884
1609.000000	23.963416
1608.000000	23.911423
1607.000000	23.862375
1606.000000	23.806056
1605.000000	23.749857
1604.000000	23.678206
1603.000000	23.611871
1602.000000	23.560625
1601.000000	23.507610
1600.000000	23.449041
1599.000000	23.383806
1598.000000	23.306658
1597.000000	23.259905
1596.000000	23.220123
1595.000000	23.162774
1594.000000	23.111358
1593.000000	23.068907
1592.000000	23.029439
1591.000000	22.975001
1590.000000	22.907218
1589.000000	22.858732
1588.000000	22.808299
1587.000000	22.767424
1586.000000	22.727567
1585.000000	22.681022
1584.000000	22.627110
1583.000000	22.577744
1582.000000	22.547592
1581.000000	22.504063
1580.000000	22.463515
1579.000000	22.431834
1578.000000	22.391604
1577.000000	22.335381
1576.000000	22.293408
1575.000000	22.253871
1574.000000	22.202419
1573.000000	22.156153
1572.000000	22.120761
1571.000000	22.078142
1570.000000	22.037731
1569.000000	21.980755
1568.000000	21.945740
1567.000000	21.930271
1566.000000	21.888444
1565.000000	21.857161
1564.000000	21.832745
1563.000000	21.818502
1562.000000	21.792260
1561.000000	21.753733
1560.000000	21.737444
1559.000000	21.714706
1558.000000	21.684715
1557.000000	21.657918
1556.000000	21.634089
1555.000000	21.633298
1554.000000	21.598669
1553.000000	21.565168
1552.000000	21.537904
1551.000000	21.504422
1550.000000	21.469452
1549.000000	21.439187
1548.000000	21.397437
1547.000000	21.345650
1546.000000	21.285639
1545.000000	21.231223
1544.000000	21.175238
1543.000000	21.107655
1542.000000	21.040734
1541.000000	20.963474
1540.000000	20.893094
1539.000000	20.813771
1538.000000	20.733312
1537.000000	20.669046
1536.000000	20.598252
1535.000000	20.507223
1534.000000	20.424308
1533.000000	20.352092
1532.000000	20.272090
1531.000000	20.199313
1530.000000	20.125147
1529.000000	20.047783
1528.000000	19.981332
1527.000000	19.910335
1526.000000	19.860639
1525.000000	19.809662
1524.000000	19.737461
1523.000000	19.708458
1522.000000	19.644052
1521.000000	19.606658
1520.000000	19.565407
1519.000000	19.530465
1518.000000	19.489449
1517.000000	19.461012
1516.000000	19.423831
1515.000000	19.375217
1514.000000	19.357798
1513.000000	19.350948
1512.000000	19.318264
1511.000000	19.299160
1510.000000	19.294205
1509.000000	19.300344
1508.000000	19.312622
1507.000000	19.312921
1506.000000	19.286768
1505.000000	19.249235
1504.000000	19.249830
1503.000000	19.215469
1502.000000	19.202039
1501.000000	19.196384
1500.000000	19.176204
1499.000000	19.173325
1498.000000	19.185150
1497.000000	19.189298
1496.000000	19.195942
1495.000000	19.215013
1494.000000	19.226041
1493.000000	19.239725
1492.000000	19.246155
1491.000000	19.273553
1490.000000	19.312121
1489.000000	19.336754
1488.000000	19.360221
1487.000000	19.411158
1486.000000	19.423879
1485.000000	19.456965
1484.000000	19.489455
1483.000000	19.551825
1482.000000	19.558095
1481.000000	19.638395
1480.000000	19.672697
1479.000000	19.710678
1478.000000	19.744245
1477.000000	19.797534
1476.000000	19.806898
1475.000000	19.867394
1474.000000	19.912666
1473.000000	19.938236
1472.000000	19.975975
1471.000000	20.018051
1470.000000	20.061305
1469.000000	20.093298
1468.000000	20.156822
1467.000000	20.200091
1466.000000	20.241931
1465.000000	20.266419
1464.000000	20.303113
1463.000000	20.360064
1462.000000	20.380822
1461.000000	20.428184
1460.000000	20.485042
1459.000000	20.525006
1458.000000	20.576634
1457.000000	20.593997
1456.000000	20.652346
1455.000000	20.687548
1454.000000	20.766510
1453.000000	20.819208
1452.000000	20.851783
1451.000000	20.901931
1450.000000	20.953247
1449.000000	21.011570
1448.000000	21.085086
1447.000000	21.172187
1446.000000	21.219405
1445.000000	21.266002
1444.000000	21.346288
1443.000000	21.409987
1442.000000	21.480834
1441.000000	21.588753
1440.000000	21.664795
1439.000000	21.728883
1438.000000	21.805390
1437.000000	21.893340
1436.000000	21.974502
1435.000000	22.066586
1434.000000	22.147054
1433.000000	22.243315
1432.000000	22.352233
1431.000000	22.470110
1430.000000	22.579079
1429.000000	22.701568
1428.000000	22.821430
1427.000000	22.938777
1426.000000	23.061171
1425.000000	23.199112
1424.000000	23.350146
1423.000000	23.485101
1422.000000	23.624253
1421.000000	23.761296
1420.000000	23.919017
1419.000000	24.082719
1418.000000	24.245814
1417.000000	24.403932
1416.000000	24.573553
1415.000000	24.760811
1414.000000	24.925570
1413.000000	25.107645
1412.000000	25.305135
1411.000000	25.483981
1410.000000	25.651810
1409.000000	25.836253
1408.000000	26.024653
1407.000000	26.204898
1406.000000	26.378891
1405.000000	26.554400
1404.000000	26.746082
1403.000000	26.929089
1402.000000	27.112039
1401.000000	27.290149
1400.000000	27.466670
1399.000000	27.634373
1398.000000	27.795709
1397.000000	27.953676
1396.000000	28.086952
1395.000000	28.217255
1394.000000	28.365541
1393.000000	28.513216
1392.000000	28.660882
1391.000000	28.808869
1390.000000	28.940451
1389.000000	29.080664
1388.000000	29.232657
1387.000000	29.359360
1386.000000	29.453946
1385.000000	29.572020
1384.000000	29.697824
1383.000000	29.788379
1382.000000	29.851755
1381.000000	29.938754
1380.000000	30.044089
1379.000000	30.118952
1378.000000	30.176974
1377.000000	30.252859
1376.000000	30.322331
1375.000000	30.370622
1374.000000	30.418511
1373.000000	30.468980
1372.000000	30.523425
1371.000000	30.594436
1370.000000	30.650407
1369.000000	30.690259
1368.000000	30.722623
1367.000000	30.766659
1366.000000	30.817745
1365.000000	30.862645
1364.000000	30.911504
1363.000000	30.961788
1362.000000	31.010668
1361.000000	31.067936
1360.000000	31.137589
1359.000000	31.192676
1358.000000	31.228278
1357.000000	31.272586
1356.000000	31.360871
1355.000000	31.425040
1354.000000	31.449859
1353.000000	31.498597
1352.000000	31.563201
1351.000000	31.629626
1350.000000	31.676378
1349.000000	31.711506
1348.000000	31.757696
1347.000000	31.836590
1346.000000	31.915472
1345.000000	31.959375
1344.000000	31.981258
1343.000000	32.016633
1342.000000	32.065376
1341.000000	32.125468
1340.000000	32.171627
1339.000000	32.206747
1338.000000	32.239935
1337.000000	32.309826
1336.000000	32.368854
1335.000000	32.410431
1334.000000	32.437074
1333.000000	32.454897
1332.000000	32.491283
1331.000000	32.526439
1330.000000	32.566261
1329.000000	32.597693
1328.000000	32.622484
1327.000000	32.665703
1326.000000	32.686163
1325.000000	32.694313
1324.000000	32.721348
1323.000000	32.743588
1322.000000	32.764377
1321.000000	32.765785
1320.000000	32.762660
1319.000000	32.819572
1318.000000	32.861321
1317.000000	32.869786
1316.000000	32.855704
1315.000000	32.872592
1314.000000	32.890981
1313.000000	32.894370
1312.000000	32.908999
1311.000000	32.918927
1310.000000	32.944156
1309.000000	32.935244
1308.000000	32.964503
1307.000000	32.982092
1306.000000	32.986462
1305.000000	32.982441
1304.000000	32.978734
1303.000000	33.005534
1302.000000	33.043450
1301.000000	33.041910
1300.000000	33.022017
1299.000000	33.024835
1298.000000	33.023982
1297.000000	33.025051
1296.000000	33.013522
1295.000000	33.022020
1294.000000	33.029761
1293.000000	33.017468
1292.000000	33.004669
1291.000000	33.004763
1290.000000	33.009806
1289.000000	33.003253
1288.000000	33.007619
1287.000000	32.991313
1286.000000	32.945993
1285.000000	32.926998
1284.000000	32.919594
1283.000000	32.932156
1282.000000	32.935444
1281.000000	32.953017
1280.000000	32.962049
1279.000000	32.951644
1278.000000	32.935983
1277.000000	32.939485
1276.000000	32.940774
1275.000000	32.935457
1274.000000	32.930951
1273.000000	32.926172
1272.000000	32.941561
1271.000000	32.932232
1270.000000	32.908623
1269.000000	32.928147
1268.000000	32.945239
1267.000000	32.938307
1266.000000	32.934468
1265.000000	32.943559
1264.000000	32.970691
1263.000000	32.994408
1262.000000	33.007691
1261.000000	32.988575
1260.000000	32.973078
1259.000000	32.992585
1258.000000	32.984770
1257.000000	33.017946
1256.000000	33.029890
1255.000000	33.036846
1254.000000	33.033850
1253.000000	33.040451
1252.000000	33.048323
1251.000000	33.034821
1250.000000	33.032451
1249.000000	33.029087
1248.000000	33.017868
1247.000000	33.018130
1246.000000	32.998008
1245.000000	32.988369
1244.000000	32.987800
1243.000000	32.969855
1242.000000	32.950822
1241.000000	32.904098
1240.000000	32.887563
1239.000000	32.873900
1238.000000	32.860909
1237.000000	32.810162
1236.000000	32.797908
1235.000000	32.771840
1234.000000	32.750434
1233.000000	32.694991
1232.000000	32.693986
1231.000000	32.687621
1230.000000	32.655034
1229.000000	32.607342
1228.000000	32.588314
1227.000000	32.582381
1226.000000	32.559433
1225.000000	32.567477
1224.000000	32.550216
1223.000000	32.518441
1222.000000	32.505923
1221.000000	32.488235
1220.000000	32.469571
1219.000000	32.430727
1218.000000	32.414409
1217.000000	32.390303
1216.000000	32.346989
1215.000000	32.312226
1214.000000	32.288952
1213.000000	32.268784
1212.000000	32.252835
1211.000000	32.219041
1210.000000	32.170716
1209.000000	32.145366
1208.000000	32.118344
1207.000000	32.068624
1206.000000	32.058747
1205.000000	32.022400
1204.000000	31.966149
1203.000000	31.951051
1202.000000	31.932875
1201.000000	31.871912
1200.000000	31.816965
1199.000000	31.790296
1198.000000	31.787524
1197.000000	31.749297
1196.000000	31.703299
1195.000000	31.667522
1194.000000	31.647929
1193.000000	31.625803
1192.000000	31.608008
1191.000000	31.578291
1190.000000	31.536242
1189.000000	31.487659
1188.000000	31.486069
1187.000000	31.485575
1186.000000	31.486896
1185.000000	31.481487
1184.000000	31.482879
1183.000000	31.489713
1182.000000	31.514792
1181.000000	31.547428
1180.000000	31.566971
1179.000000	31.600708
1178.000000	31.639777
1177.000000	31.677934
1176.000000	31.718005
1175.000000	31.765765
1174.000000	31.811375
1173.000000	31.858460
1172.000000	31.917372
1171.000000	31.977226
1170.000000	32.034802
1169.000000	32.100647
1168.000000	32.159242
1167.000000	32.233555
1166.000000	32.308145
1165.000000	32.370174
1164.000000	32.447087
1163.000000	32.522922
1162.000000	32.585172
1161.000000	32.649441
1160.000000	32.712156
1159.000000	32.773142
1158.000000	32.819564
1157.000000	32.872546
1156.000000	32.938230
1155.000000	33.003351
1154.000000	33.070359
1153.000000	33.124922
1152.000000	33.179234
1151.000000	33.240911
1150.000000	33.296835
1149.000000	33.350845
1148.000000	33.407182
1147.000000	33.455551
1146.000000	33.490365
1145.000000	33.525543
1144.000000	33.560233
1143.000000	33.607841
1142.000000	33.655165
1141.000000	33.656474
1140.000000	33.680005
1139.000000	33.732545
1138.000000	33.778835
1137.000000	33.822041
1136.000000	33.872311
1135.000000	33.916554
1134.000000	33.950667
1133.000000	33.991269
1132.000000	34.020967
1131.000000	34.049779
1130.000000	34.081638
1129.000000	34.095724
1128.000000	34.098387
1127.000000	34.106963
1126.000000	34.132296
1125.000000	34.163562
1124.000000	34.179960
1123.000000	34.194354
1122.000000	34.208636
1121.000000	34.222496
1120.000000	34.245877
1119.000000	34.249481
1118.000000	34.249193
1117.000000	34.258442
1116.000000	34.259135
1115.000000	34.264264
1114.000000	34.281110
1113.000000	34.291970
1112.000000	34.288316
1111.000000	34.287220
1110.000000	34.285506
1109.000000	34.289735
1108.000000	34.297630
1107.000000	34.298633
1106.000000	34.302624
1105.000000	34.299786
1104.000000	34.298644
1103.000000	34.277260
1102.000000	34.262611
1101.000000	34.266693
1100.000000	34.262511
1099.000000	34.276911
1098.000000	34.289765
1097.000000	34.307755
1096.000000	34.309939
1095.000000	34.304245
1094.000000	34.273981
1093.000000	34.266044
1092.000000	34.272344
1091.000000	34.275094
1090.000000	34.284162
1089.000000	34.287704
1088.000000	34.297100
1087.000000	34.255255
1086.000000	34.260450
1085.000000	34.267808
1084.000000	34.257074
1083.000000	34.273313
1082.000000	34.268949
1081.000000	34.242154
1080.000000	34.211512
1079.000000	34.216555
1078.000000	34.216917
1077.000000	34.227869
1076.000000	34.228638
1075.000000	34.215417
1074.000000	34.175326
1073.000000	34.183960
1072.000000	34.163863
1071.000000	34.188686
1070.000000	34.203651
1069.000000	34.197503
1068.000000	34.184158
1067.000000	34.168560
1066.000000	34.129888
1065.000000	34.128409
1064.000000	34.131675
1063.000000	34.132384
1062.000000	34.119297
1061.000000	34.128479
1060.000000	34.083029
1059.000000	34.093989
1058.000000	34.077834
1057.000000	34.088127
1056.000000	34.079958
1055.000000	34.092958
1054.000000	34.034005
1053.000000	34.042391
1052.000000	34.022477
1051.000000	34.039907
1050.000000	34.034707
1049.000000	34.004775
1048.000000	33.975440
1047.000000	34.005679
1046.000000	34.008470
1045.000000	33.970749
1044.000000	33.966232
1043.000000	33.967592
1042.000000	33.965586
1041.000000	33.966502
1040.000000	33.948383
1039.000000	33.943705
1038.000000	33.957084
1037.000000	33.942425
1036.000000	33.923029
1035.000000	33.917120
1034.000000	33.919045
1033.000000	33.927380
1032.000000	33.907457
1031.000000	33.922512
1030.000000	33.909417
1029.000000	33.931721
1028.000000	33.885737
1027.000000	33.898593
1026.000000	33.891454
1025.000000	33.883754
1024.000000	33.884012
1023.000000	33.898850
1022.000000	33.906097
1021.000000	33.893044
1020.000000	33.887412
1019.000000	33.905840
1018.000000	33.887317
1017.000000	33.888293
1016.000000	33.893753
1015.000000	33.872463
1014.000000	33.886658
1013.000000	33.911110
1012.000000	33.892189
1011.000000	33.905708
1010.000000	33.912455
1009.000000	33.914299
1008.000000	33.912929
1007.000000	33.916181
1006.000000	33.927904
1005.000000	33.929738
1004.000000	33.948068
1003.000000	33.950601
1002.000000	33.962271
1001.000000	33.959851
1000.000000	33.974365
999.000000	33.990580
998.000000	34.016093
997.000000	34.013937
996.000000	34.016558
995.000000	34.037782
994.000000	34.047785
993.000000	34.059185
992.000000	34.057275
991.000000	34.056311
990.000000	34.074164
989.000000	34.082259
988.000000	34.083190
987.000000	34.084938
986.000000	34.092947
985.000000	34.116825
984.000000	34.124676
983.000000	34.134606
982.000000	34.130885
981.000000	34.139986
980.000000	34.149050
979.000000	34.148633
978.000000	34.152100
977.000000	34.159530
976.000000	34.184271
975.000000	34.185303
974.000000	34.186771
973.000000	34.184162
972.000000	34.179696
971.000000	34.200844
970.000000	34.206528
969.000000	34.220104
968.000000	34.224741
967.000000	34.236358
966.000000	34.241556
965.000000	34.251063
964.000000	34.256892
963.000000	34.264307
962.000000	34.284384
961.000000	34.302017
960.000000	34.302383
959.000000	34.297626
958.000000	34.302525
957.000000	34.307763
956.000000	34.323919
955.000000	34.347920
954.000000	34.348951
953.000000	34.352425
952.000000	34.358109
951.000000	34.358297
950.000000	34.383936
949.000000	34.400900
948.000000	34.392451
947.000000	34.392485
946.000000	34.402852
945.000000	34.400030
944.000000	34.411950
943.000000	34.402611
942.000000	34.397939
941.000000	34.425265
940.000000	34.436277
939.000000	34.439056
938.000000	34.432762
937.000000	34.420270
936.000000	34.418051
935.000000	34.419153
934.000000	34.427640
933.000000	34.409717
932.000000	34.390284
931.000000	34.411965
930.000000	34.426824
929.000000	34.416906
928.000000	34.403366
927.000000	34.385197
926.000000	34.400339
925.000000	34.427052
924.000000	34.416721
923.000000	34.419812
922.000000	34.427772
921.000000	34.424361
920.000000	34.402705
919.000000	34.415904
918.000000	34.410293
917.000000	34.415686
916.000000	34.440943
915.000000	34.440545
914.000000	34.443048
913.000000	34.418819
912.000000	34.421489
911.000000	34.447937
910.000000	34.469523
909.000000	34.450262
908.000000	34.450586
907.000000	34.469239
906.000000	34.470034
905.000000	34.454161
904.000000	34.441436
903.000000	34.430973
902.000000	34.419775
901.000000	34.464239
900.000000	34.472923
899.000000	34.487522
898.000000	34.479960
897.000000	34.458208
896.000000	34.480949
895.000000	34.533838
894.000000	34.545443
893.000000	34.495998
892.000000	34.540570
891.000000	34.533880
890.000000	34.555276
889.000000	34.573577
888.000000	34.562712
887.000000	34.605194
886.000000	34.641393
885.000000	34.604822
884.000000	34.574661
883.000000	34.595248
882.000000	34.572195
881.000000	34.615606
880.000000	34.651328
879.000000	34.672398
878.000000	34.643169
877.000000	34.617299
876.000000	34.618183
875.000000	34.624922
874.000000	34.678251
873.000000	34.682583
872.000000	34.592148
871.000000	34.637157
870.000000	34.675418
869.000000	34.639445
868.000000	34.600518
867.000000	34.659309
866.000000	34.654092
865.000000	34.673736
864.000000	34.586966
863.000000	34.673525
862.000000	34.647070
861.000000	34.634296
860.000000	34.585700
859.000000	34.740196
858.000000	34.671231
857.000000	34.732239
856.000000	34.601701
855.000000	34.676736
854.000000	34.574713
853.000000	34.601712
852.000000	34.802510
851.000000	34.810834
850.000000	34.574550
849.000000	34.721830
848.000000	34.616519
847.000000	34.711772
846.000000	34.729627
845.000000	34.646981
844.000000	34.691523
843.000000	34.760090
842.000000	34.781160
841.000000	34.663133
840.000000	34.703632
839.000000	34.655683
838.000000	34.570749
837.000000	34.709287
836.000000	34.728783
835.000000	34.628962
834.000000	34.518326
833.000000	34.561298
832.000000	34.595047
831.000000	34.532695
830.000000	34.537610
829.000000	34.644434
828.000000	34.589592
827.000000	34.567112
826.000000	34.611009
825.000000	34.633431
824.000000	34.641286
823.000000	34.522630
822.000000	34.511457
821.000000	34.498994
820.000000	34.602286
819.000000	34.617490
818.000000	34.596159
817.000000	34.625806
816.000000	34.516760
815.000000	34.513803
814.000000	34.570014
813.000000	34.620537
812.000000	34.460468
811.000000	34.545760
810.000000	34.586323
809.000000	34.504151
808.000000	34.613022
807.000000	34.551049
806.000000	34.513585
805.000000	34.571534
804.000000	34.607995
803.000000	34.570126
802.000000	34.653609
801.000000	34.594677
800.000000	34.510289
799.000000	34.596219
798.000000	34.618884
797.000000	34.619793
796.000000	34.498585
795.000000	34.557314
794.000000	34.571202
793.000000	34.507642
792.000000	34.516442
791.000000	34.501580
790.000000	34.489442
789.000000	34.510444
788.000000	34.516130
787.000000	34.495198
786.000000	34.583574
785.000000	34.591818
784.000000	34.564492
783.000000	34.468076
782.000000	34.506756
781.000000	34.503097
780.000000	34.472563
779.000000	34.499399
778.000000	34.519197
777.000000	34.515364
776.000000	34.517897
775.000000	34.500380
774.000000	34.490915
773.000000	34.489294
772.000000	34.479968
771.000000	34.475228
770.000000	34.500949
769.000000	34.521312
768.000000	34.505382
767.000000	34.464685
766.000000	34.489732
765.000000	34.488449
764.000000	34.500466
763.000000	34.498993
762.000000	34.509531
761.000000	34.492249
760.000000	34.475546
759.000000	34.449274
758.000000	34.508303
757.000000	34.437829
756.000000	34.426094
755.000000	34.411146
754.000000	34.448775
753.000000	34.451301
752.000000	34.411280
751.000000	34.464676
750.000000	34.445584
749.000000	34.422929
748.000000	34.394618
747.000000	34.354303
746.000000	34.392381
745.000000	34.455578
744.000000	34.420050
743.000000	34.384776
742.000000	34.405443
741.000000	34.401371
740.000000	34.406749
739.000000	34.416666
738.000000	34.415523
737.000000	34.437941
736.000000	34.392065
735.000000	34.368888
734.000000	34.349406
733.000000	34.380767
732.000000	34.412125
731.000000	34.468266
730.000000	34.420866
729.000000	34.377429
728.000000	34.368307
727.000000	34.399974
726.000000	34.380297
725.000000	34.409421
724.000000	34.426687
723.000000	34.409024
722.000000	34.379573
721.000000	34.388561
720.000000	34.372112
719.000000	34.332127
718.000000	34.351217
717.000000	34.361183
716.000000	34.357102
715.000000	34.369474
714.000000	34.348538
713.000000	34.303081
712.000000	34.316249
711.000000	34.321833
710.000000	34.313801
709.000000	34.320954
708.000000	34.336843
707.000000	34.318025
706.000000	34.302751
705.000000	34.312188
704.000000	34.323226
703.000000	34.338810
702.000000	34.321134
701.000000	34.322422
700.000000	34.340342
699.000000	34.305643
698.000000	34.278237
697.000000	34.292830
696.000000	34.324299
695.000000	34.309732
694.000000	34.279693
693.000000	34.227866
692.000000	34.212399
691.000000	34.265538
690.000000	34.294809
689.000000	34.267749
688.000000	34.212840
687.000000	34.197931
686.000000	34.214409
685.000000	34.222470
684.000000	34.233710
683.000000	34.213675
682.000000	34.213353
681.000000	34.213850
680.000000	34.208550
679.000000	34.191027
678.000000	34.167992
677.000000	34.177820
676.000000	34.176738
675.000000	34.171821
674.000000	34.151590
673.000000	34.161592
672.000000	34.167927
671.000000	34.168507
670.000000	34.142489
669.000000	34.137898
668.000000	34.137410
667.000000	34.119396
666.000000	34.097538
665.000000	34.110151
664.000000	34.093732
663.000000	34.097444
662.000000	34.090687
661.000000	34.082856
660.000000	34.052292
659.000000	34.057694
658.000000	34.062496
657.000000	34.062505
656.000000	34.079748
655.000000	34.081829
654.000000	34.035611
653.000000	34.018743
652.000000	34.024556
651.000000	34.057763
650.000000	34.035556
649.000000	34.016855
648.000000	34.010879
647.000000	34.028591
646.000000	34.003566
645.000000	33.992197
644.000000	33.915832
643.000000	33.959417
642.000000	33.964784
641.000000	33.916807
640.000000	33.914778
639.000000	33.951756
638.000000	33.949434
637.000000	33.913926
636.000000	33.928063
635.000000	33.909450
634.000000	33.915126
633.000000	33.899183
632.000000	33.883944
631.000000	33.898769
630.000000	33.854821
629.000000	33.869746
628.000000	33.833610
627.000000	33.824703
626.000000	33.840625
625.000000	33.855556
624.000000	33.819819
623.000000	33.824242
622.000000	33.792403
621.000000	33.794804
620.000000	33.748833
619.000000	33.784533
618.000000	33.798243
617.000000	33.760633
616.000000	33.750689
615.000000	33.728802
614.000000	33.726387
613.000000	33.706312
612.000000	33.737210
611.000000	33.695509
610.000000	33.673261
609.000000	33.672667
608.000000	33.640252
607.000000	33.664986
606.000000	33.653794
605.000000	33.615808
604.000000	33.611014
603.000000	33.601174
602.000000	33.591758
601.000000	33.560263
600.000000	33.551555
599.000000	33.587789
598.000000	33.553346
597.000000	33.543234
596.000000	33.532923
595.000000	33.454719
594.000000	33.481404
593.000000	33.498372
592.000000	33.462586
591.000000	33.488434
590.000000	33.400423
589.000000	33.420897
588.000000	33.419392
587.000000	33.378431
586.000000	33.339679
585.000000	33.379074
584.000000	33.341108
583.000000	33.331506
582.000000	33.328589
581.000000	33.306379
580.000000	33.290315
579.000000	33.245630
578.000000	33.208646
577.000000	33.226019
576.000000	33.193454
575.000000	33.195242
574.000000	33.177195
573.000000	33.165680
572.000000	33.125156
571.000000	33.146394
570.000000	33.134158
569.000000	33.095630
568.000000	33.090065
567.000000	33.045308
566.000000	33.008350
565.000000	32.981433
564.000000	33.007751
563.000000	32.976269
562.000000	32.948399
561.000000	32.911026
560.000000	32.920795
559.000000	32.938857
558.000000	32.883869
557.000000	32.873211
556.000000	32.802442
555.000000	32.819519
554.000000	32.772367
553.000000	32.765652
552.000000	32.744625
551.000000	32.728380
550.000000	32.715657
549.000000	32.652052
548.000000	32.636668
547.000000	32.610587
546.000000	32.574957
545.000000	32.590082
544.000000	32.554343
543.000000	32.521302
542.000000	32.478873
541.000000	32.470864
540.000000	32.456967
539.000000	32.411027
538.000000	32.367314
537.000000	32.379271
536.000000	32.346079
535.000000	32.302957
534.000000	32.268673
533.000000	32.278690
532.000000	32.230475
531.000000	32.142781
530.000000	32.136221
529.000000	32.125281
528.000000	32.085879
527.000000	32.048149
526.000000	32.000403
525.000000	32.010643
524.000000	31.927641
523.000000	31.904565
522.000000	31.870916
521.000000	31.851764
520.000000	31.835039
519.000000	31.768676
518.000000	31.718208
517.000000	31.699465
516.000000	31.651826
515.000000	31.637088
514.000000	31.584002
513.000000	31.570072
512.000000	31.511054
511.000000	31.462775
510.000000	31.424358
509.000000	31.390483
508.000000	31.377125
507.000000	31.336069
506.000000	31.288736
505.000000	31.220836
504.000000	31.182676
503.000000	31.130289
502.000000	31.080393
501.000000	31.054388
500.000000	30.983891
499.000000	30.968424
498.000000	30.916674
497.000000	30.858210
496.000000	30.811279
495.000000	30.742810
494.000000	30.686284
493.000000	30.647383
492.000000	30.592649
491.000000	30.566309
490.000000	30.524710
489.000000	30.483551
488.000000	30.436050
487.000000	30.360242
486.000000	30.299061
485.000000	30.255066
484.000000	30.210323
483.000000	30.184598
482.000000	30.151837
481.000000	30.083751
480.000000	30.011515
479.000000	29.957801
478.000000	29.877485
477.000000	29.808814
476.000000	29.751640
475.000000	29.686589
474.000000	29.631711
473.000000	29.576417
472.000000	29.510002
471.000000	29.443478
470.000000	29.359743
469.000000	29.288911
468.000000	29.237873
467.000000	29.174298
466.000000	29.078093
465.000000	28.987325
464.000000	28.921398
463.000000	28.853210
462.000000	28.764104
461.000000	28.670759
460.000000	28.599735
459.000000	28.536038
458.000000	28.465824
457.000000	28.362926
456.000000	28.267234
455.000000	28.179038
454.000000	28.080471
453.000000	27.993052
452.000000	27.873086
451.000000	27.759523
450.000000	27.688164
449.000000	27.589977
448.000000	27.459921
447.000000	27.348716
446.000000	27.263919
445.000000	27.153324
444.000000	27.021369
443.000000	26.910822
442.000000	26.814998
441.000000	26.708137
440.000000	26.615391
439.000000	26.492977
438.000000	26.359165
437.000000	26.256550
436.000000	26.114991
435.000000	25.995730
434.000000	25.899602
433.000000	25.782958
432.000000	25.700079
431.000000	25.599338
430.000000	25.463947
429.000000	25.354437
428.000000	25.228094
427.000000	25.078611
426.000000	24.951711
425.000000	24.821554
424.000000	24.708680
423.000000	24.572084
422.000000	24.453798
421.000000	24.309217
420.000000	24.163547
419.000000	24.036383
418.000000	23.875167
417.000000	23.692629
416.000000	23.576616
415.000000	23.418088
414.000000	23.254926
413.000000	23.100536
412.000000	22.974659
411.000000	22.789875
410.000000	22.650560
409.000000	22.457860
408.000000	22.289474
407.000000	22.150606
406.000000	21.968636
405.000000	21.800935
404.000000	21.651438
403.000000	21.466212
402.000000	21.312783
401.000000	21.140119
400.000000	20.960433
399.000000	20.811738
398.000000	20.590804
397.000000	20.447731
396.000000	20.285682
395.000000	20.120154
394.000000	19.947461
393.000000	19.787054
392.000000	19.618311
391.000000	19.427867
390.000000	19.275218
389.000000	19.098645
388.000000	18.889318
387.000000	18.719782
386.000000	18.559046
385.000000	18.376713
384.000000	18.217185
383.000000	18.009305
382.000000	17.831966
381.000000	17.648065
380.000000	17.481284
379.000000	17.252931
378.000000	16.937106
377.000000	16.907630
376.000000	16.828332
375.000000	16.612649
374.000000	16.363313
373.000000	16.220910
372.000000	15.981928
371.000000	15.749459
370.000000	15.611887
369.000000	15.424217
368.000000	15.201835
367.000000	15.048338
366.000000	14.870835
365.000000	14.655317
364.000000	14.370799
363.000000	14.273913
362.000000	14.084528
361.000000	13.856162
360.000000	13.647080
359.000000	13.436136
358.000000	13.183770
357.000000	12.940611
356.000000	12.740997
355.000000	12.642238
354.000000	12.455179
353.000000	12.256672
352.000000	12.079689
351.000000	11.823582
350.000000	11.590896
349.000000	11.424655
348.000000	11.199594
347.000000	11.008382
346.000000	10.840418
345.000000	10.649250
344.000000	10.486649
343.000000	10.256062
342.000000	9.972306
341.000000	9.880140
340.000000	9.659405
339.000000	9.471448
338.000000	9.247937
337.000000	9.083271
336.000000	8.828104
335.000000	8.649798
334.000000	8.467157
333.000000	8.246930
332.000000	8.104331
331.000000	7.926596
330.000000	7.628496
329.000000	7.476483
328.000000	7.270589
327.000000	6.998029
326.000000	6.818460
325.000000	6.649525
324.000000	6.435567
323.000000	6.216412
322.000000	5.983037
321.000000	5.788548
320.000000	5.592752
319.000000	5.418276
318.000000	5.254181
317.000000	5.039988
316.000000	4.872338
315.000000	4.651865
314.000000	4.471450
313.000000	4.333197
312.000000	4.129882
311.000000	3.901779
310.000000	3.737964
309.000000	3.566903
308.000000	3.389125
307.000000	3.172436
306.000000	2.988719
305.000000	2.799186
304.000000	2.634963
303.000000	2.444177
302.000000	2.233005
301.000000	2.055270
300.000000	1.861124
299.000000	1.661010
298.000000	1.468666
297.000000	1.283594
296.000000	1.109983
295.000000	0.951067
294.000000	0.797621
293.000000	0.695255
292.000000	0.591671
291.000000	0.516705
290.000000	0.463904
289.000000	0.419155
288.000000	0.393124
287.000000	0.375930
286.000000	0.362886
285.000000	0.345120
284.000000	0.342191
283.000000	0.335314
282.000000	0.333863
281.000000	0.334962
280.000000	0.332086
279.000000	0.326229
278.000000	0.327483
277.000000	0.321167
276.000000	0.321185
275.000000	0.326395
274.000000	0.322711
273.000000	0.316050
272.000000	0.317189
271.000000	0.322210
270.000000	0.330198
269.000000	0.315840
268.000000	0.332289
267.000000	0.340675
266.000000	0.343436
265.000000	0.348474
264.000000	0.351549
263.000000	0.358753
262.000000	0.374547
261.000000	0.375024
260.000000	0.389949
259.000000	0.391498
258.000000	0.400544
257.000000	0.406434
256.000000	0.417639
255.000000	0.432446
254.000000	0.449929
253.000000	0.456623
252.000000	0.464200
251.000000	0.466217
250.000000	0.483242
249.000000	0.501074
248.000000	0.506872
247.000000	0.511307
246.000000	0.523600
245.000000	0.528499
244.000000	0.529911
243.000000	0.538289
242.000000	0.533662
241.000000	0.522107
240.000000	0.518538
239.000000	0.508364
238.000000	0.489818
237.000000	0.462483
236.000000	0.446103
235.000000	0.429132
234.000000	0.411979
233.000000	0.394224
232.000000	0.363483
231.000000	0.341055
230.000000	0.314135
229.000000	0.289196
228.000000	0.266472
227.000000	0.231488
226.000000	0.223681
225.000000	0.211650
224.000000	0.189789
223.000000	0.169349
222.000000	0.153500
221.000000	0.154248
220.000000	0.152094
219.000000	0.154565
218.000000	0.144986
217.000000	0.146461
216.000000	0.141350
215.000000	0.133067
214.000000	0.132925
213.000000	0.119804
212.000000	0.108192
211.000000	0.110930
210.000000	0.102191
209.000000	0.104199
208.000000	0.099238
207.000000	0.095307
206.000000	0.113393
205.000000	0.161272
204.000000	0.188083
203.000000	0.174067
202.000000	0.154319
201.000000	0.155012
200.000000	0.157348
