PE UV       SUBTECH     SPECTRUM    ASCII       PEDS        4.00        
   -1
TDgVeauUK 52.Sample.asc
18/03/08
17:37:18.00
18/03/08
17:37:18.00
Administrator

200.000000
1
Lambda 750
750N8071901
PerkinElmer UV WinLab 6.0.4.0738 / 1.61.00 Lambda 900

0
0
3350/servo 860.8/2
0
0
UV/VIS
1
1
1
CommonBeamDepol,150mm sphere / downward view
0
0
0
0
Program
Program
3350/servo 860.8/2
3350/0.2 860.8/0.2
3350/0.2 860.8/0.2
0
1
 
 
 
0
 
860.8
319.2
860.8
Front
100
on
 
 
0
0
0
 
0
 
 
 
0
 
 
0
0
0
0
0
 
 
 
 
0
0


0
0
#HDR
-1
-1
#GR
nm
%T
1.0
0.0
2350.000000
-1.000000
2151
8
42.701760
0.071022
#DATA
2350.000000	7.804969
2349.000000	7.998121
2348.000000	7.773371
2347.000000	8.560725
2346.000000	8.324300
2345.000000	7.572872
2344.000000	7.468093
2343.000000	7.240047
2342.000000	7.638640
2341.000000	7.530071
2340.000000	7.768911
2339.000000	8.241439
2338.000000	8.273284
2337.000000	8.512046
2336.000000	8.225804
2335.000000	8.152305
2334.000000	8.431220
2333.000000	8.680899
2332.000000	8.503704
2331.000000	8.669679
2330.000000	8.329108
2329.000000	8.627925
2328.000000	8.690604
2327.000000	8.441064
2326.000000	8.477357
2325.000000	8.452006
2324.000000	8.351100
2323.000000	8.333308
2322.000000	8.239698
2321.000000	8.200853
2320.000000	7.971577
2319.000000	8.201504
2318.000000	8.163473
2317.000000	8.173109
2316.000000	8.142284
2315.000000	8.309752
2314.000000	7.744345
2313.000000	7.887643
2312.000000	7.794641
2311.000000	7.879754
2310.000000	7.734894
2309.000000	7.834537
2308.000000	7.680092
2307.000000	7.625393
2306.000000	7.501766
2305.000000	7.438700
2304.000000	7.647214
2303.000000	7.558537
2302.000000	7.436340
2301.000000	7.225336
2300.000000	7.068411
2299.000000	7.215784
2298.000000	7.065498
2297.000000	7.124489
2296.000000	7.149974
2295.000000	6.955041
2294.000000	6.922088
2293.000000	6.942434
2292.000000	6.811970
2291.000000	6.802687
2290.000000	6.715184
2289.000000	6.674516
2288.000000	6.581275
2287.000000	6.731040
2286.000000	6.606700
2285.000000	6.343791
2284.000000	6.368961
2283.000000	6.365923
2282.000000	6.496606
2281.000000	6.635333
2280.000000	6.611369
2279.000000	6.615561
2278.000000	6.581589
2277.000000	6.631844
2276.000000	6.620394
2275.000000	6.587072
2274.000000	6.871566
2273.000000	6.945417
2272.000000	6.811616
2271.000000	6.679894
2270.000000	6.718654
2269.000000	6.797957
2268.000000	6.747826
2267.000000	6.830939
2266.000000	6.940636
2265.000000	6.994614
2264.000000	7.072875
2263.000000	7.193192
2262.000000	7.207356
2261.000000	7.318553
2260.000000	7.374331
2259.000000	7.493851
2258.000000	7.769036
2257.000000	8.010081
2256.000000	8.006713
2255.000000	7.982708
2254.000000	8.239769
2253.000000	8.397550
2252.000000	8.580822
2251.000000	8.707192
2250.000000	8.804258
2249.000000	9.088969
2248.000000	9.206297
2247.000000	9.357279
2246.000000	9.558275
2245.000000	9.548729
2244.000000	9.687420
2243.000000	9.968786
2242.000000	9.937913
2241.000000	9.957557
2240.000000	10.123117
2239.000000	10.272744
2238.000000	10.454807
2237.000000	10.477533
2236.000000	10.524043
2235.000000	10.581222
2234.000000	10.659237
2233.000000	10.607622
2232.000000	10.637690
2231.000000	10.689903
2230.000000	10.707384
2229.000000	10.936845
2228.000000	10.995609
2227.000000	10.734105
2226.000000	10.743057
2225.000000	10.840575
2224.000000	10.754167
2223.000000	10.642495
2222.000000	10.650398
2221.000000	10.803112
2220.000000	10.671525
2219.000000	10.583233
2218.000000	10.656639
2217.000000	10.650940
2216.000000	10.504845
2215.000000	10.599635
2214.000000	10.599093
2213.000000	10.524077
2212.000000	10.447727
2211.000000	10.426776
2210.000000	10.329847
2209.000000	10.150304
2208.000000	10.103476
2207.000000	10.225718
2206.000000	10.064056
2205.000000	10.089307
2204.000000	10.115205
2203.000000	9.955626
2202.000000	9.831841
2201.000000	9.809023
2200.000000	9.869863
2199.000000	9.894702
2198.000000	9.848854
2197.000000	9.657103
2196.000000	9.449316
2195.000000	9.441457
2194.000000	9.350348
2193.000000	9.234095
2192.000000	9.258933
2191.000000	9.292715
2190.000000	9.133439
2189.000000	9.038199
2188.000000	9.084720
2187.000000	9.085586
2186.000000	8.909267
2185.000000	8.867702
2184.000000	8.952043
2183.000000	8.977973
2182.000000	8.918144
2181.000000	8.694661
2180.000000	8.729379
2179.000000	8.724115
2178.000000	8.725448
2177.000000	8.834941
2176.000000	8.719954
2175.000000	8.758976
2174.000000	8.797827
2173.000000	8.956660
2172.000000	8.880358
2171.000000	8.800289
2170.000000	8.893284
2169.000000	8.932958
2168.000000	9.164207
2167.000000	9.089017
2166.000000	9.226544
2165.000000	9.068612
2164.000000	9.135291
2163.000000	9.312618
2162.000000	9.389123
2161.000000	9.401057
2160.000000	9.625967
2159.000000	9.669081
2158.000000	9.902690
2157.000000	9.886524
2156.000000	9.968375
2155.000000	10.029956
2154.000000	10.159229
2153.000000	10.305032
2152.000000	10.457365
2151.000000	10.563308
2150.000000	10.321377
2149.000000	10.594046
2148.000000	10.609469
2147.000000	10.735917
2146.000000	10.845202
2145.000000	11.171484
2144.000000	10.996111
2143.000000	11.165055
2142.000000	11.327632
2141.000000	11.360036
2140.000000	11.348498
2139.000000	11.531775
2138.000000	11.580301
2137.000000	11.654132
2136.000000	11.763612
2135.000000	11.783990
2134.000000	12.106790
2133.000000	11.937672
2132.000000	12.171566
2131.000000	12.233421
2130.000000	12.388468
2129.000000	12.057877
2128.000000	12.210547
2127.000000	12.245862
2126.000000	12.166624
2125.000000	12.256886
2124.000000	12.489968
2123.000000	12.467116
2122.000000	12.433665
2121.000000	12.524921
2120.000000	12.486031
2119.000000	12.688657
2118.000000	12.650549
2117.000000	12.579467
2116.000000	12.797377
2115.000000	12.785881
2114.000000	12.834379
2113.000000	12.721033
2112.000000	12.757340
2111.000000	12.812089
2110.000000	12.787537
2109.000000	12.840617
2108.000000	12.766795
2107.000000	12.943529
2106.000000	12.976292
2105.000000	12.913353
2104.000000	12.898318
2103.000000	12.949526
2102.000000	12.885037
2101.000000	13.015699
2100.000000	13.014828
2099.000000	12.872082
2098.000000	12.971392
2097.000000	12.952974
2096.000000	12.927519
2095.000000	12.950789
2094.000000	12.990228
2093.000000	12.904686
2092.000000	12.917743
2091.000000	12.821648
2090.000000	12.707400
2089.000000	12.820528
2088.000000	12.789446
2087.000000	12.785809
2086.000000	12.779658
2085.000000	12.708170
2084.000000	12.745475
2083.000000	12.607948
2082.000000	12.531537
2081.000000	12.524003
2080.000000	12.369586
2079.000000	12.415972
2078.000000	12.361691
2077.000000	12.224010
2076.000000	12.202469
2075.000000	12.123319
2074.000000	12.089583
2073.000000	12.027695
2072.000000	11.830947
2071.000000	11.837118
2070.000000	11.688621
2069.000000	11.518592
2068.000000	11.369290
2067.000000	11.332882
2066.000000	11.217442
2065.000000	11.110359
2064.000000	11.035404
2063.000000	10.873976
2062.000000	10.755136
2061.000000	10.629788
2060.000000	10.527442
2059.000000	10.447808
2058.000000	10.330118
2057.000000	10.180913
2056.000000	10.090362
2055.000000	10.009906
2054.000000	9.796107
2053.000000	9.696637
2052.000000	9.670935
2051.000000	9.583454
2050.000000	9.476153
2049.000000	9.394907
2048.000000	9.348416
2047.000000	9.338490
2046.000000	9.225108
2045.000000	9.145358
2044.000000	9.143090
2043.000000	9.167665
2042.000000	9.155347
2041.000000	9.146785
2040.000000	9.197792
2039.000000	9.237662
2038.000000	9.299501
2037.000000	9.292318
2036.000000	9.290121
2035.000000	9.386361
2034.000000	9.490290
2033.000000	9.536773
2032.000000	9.630559
2031.000000	9.723592
2030.000000	9.811619
2029.000000	9.878042
2028.000000	9.963939
2027.000000	10.057346
2026.000000	10.168579
2025.000000	10.226329
2024.000000	10.250903
2023.000000	10.307366
2022.000000	10.363208
2021.000000	10.418386
2020.000000	10.445268
2019.000000	10.462491
2018.000000	10.498022
2017.000000	10.529555
2016.000000	10.537998
2015.000000	10.493848
2014.000000	10.464654
2013.000000	10.474130
2012.000000	10.434676
2011.000000	10.409507
2010.000000	10.408997
2009.000000	10.366918
2008.000000	10.294043
2007.000000	10.200697
2006.000000	10.169021
2005.000000	10.110689
2004.000000	10.048057
2003.000000	10.012945
2002.000000	9.922666
2001.000000	9.831848
2000.000000	9.778454
1999.000000	9.692930
1998.000000	9.634117
1997.000000	9.558549
1996.000000	9.491503
1995.000000	9.422178
1994.000000	9.330304
1993.000000	9.263667
1992.000000	9.183266
1991.000000	9.077984
1990.000000	9.036507
1989.000000	8.982964
1988.000000	8.893270
1987.000000	8.799826
1986.000000	8.684348
1985.000000	8.631072
1984.000000	8.588717
1983.000000	8.530555
1982.000000	8.444744
1981.000000	8.354241
1980.000000	8.307606
1979.000000	8.213680
1978.000000	8.119176
1977.000000	8.066289
1976.000000	8.007989
1975.000000	7.956806
1974.000000	7.861084
1973.000000	7.805141
1972.000000	7.744794
1971.000000	7.675623
1970.000000	7.620879
1969.000000	7.583755
1968.000000	7.522670
1967.000000	7.461620
1966.000000	7.368433
1965.000000	7.354607
1964.000000	7.329304
1963.000000	7.208807
1962.000000	7.162790
1961.000000	7.093961
1960.000000	7.049116
1959.000000	7.018647
1958.000000	6.939308
1957.000000	6.887528
1956.000000	6.855047
1955.000000	6.842466
1954.000000	6.865112
1953.000000	6.783908
1952.000000	6.745979
1951.000000	6.749884
1950.000000	6.771806
1949.000000	6.664167
1948.000000	6.666917
1947.000000	6.664966
1946.000000	6.629048
1945.000000	6.657420
1944.000000	6.659539
1943.000000	6.723335
1942.000000	6.837397
1941.000000	6.793015
1940.000000	6.799317
1939.000000	6.881783
1938.000000	6.837741
1937.000000	6.904530
1936.000000	7.051885
1935.000000	7.100661
1934.000000	7.123652
1933.000000	7.241558
1932.000000	7.302320
1931.000000	7.342369
1930.000000	7.587409
1929.000000	7.635482
1928.000000	7.758292
1927.000000	7.909115
1926.000000	8.058395
1925.000000	8.327929
1924.000000	8.484723
1923.000000	8.557885
1922.000000	8.848577
1921.000000	9.099366
1920.000000	9.215197
1919.000000	9.398297
1918.000000	9.612966
1917.000000	9.918505
1916.000000	10.069911
1915.000000	10.348890
1914.000000	10.652055
1913.000000	10.978173
1912.000000	11.184021
1911.000000	11.553160
1910.000000	11.882180
1909.000000	12.168663
1908.000000	12.532264
1907.000000	12.918647
1906.000000	13.223059
1905.000000	13.667142
1904.000000	14.046283
1903.000000	14.524096
1902.000000	14.861333
1901.000000	15.345321
1900.000000	15.709459
1899.000000	16.235666
1898.000000	16.656271
1897.000000	17.056700
1896.000000	17.567425
1895.000000	18.096241
1894.000000	18.517727
1893.000000	19.007777
1892.000000	19.442417
1891.000000	19.917813
1890.000000	20.308442
1889.000000	20.708158
1888.000000	21.083112
1887.000000	21.553285
1886.000000	21.988126
1885.000000	22.400955
1884.000000	22.763545
1883.000000	23.201658
1882.000000	23.583097
1881.000000	23.912492
1880.000000	24.218266
1879.000000	24.510766
1878.000000	24.865687
1877.000000	25.194902
1876.000000	25.487154
1875.000000	25.768415
1874.000000	26.020230
1873.000000	26.262532
1872.000000	26.520177
1871.000000	26.762798
1870.000000	26.920591
1869.000000	27.086413
1868.000000	27.282340
1867.000000	27.422864
1866.000000	27.535908
1865.000000	27.642031
1864.000000	27.739993
1863.000000	27.879439
1862.000000	27.960522
1861.000000	28.007604
1860.000000	28.058017
1859.000000	28.158353
1858.000000	28.198701
1857.000000	28.232226
1856.000000	28.312208
1855.000000	28.321771
1854.000000	28.329494
1853.000000	28.403236
1852.000000	28.425133
1851.000000	28.423215
1850.000000	28.423517
1849.000000	28.436739
1848.000000	28.428906
1847.000000	28.417962
1846.000000	28.419092
1845.000000	28.387390
1844.000000	28.345945
1843.000000	28.309718
1842.000000	28.300421
1841.000000	28.288134
1840.000000	28.249665
1839.000000	28.210972
1838.000000	28.157881
1837.000000	28.086352
1836.000000	28.063954
1835.000000	28.016081
1834.000000	27.939908
1833.000000	27.851026
1832.000000	27.804344
1831.000000	27.752757
1830.000000	27.729637
1829.000000	27.680669
1828.000000	27.633366
1827.000000	27.587568
1826.000000	27.541288
1825.000000	27.487517
1824.000000	27.454845
1823.000000	27.419616
1822.000000	27.374292
1821.000000	27.304690
1820.000000	27.234428
1819.000000	27.190585
1818.000000	27.154011
1817.000000	27.102491
1816.000000	27.060239
1815.000000	27.025834
1814.000000	26.970926
1813.000000	26.914704
1812.000000	26.882993
1811.000000	26.853055
1810.000000	26.809886
1809.000000	26.767967
1808.000000	26.742364
1807.000000	26.695095
1806.000000	26.633967
1805.000000	26.584505
1804.000000	26.554890
1803.000000	26.516835
1802.000000	26.481289
1801.000000	26.463805
1800.000000	26.429635
1799.000000	26.393690
1798.000000	26.363243
1797.000000	26.345530
1796.000000	26.294702
1795.000000	26.244442
1794.000000	26.246363
1793.000000	26.239633
1792.000000	26.209794
1791.000000	26.183160
1790.000000	26.159962
1789.000000	26.119109
1788.000000	26.098160
1787.000000	26.085581
1786.000000	26.046524
1785.000000	26.008642
1784.000000	25.991513
1783.000000	25.962414
1782.000000	25.921770
1781.000000	25.876683
1780.000000	25.851935
1779.000000	25.810550
1778.000000	25.758264
1777.000000	25.692415
1776.000000	25.646119
1775.000000	25.590409
1774.000000	25.541781
1773.000000	25.485132
1772.000000	25.415004
1771.000000	25.362264
1770.000000	25.294800
1769.000000	25.207557
1768.000000	25.170096
1767.000000	25.114372
1766.000000	25.050223
1765.000000	24.989457
1764.000000	24.953149
1763.000000	24.883456
1762.000000	24.808543
1761.000000	24.747127
1760.000000	24.671517
1759.000000	24.616239
1758.000000	24.556236
1757.000000	24.486868
1756.000000	24.427808
1755.000000	24.377251
1754.000000	24.312773
1753.000000	24.260820
1752.000000	24.212345
1751.000000	24.167727
1750.000000	24.063442
1749.000000	24.012979
1748.000000	23.945718
1747.000000	23.888726
1746.000000	23.825482
1745.000000	23.757064
1744.000000	23.675203
1743.000000	23.626405
1742.000000	23.576451
1741.000000	23.523163
1740.000000	23.461620
1739.000000	23.411353
1738.000000	23.362239
1737.000000	23.316287
1736.000000	23.283166
1735.000000	23.291568
1734.000000	23.273404
1733.000000	23.252243
1732.000000	23.261249
1731.000000	23.266224
1730.000000	23.286138
1729.000000	23.293745
1728.000000	23.338139
1727.000000	23.403699
1726.000000	23.474248
1725.000000	23.526973
1724.000000	23.605955
1723.000000	23.701405
1722.000000	23.795657
1721.000000	23.903572
1720.000000	23.967445
1719.000000	24.089156
1718.000000	24.178902
1717.000000	24.285194
1716.000000	24.386981
1715.000000	24.474296
1714.000000	24.551364
1713.000000	24.648166
1712.000000	24.716357
1711.000000	24.756069
1710.000000	24.857715
1709.000000	24.901543
1708.000000	24.962900
1707.000000	25.019533
1706.000000	25.033188
1705.000000	25.083363
1704.000000	25.091336
1703.000000	25.101080
1702.000000	25.137057
1701.000000	25.133356
1700.000000	25.157071
1699.000000	25.188659
1698.000000	25.207410
1697.000000	25.238303
1696.000000	25.288846
1695.000000	25.291281
1694.000000	25.352180
1693.000000	25.395634
1692.000000	25.481989
1691.000000	25.533323
1690.000000	25.629567
1689.000000	25.729215
1688.000000	25.859112
1687.000000	25.970053
1686.000000	26.119498
1685.000000	26.255231
1684.000000	26.428194
1683.000000	26.591399
1682.000000	26.748585
1681.000000	26.957601
1680.000000	27.150883
1679.000000	27.339391
1678.000000	27.550379
1677.000000	27.735804
1676.000000	27.924487
1675.000000	28.149486
1674.000000	28.365013
1673.000000	28.559499
1672.000000	28.730801
1671.000000	28.903080
1670.000000	29.097441
1669.000000	29.276644
1668.000000	29.430070
1667.000000	29.611969
1666.000000	29.712501
1665.000000	29.806445
1664.000000	29.931228
1663.000000	30.004973
1662.000000	30.137158
1661.000000	30.215943
1660.000000	30.293672
1659.000000	30.355526
1658.000000	30.427415
1657.000000	30.473928
1656.000000	30.512893
1655.000000	30.561205
1654.000000	30.566743
1653.000000	30.596384
1652.000000	30.607065
1651.000000	30.603356
1650.000000	30.596039
1649.000000	30.581984
1648.000000	30.568363
1647.000000	30.558504
1646.000000	30.535628
1645.000000	30.499570
1644.000000	30.476074
1643.000000	30.447319
1642.000000	30.426636
1641.000000	30.399495
1640.000000	30.353610
1639.000000	30.308085
1638.000000	30.261281
1637.000000	30.227286
1636.000000	30.184714
1635.000000	30.132829
1634.000000	30.076970
1633.000000	30.022456
1632.000000	29.965622
1631.000000	29.914308
1630.000000	29.858723
1629.000000	29.813554
1628.000000	29.755712
1627.000000	29.698401
1626.000000	29.614893
1625.000000	29.563501
1624.000000	29.506000
1623.000000	29.437206
1622.000000	29.379898
1621.000000	29.305052
1620.000000	29.245014
1619.000000	29.174365
1618.000000	29.104015
1617.000000	29.031402
1616.000000	28.947904
1615.000000	28.891497
1614.000000	28.839791
1613.000000	28.763184
1612.000000	28.680508
1611.000000	28.606195
1610.000000	28.530322
1609.000000	28.446112
1608.000000	28.373495
1607.000000	28.291435
1606.000000	28.215275
1605.000000	28.139170
1604.000000	28.050748
1603.000000	27.962497
1602.000000	27.894095
1601.000000	27.824917
1600.000000	27.752061
1599.000000	27.671374
1598.000000	27.594645
1597.000000	27.528577
1596.000000	27.460090
1595.000000	27.380927
1594.000000	27.319233
1593.000000	27.261643
1592.000000	27.185067
1591.000000	27.111089
1590.000000	27.052167
1589.000000	26.981699
1588.000000	26.910102
1587.000000	26.857868
1586.000000	26.808942
1585.000000	26.750874
1584.000000	26.673756
1583.000000	26.615850
1582.000000	26.571966
1581.000000	26.514675
1580.000000	26.451275
1579.000000	26.393592
1578.000000	26.342170
1577.000000	26.290500
1576.000000	26.235479
1575.000000	26.173585
1574.000000	26.112678
1573.000000	26.058699
1572.000000	26.002309
1571.000000	25.942695
1570.000000	25.895678
1569.000000	25.837989
1568.000000	25.786188
1567.000000	25.738773
1566.000000	25.691696
1565.000000	25.651794
1564.000000	25.624774
1563.000000	25.595050
1562.000000	25.541230
1561.000000	25.507205
1560.000000	25.476711
1559.000000	25.457336
1558.000000	25.432924
1557.000000	25.386613
1556.000000	25.359883
1555.000000	25.332010
1554.000000	25.281612
1553.000000	25.241967
1552.000000	25.223788
1551.000000	25.171383
1550.000000	25.112308
1549.000000	25.078106
1548.000000	25.031785
1547.000000	24.965003
1546.000000	24.887689
1545.000000	24.807080
1544.000000	24.731826
1543.000000	24.657970
1542.000000	24.568495
1541.000000	24.470900
1540.000000	24.399554
1539.000000	24.307534
1538.000000	24.205835
1537.000000	24.098992
1536.000000	24.005166
1535.000000	23.907094
1534.000000	23.803224
1533.000000	23.714196
1532.000000	23.622698
1531.000000	23.522515
1530.000000	23.433961
1529.000000	23.337012
1528.000000	23.251689
1527.000000	23.174354
1526.000000	23.100822
1525.000000	23.030902
1524.000000	22.957648
1523.000000	22.899833
1522.000000	22.841370
1521.000000	22.789427
1520.000000	22.728027
1519.000000	22.679831
1518.000000	22.648834
1517.000000	22.601093
1516.000000	22.554669
1515.000000	22.524952
1514.000000	22.478577
1513.000000	22.443710
1512.000000	22.405091
1511.000000	22.382028
1510.000000	22.361595
1509.000000	22.316649
1508.000000	22.301358
1507.000000	22.297779
1506.000000	22.278518
1505.000000	22.249907
1504.000000	22.248100
1503.000000	22.243547
1502.000000	22.208620
1501.000000	22.227387
1500.000000	22.208327
1499.000000	22.223493
1498.000000	22.247140
1497.000000	22.233710
1496.000000	22.228522
1495.000000	22.245893
1494.000000	22.258544
1493.000000	22.264202
1492.000000	22.274958
1491.000000	22.315029
1490.000000	22.335512
1489.000000	22.357996
1488.000000	22.400659
1487.000000	22.440308
1486.000000	22.467235
1485.000000	22.507322
1484.000000	22.543941
1483.000000	22.614225
1482.000000	22.635236
1481.000000	22.728381
1480.000000	22.745756
1479.000000	22.788350
1478.000000	22.825937
1477.000000	22.866307
1476.000000	22.908412
1475.000000	22.967399
1474.000000	23.005586
1473.000000	23.048786
1472.000000	23.099662
1471.000000	23.132082
1470.000000	23.184214
1469.000000	23.224638
1468.000000	23.259965
1467.000000	23.321743
1466.000000	23.397077
1465.000000	23.426357
1464.000000	23.465488
1463.000000	23.519400
1462.000000	23.579505
1461.000000	23.617248
1460.000000	23.655200
1459.000000	23.735783
1458.000000	23.791705
1457.000000	23.846107
1456.000000	23.893829
1455.000000	23.940316
1454.000000	24.022990
1453.000000	24.095515
1452.000000	24.149946
1451.000000	24.210393
1450.000000	24.285828
1449.000000	24.371701
1448.000000	24.456936
1447.000000	24.524125
1446.000000	24.587903
1445.000000	24.667264
1444.000000	24.752325
1443.000000	24.849393
1442.000000	24.934946
1441.000000	25.050580
1440.000000	25.148250
1439.000000	25.238743
1438.000000	25.345364
1437.000000	25.466148
1436.000000	25.570822
1435.000000	25.689034
1434.000000	25.811558
1433.000000	25.929043
1432.000000	26.064189
1431.000000	26.205150
1430.000000	26.354227
1429.000000	26.503672
1428.000000	26.653120
1427.000000	26.818732
1426.000000	26.986507
1425.000000	27.159226
1424.000000	27.328782
1423.000000	27.533155
1422.000000	27.725333
1421.000000	27.892971
1420.000000	28.084399
1419.000000	28.301496
1418.000000	28.521212
1417.000000	28.732598
1416.000000	28.948881
1415.000000	29.185642
1414.000000	29.419226
1413.000000	29.638430
1412.000000	29.879783
1411.000000	30.136602
1410.000000	30.371005
1409.000000	30.613071
1408.000000	30.863368
1407.000000	31.115706
1406.000000	31.359716
1405.000000	31.584910
1404.000000	31.819351
1403.000000	32.069125
1402.000000	32.325101
1401.000000	32.572178
1400.000000	32.797629
1399.000000	33.023219
1398.000000	33.242885
1397.000000	33.448030
1396.000000	33.655818
1395.000000	33.875948
1394.000000	34.085554
1393.000000	34.284137
1392.000000	34.486289
1391.000000	34.686528
1390.000000	34.861669
1389.000000	35.038102
1388.000000	35.234544
1387.000000	35.426076
1386.000000	35.572433
1385.000000	35.716631
1384.000000	35.883809
1383.000000	36.023057
1382.000000	36.132115
1381.000000	36.260879
1380.000000	36.407307
1379.000000	36.521283
1378.000000	36.620456
1377.000000	36.723619
1376.000000	36.813684
1375.000000	36.888896
1374.000000	36.956235
1373.000000	37.053595
1372.000000	37.146550
1371.000000	37.223374
1370.000000	37.289146
1369.000000	37.357846
1368.000000	37.424250
1367.000000	37.488884
1366.000000	37.559816
1365.000000	37.627289
1364.000000	37.698917
1363.000000	37.780640
1362.000000	37.875428
1361.000000	37.958715
1360.000000	38.029653
1359.000000	38.112188
1358.000000	38.187126
1357.000000	38.270021
1356.000000	38.364644
1355.000000	38.457480
1354.000000	38.525726
1353.000000	38.601816
1352.000000	38.699952
1351.000000	38.795074
1350.000000	38.864171
1349.000000	38.921640
1348.000000	39.010676
1347.000000	39.102540
1346.000000	39.199506
1345.000000	39.265516
1344.000000	39.315621
1343.000000	39.401706
1342.000000	39.483914
1341.000000	39.558872
1340.000000	39.613398
1339.000000	39.679450
1338.000000	39.769897
1337.000000	39.833931
1336.000000	39.878218
1335.000000	39.943419
1334.000000	39.995312
1333.000000	40.063756
1332.000000	40.135702
1331.000000	40.176700
1330.000000	40.212374
1329.000000	40.265194
1328.000000	40.321600
1327.000000	40.331785
1326.000000	40.363107
1325.000000	40.417721
1324.000000	40.450600
1323.000000	40.467507
1322.000000	40.499383
1321.000000	40.546625
1320.000000	40.562066
1319.000000	40.593380
1318.000000	40.634974
1317.000000	40.633981
1316.000000	40.644133
1315.000000	40.683966
1314.000000	40.699633
1313.000000	40.704685
1312.000000	40.745553
1311.000000	40.756983
1310.000000	40.783960
1309.000000	40.829598
1308.000000	40.826270
1307.000000	40.815351
1306.000000	40.825842
1305.000000	40.854774
1304.000000	40.893545
1303.000000	40.896278
1302.000000	40.899106
1301.000000	40.892851
1300.000000	40.900323
1299.000000	40.905741
1298.000000	40.895570
1297.000000	40.889997
1296.000000	40.889326
1295.000000	40.891972
1294.000000	40.893249
1293.000000	40.897724
1292.000000	40.894833
1291.000000	40.871949
1290.000000	40.877456
1289.000000	40.861301
1288.000000	40.850427
1287.000000	40.840512
1286.000000	40.836917
1285.000000	40.816436
1284.000000	40.800271
1283.000000	40.810027
1282.000000	40.755461
1281.000000	40.754173
1280.000000	40.752151
1279.000000	40.746344
1278.000000	40.757083
1277.000000	40.748733
1276.000000	40.746126
1275.000000	40.750550
1274.000000	40.761501
1273.000000	40.724978
1272.000000	40.756980
1271.000000	40.734378
1270.000000	40.739208
1269.000000	40.753524
1268.000000	40.774519
1267.000000	40.773643
1266.000000	40.812366
1265.000000	40.804569
1264.000000	40.822610
1263.000000	40.804098
1262.000000	40.815338
1261.000000	40.807295
1260.000000	40.848566
1259.000000	40.854387
1258.000000	40.859881
1257.000000	40.871496
1256.000000	40.867341
1255.000000	40.876439
1254.000000	40.868239
1253.000000	40.871662
1252.000000	40.879255
1251.000000	40.889986
1250.000000	40.902728
1249.000000	40.886379
1248.000000	40.882024
1247.000000	40.845771
1246.000000	40.845795
1245.000000	40.782198
1244.000000	40.770163
1243.000000	40.733475
1242.000000	40.695725
1241.000000	40.690664
1240.000000	40.656722
1239.000000	40.600064
1238.000000	40.569007
1237.000000	40.517860
1236.000000	40.484576
1235.000000	40.454473
1234.000000	40.424157
1233.000000	40.396233
1232.000000	40.325123
1231.000000	40.312293
1230.000000	40.289960
1229.000000	40.266077
1228.000000	40.235899
1227.000000	40.186653
1226.000000	40.133800
1225.000000	40.112138
1224.000000	40.086656
1223.000000	40.061829
1222.000000	40.039410
1221.000000	39.997664
1220.000000	39.970759
1219.000000	39.928872
1218.000000	39.891126
1217.000000	39.853009
1216.000000	39.800417
1215.000000	39.780320
1214.000000	39.746257
1213.000000	39.682155
1212.000000	39.638879
1211.000000	39.608800
1210.000000	39.575797
1209.000000	39.506331
1208.000000	39.430418
1207.000000	39.387530
1206.000000	39.332148
1205.000000	39.265715
1204.000000	39.211504
1203.000000	39.173871
1202.000000	39.122807
1201.000000	39.048597
1200.000000	39.003665
1199.000000	38.967300
1198.000000	38.913042
1197.000000	38.868653
1196.000000	38.799517
1195.000000	38.755069
1194.000000	38.726407
1193.000000	38.684760
1192.000000	38.672970
1191.000000	38.660409
1190.000000	38.603762
1189.000000	38.539802
1188.000000	38.529306
1187.000000	38.531943
1186.000000	38.521334
1185.000000	38.514821
1184.000000	38.519133
1183.000000	38.538099
1182.000000	38.553146
1181.000000	38.587903
1180.000000	38.630074
1179.000000	38.681226
1178.000000	38.734031
1177.000000	38.796144
1176.000000	38.854938
1175.000000	38.915113
1174.000000	38.980995
1173.000000	39.061208
1172.000000	39.146182
1171.000000	39.216522
1170.000000	39.313845
1169.000000	39.414174
1168.000000	39.512351
1167.000000	39.616543
1166.000000	39.716788
1165.000000	39.818170
1164.000000	39.930682
1163.000000	40.040194
1162.000000	40.137509
1161.000000	40.233757
1160.000000	40.318229
1159.000000	40.403209
1158.000000	40.503922
1157.000000	40.618330
1156.000000	40.710022
1155.000000	40.796934
1154.000000	40.894587
1153.000000	40.982784
1152.000000	41.060958
1151.000000	41.143361
1150.000000	41.219239
1149.000000	41.285259
1148.000000	41.362725
1147.000000	41.436122
1146.000000	41.499088
1145.000000	41.560561
1144.000000	41.629849
1143.000000	41.694345
1142.000000	41.726937
1141.000000	41.765464
1140.000000	41.832318
1139.000000	41.900016
1138.000000	41.969858
1137.000000	42.041081
1136.000000	42.099410
1135.000000	42.160146
1134.000000	42.211675
1133.000000	42.257406
1132.000000	42.303683
1131.000000	42.347610
1130.000000	42.391374
1129.000000	42.433398
1128.000000	42.448825
1127.000000	42.457540
1126.000000	42.490769
1125.000000	42.520949
1124.000000	42.552992
1123.000000	42.576486
1122.000000	42.597868
1121.000000	42.618557
1120.000000	42.633110
1119.000000	42.639155
1118.000000	42.645728
1117.000000	42.653427
1116.000000	42.646974
1115.000000	42.664405
1114.000000	42.669437
1113.000000	42.677287
1112.000000	42.681803
1111.000000	42.695208
1110.000000	42.685986
1109.000000	42.692761
1108.000000	42.701760
1107.000000	42.693308
1106.000000	42.698152
1105.000000	42.689271
1104.000000	42.660448
1103.000000	42.656447
1102.000000	42.662889
1101.000000	42.660747
1100.000000	42.668968
1099.000000	42.677028
1098.000000	42.676455
1097.000000	42.692189
1096.000000	42.691890
1095.000000	42.652981
1094.000000	42.633481
1093.000000	42.631572
1092.000000	42.630671
1091.000000	42.644745
1090.000000	42.648099
1089.000000	42.648421
1088.000000	42.618355
1087.000000	42.612425
1086.000000	42.604598
1085.000000	42.599741
1084.000000	42.610009
1083.000000	42.598066
1082.000000	42.588528
1081.000000	42.554950
1080.000000	42.540433
1079.000000	42.541224
1078.000000	42.532859
1077.000000	42.528970
1076.000000	42.528373
1075.000000	42.510956
1074.000000	42.470281
1073.000000	42.454359
1072.000000	42.448728
1071.000000	42.434760
1070.000000	42.423783
1069.000000	42.431353
1068.000000	42.421408
1067.000000	42.367710
1066.000000	42.352648
1065.000000	42.371085
1064.000000	42.358174
1063.000000	42.357694
1062.000000	42.337325
1061.000000	42.319472
1060.000000	42.268575
1059.000000	42.252077
1058.000000	42.252211
1057.000000	42.239823
1056.000000	42.231175
1055.000000	42.186864
1054.000000	42.166705
1053.000000	42.158959
1052.000000	42.161740
1051.000000	42.157076
1050.000000	42.119757
1049.000000	42.098679
1048.000000	42.065000
1047.000000	42.087236
1046.000000	42.078952
1045.000000	42.039988
1044.000000	42.025466
1043.000000	42.019414
1042.000000	42.019043
1041.000000	41.982242
1040.000000	41.978843
1039.000000	41.971139
1038.000000	41.983536
1037.000000	41.940253
1036.000000	41.930436
1035.000000	41.928945
1034.000000	41.934216
1033.000000	41.902797
1032.000000	41.905696
1031.000000	41.907313
1030.000000	41.906671
1029.000000	41.875828
1028.000000	41.868553
1027.000000	41.871467
1026.000000	41.860705
1025.000000	41.847390
1024.000000	41.847798
1023.000000	41.827246
1022.000000	41.804186
1021.000000	41.823000
1020.000000	41.835223
1019.000000	41.814685
1018.000000	41.823257
1017.000000	41.818882
1016.000000	41.792209
1015.000000	41.795571
1014.000000	41.816458
1013.000000	41.822267
1012.000000	41.811204
1011.000000	41.791123
1010.000000	41.812528
1009.000000	41.828031
1008.000000	41.835078
1007.000000	41.828608
1006.000000	41.835431
1005.000000	41.836042
1004.000000	41.856100
1003.000000	41.856765
1002.000000	41.862250
1001.000000	41.865904
1000.000000	41.875558
999.000000	41.900958
998.000000	41.896902
997.000000	41.879343
996.000000	41.896375
995.000000	41.912613
994.000000	41.906331
993.000000	41.904840
992.000000	41.908010
991.000000	41.904539
990.000000	41.912363
989.000000	41.925660
988.000000	41.925929
987.000000	41.925547
986.000000	41.928999
985.000000	41.942309
984.000000	41.947137
983.000000	41.965667
982.000000	41.963023
981.000000	41.956141
980.000000	41.956814
979.000000	41.966413
978.000000	41.985115
977.000000	41.984009
976.000000	41.983133
975.000000	41.987510
974.000000	42.003275
973.000000	41.996902
972.000000	41.993770
971.000000	42.015927
970.000000	42.031983
969.000000	42.042468
968.000000	42.047414
967.000000	42.042544
966.000000	42.047645
965.000000	42.056295
964.000000	42.058973
963.000000	42.067404
962.000000	42.066727
961.000000	42.075816
960.000000	42.088712
959.000000	42.097512
958.000000	42.100881
957.000000	42.104435
956.000000	42.116088
955.000000	42.121442
954.000000	42.134376
953.000000	42.150359
952.000000	42.135802
951.000000	42.131409
950.000000	42.135677
949.000000	42.148655
948.000000	42.165402
947.000000	42.159774
946.000000	42.167633
945.000000	42.156570
944.000000	42.152787
943.000000	42.152080
942.000000	42.137265
941.000000	42.154924
940.000000	42.157637
939.000000	42.163653
938.000000	42.173284
937.000000	42.160329
936.000000	42.136924
935.000000	42.108154
934.000000	42.116079
933.000000	42.111403
932.000000	42.092390
931.000000	42.096855
930.000000	42.083791
929.000000	42.073557
928.000000	42.045314
927.000000	42.029240
926.000000	42.050883
925.000000	42.081775
924.000000	42.060420
923.000000	42.040714
922.000000	42.022323
921.000000	42.010240
920.000000	41.996428
919.000000	42.006430
918.000000	41.980775
917.000000	41.957378
916.000000	41.961016
915.000000	41.964562
914.000000	41.976579
913.000000	41.978634
912.000000	41.968655
911.000000	41.957366
910.000000	41.931042
909.000000	41.917840
908.000000	41.928345
907.000000	41.930644
906.000000	41.959951
905.000000	41.982603
904.000000	41.953571
903.000000	41.943923
902.000000	41.904696
901.000000	41.928123
900.000000	41.917552
899.000000	41.918879
898.000000	41.932087
897.000000	41.946721
896.000000	41.910556
895.000000	41.950657
894.000000	41.951234
893.000000	41.920075
892.000000	41.936674
891.000000	41.946273
890.000000	41.960186
889.000000	41.932611
888.000000	41.932915
887.000000	41.996928
886.000000	42.005008
885.000000	41.942222
884.000000	41.949652
883.000000	41.911908
882.000000	41.958230
881.000000	41.929338
880.000000	41.969844
879.000000	41.952810
878.000000	41.972883
877.000000	41.961096
876.000000	41.939432
875.000000	41.909470
874.000000	41.985382
873.000000	41.912903
872.000000	41.894348
871.000000	41.879221
870.000000	41.911384
869.000000	41.988650
868.000000	41.781172
867.000000	41.820999
866.000000	41.933752
865.000000	41.952839
864.000000	41.871998
863.000000	41.889441
862.000000	41.869790
861.000000	41.728077
860.000000	41.723291
859.000000	41.540399
858.000000	41.595712
857.000000	41.823099
856.000000	41.598286
855.000000	41.501131
854.000000	41.626026
853.000000	41.317621
852.000000	41.496067
851.000000	41.664792
850.000000	41.425418
849.000000	41.674624
848.000000	41.391151
847.000000	41.415112
846.000000	41.541246
845.000000	41.577454
844.000000	41.482031
843.000000	41.336457
842.000000	41.537714
841.000000	41.423333
840.000000	41.468306
839.000000	41.277277
838.000000	41.284274
837.000000	41.437796
836.000000	41.444641
835.000000	41.309375
834.000000	41.196516
833.000000	41.230303
832.000000	41.179047
831.000000	41.193888
830.000000	41.265185
829.000000	41.242233
828.000000	41.158905
827.000000	41.097355
826.000000	41.191902
825.000000	41.170368
824.000000	41.259389
823.000000	41.074839
822.000000	41.058593
821.000000	41.102684
820.000000	41.136244
819.000000	41.021431
818.000000	40.911601
817.000000	41.080585
816.000000	40.925579
815.000000	40.956555
814.000000	41.030420
813.000000	40.969479
812.000000	41.019858
811.000000	40.948129
810.000000	40.931624
809.000000	40.898157
808.000000	40.940490
807.000000	40.742544
806.000000	40.844997
805.000000	40.908815
804.000000	40.855574
803.000000	40.818547
802.000000	40.800047
801.000000	40.818364
800.000000	40.777164
799.000000	40.769486
798.000000	40.778303
797.000000	40.770235
796.000000	40.685193
795.000000	40.787809
794.000000	40.710902
793.000000	40.664143
792.000000	40.718852
791.000000	40.601512
790.000000	40.639118
789.000000	40.628174
788.000000	40.548047
787.000000	40.578389
786.000000	40.588631
785.000000	40.583516
784.000000	40.518868
783.000000	40.490338
782.000000	40.502566
781.000000	40.510084
780.000000	40.510246
779.000000	40.489337
778.000000	40.441016
777.000000	40.394243
776.000000	40.363732
775.000000	40.397834
774.000000	40.299130
773.000000	40.250078
772.000000	40.350209
771.000000	40.251999
770.000000	40.295327
769.000000	40.256907
768.000000	40.262381
767.000000	40.254346
766.000000	40.176272
765.000000	40.165947
764.000000	40.149506
763.000000	40.126158
762.000000	40.127654
761.000000	40.087996
760.000000	39.994159
759.000000	40.033161
758.000000	40.038369
757.000000	39.958514
756.000000	40.010631
755.000000	39.971746
754.000000	39.949964
753.000000	39.947467
752.000000	39.859014
751.000000	39.880776
750.000000	39.774724
749.000000	39.716784
748.000000	39.777282
747.000000	39.674459
746.000000	39.666894
745.000000	39.715777
744.000000	39.627164
743.000000	39.589851
742.000000	39.611069
741.000000	39.579991
740.000000	39.549182
739.000000	39.584986
738.000000	39.498095
737.000000	39.481489
736.000000	39.470118
735.000000	39.427144
734.000000	39.357712
733.000000	39.327281
732.000000	39.326447
731.000000	39.311496
730.000000	39.308499
729.000000	39.271905
728.000000	39.190654
727.000000	39.201945
726.000000	39.181324
725.000000	39.162083
724.000000	39.113876
723.000000	39.090134
722.000000	39.053703
721.000000	39.038530
720.000000	39.005997
719.000000	38.938942
718.000000	38.900617
717.000000	38.879588
716.000000	38.886278
715.000000	38.852738
714.000000	38.769549
713.000000	38.721333
712.000000	38.709372
711.000000	38.669866
710.000000	38.630865
709.000000	38.607870
708.000000	38.573680
707.000000	38.557386
706.000000	38.491330
705.000000	38.455533
704.000000	38.456506
703.000000	38.416252
702.000000	38.378342
701.000000	38.333466
700.000000	38.297487
699.000000	38.232423
698.000000	38.194962
697.000000	38.196377
696.000000	38.188524
695.000000	38.095286
694.000000	38.017941
693.000000	37.992819
692.000000	37.928599
691.000000	37.874984
690.000000	37.846312
689.000000	37.814783
688.000000	37.728821
687.000000	37.656932
686.000000	37.615277
685.000000	37.608235
684.000000	37.548097
683.000000	37.489237
682.000000	37.462866
681.000000	37.411297
680.000000	37.354814
679.000000	37.300237
678.000000	37.234262
677.000000	37.201697
676.000000	37.171378
675.000000	37.111716
674.000000	37.023066
673.000000	37.001101
672.000000	36.956358
671.000000	36.893506
670.000000	36.822853
669.000000	36.762568
668.000000	36.718565
667.000000	36.682088
666.000000	36.622144
665.000000	36.580789
664.000000	36.501810
663.000000	36.460227
662.000000	36.417907
661.000000	36.353714
660.000000	36.305639
659.000000	36.219082
658.000000	36.131750
657.000000	36.077788
656.000000	36.044536
655.000000	35.988812
654.000000	35.919679
653.000000	35.847732
652.000000	35.779107
651.000000	35.713436
650.000000	35.651848
649.000000	35.586279
648.000000	35.542299
647.000000	35.498882
646.000000	35.412410
645.000000	35.334057
644.000000	35.248808
643.000000	35.218203
642.000000	35.118575
641.000000	35.040383
640.000000	34.926812
639.000000	34.949894
638.000000	34.886204
637.000000	34.786617
636.000000	34.730712
635.000000	34.684563
634.000000	34.600761
633.000000	34.500286
632.000000	34.437545
631.000000	34.373517
630.000000	34.289364
629.000000	34.246566
628.000000	34.163395
627.000000	34.056614
626.000000	34.010782
625.000000	33.951477
624.000000	33.902773
623.000000	33.825538
622.000000	33.749981
621.000000	33.692601
620.000000	33.596945
619.000000	33.561667
618.000000	33.496354
617.000000	33.449078
616.000000	33.365466
615.000000	33.259152
614.000000	33.227255
613.000000	33.141375
612.000000	33.123789
611.000000	33.039902
610.000000	32.929215
609.000000	32.906731
608.000000	32.796627
607.000000	32.813398
606.000000	32.687679
605.000000	32.650995
604.000000	32.567089
603.000000	32.514655
602.000000	32.459893
601.000000	32.403691
600.000000	32.310046
599.000000	32.261506
598.000000	32.176645
597.000000	32.123827
596.000000	32.086927
595.000000	31.967572
594.000000	31.928058
593.000000	31.898231
592.000000	31.825197
591.000000	31.778269
590.000000	31.665168
589.000000	31.603222
588.000000	31.558269
587.000000	31.476343
586.000000	31.393980
585.000000	31.390924
584.000000	31.276311
583.000000	31.201135
582.000000	31.177302
581.000000	31.083203
580.000000	31.020058
579.000000	30.969406
578.000000	30.891610
577.000000	30.815771
576.000000	30.751117
575.000000	30.691001
574.000000	30.577065
573.000000	30.560736
572.000000	30.461091
571.000000	30.409291
570.000000	30.357427
569.000000	30.299943
568.000000	30.216718
567.000000	30.169772
566.000000	30.086015
565.000000	30.035497
564.000000	29.972550
563.000000	29.879938
562.000000	29.829902
561.000000	29.781915
560.000000	29.703871
559.000000	29.679579
558.000000	29.590250
557.000000	29.534405
556.000000	29.456141
555.000000	29.395465
554.000000	29.299773
553.000000	29.234836
552.000000	29.177729
551.000000	29.092981
550.000000	29.024878
549.000000	28.944091
548.000000	28.840141
547.000000	28.787413
546.000000	28.697842
545.000000	28.632543
544.000000	28.555293
543.000000	28.497366
542.000000	28.406064
541.000000	28.333941
540.000000	28.279497
539.000000	28.178019
538.000000	28.116743
537.000000	28.040624
536.000000	27.945211
535.000000	27.893561
534.000000	27.811778
533.000000	27.748956
532.000000	27.671183
531.000000	27.586705
530.000000	27.490698
529.000000	27.457117
528.000000	27.367370
527.000000	27.308500
526.000000	27.251086
525.000000	27.162667
524.000000	27.078434
523.000000	27.018039
522.000000	26.935726
521.000000	26.858525
520.000000	26.764981
519.000000	26.687987
518.000000	26.604737
517.000000	26.535479
516.000000	26.468088
515.000000	26.406662
514.000000	26.306795
513.000000	26.214126
512.000000	26.135043
511.000000	26.036089
510.000000	25.951968
509.000000	25.885356
508.000000	25.789721
507.000000	25.696401
506.000000	25.583260
505.000000	25.489363
504.000000	25.410597
503.000000	25.295671
502.000000	25.198441
501.000000	25.103332
500.000000	24.978008
499.000000	24.893995
498.000000	24.776070
497.000000	24.673267
496.000000	24.569704
495.000000	24.438673
494.000000	24.313506
493.000000	24.211659
492.000000	24.086081
491.000000	23.956027
490.000000	23.839252
489.000000	23.722278
488.000000	23.601948
487.000000	23.483039
486.000000	23.329564
485.000000	23.198441
484.000000	23.094099
483.000000	22.972773
482.000000	22.849034
481.000000	22.732449
480.000000	22.612550
479.000000	22.460156
478.000000	22.291284
477.000000	22.150605
476.000000	22.018182
475.000000	21.865862
474.000000	21.736451
473.000000	21.603844
472.000000	21.462868
471.000000	21.307166
470.000000	21.143424
469.000000	20.979358
468.000000	20.825153
467.000000	20.675919
466.000000	20.513099
465.000000	20.341698
464.000000	20.190158
463.000000	20.037246
462.000000	19.853572
461.000000	19.686051
460.000000	19.524709
459.000000	19.354524
458.000000	19.183386
457.000000	19.013711
456.000000	18.832503
455.000000	18.655590
454.000000	18.484653
453.000000	18.296465
452.000000	18.109994
451.000000	17.927947
450.000000	17.755785
449.000000	17.574689
448.000000	17.379921
447.000000	17.196774
446.000000	17.016386
445.000000	16.823513
444.000000	16.627943
443.000000	16.420655
442.000000	16.226011
441.000000	16.027513
440.000000	15.842701
439.000000	15.655868
438.000000	15.451069
437.000000	15.251573
436.000000	15.037379
435.000000	14.828524
434.000000	14.629516
433.000000	14.429981
432.000000	14.230718
431.000000	14.020168
430.000000	13.817183
429.000000	13.612860
428.000000	13.398539
427.000000	13.194637
426.000000	12.981524
425.000000	12.778772
424.000000	12.583224
423.000000	12.373938
422.000000	12.186099
421.000000	11.975859
420.000000	11.768419
419.000000	11.598355
418.000000	11.413017
417.000000	11.230026
416.000000	11.053550
415.000000	10.899043
414.000000	10.742470
413.000000	10.599134
412.000000	10.460592
411.000000	10.345956
410.000000	10.248059
409.000000	10.150828
408.000000	10.094690
407.000000	9.996559
406.000000	9.915866
405.000000	9.839474
404.000000	9.785689
403.000000	9.739576
402.000000	9.675462
401.000000	9.617176
400.000000	9.564791
399.000000	9.504064
398.000000	9.437208
397.000000	9.399950
396.000000	9.333011
395.000000	9.264593
394.000000	9.197357
393.000000	9.136460
392.000000	9.072661
391.000000	8.988289
390.000000	8.929954
389.000000	8.871144
388.000000	8.786930
387.000000	8.706750
386.000000	8.633992
385.000000	8.560622
384.000000	8.479989
383.000000	8.403914
382.000000	8.306911
381.000000	8.213202
380.000000	8.129289
379.000000	8.011473
378.000000	7.895877
377.000000	7.825989
376.000000	7.723373
375.000000	7.649332
374.000000	7.518735
373.000000	7.438441
372.000000	7.291974
371.000000	7.198618
370.000000	7.091677
369.000000	6.991007
368.000000	6.868439
367.000000	6.799593
366.000000	6.709756
365.000000	6.556095
364.000000	6.479823
363.000000	6.410936
362.000000	6.302032
361.000000	6.241873
360.000000	6.099969
359.000000	5.995266
358.000000	5.918475
357.000000	5.830786
356.000000	5.678372
355.000000	5.651940
354.000000	5.558761
353.000000	5.483787
352.000000	5.361704
351.000000	5.290022
350.000000	5.219354
349.000000	5.155748
348.000000	5.027285
347.000000	4.992787
346.000000	4.860040
345.000000	4.788461
344.000000	4.750219
343.000000	4.621241
342.000000	4.572677
341.000000	4.474403
340.000000	4.403735
339.000000	4.373281
338.000000	4.299562
337.000000	4.233359
336.000000	4.148223
335.000000	4.048832
334.000000	3.985710
333.000000	3.960877
332.000000	3.909756
331.000000	3.865596
330.000000	3.753540
329.000000	3.723558
328.000000	3.655487
327.000000	3.567097
326.000000	3.517143
325.000000	3.484982
324.000000	3.408981
323.000000	3.377100
322.000000	3.311572
321.000000	3.238118
320.000000	3.186993
319.000000	3.142787
318.000000	3.065911
317.000000	3.047249
316.000000	3.000672
315.000000	2.943749
314.000000	2.896237
313.000000	2.840229
312.000000	2.746216
311.000000	2.721747
310.000000	2.661421
309.000000	2.593548
308.000000	2.525681
307.000000	2.437650
306.000000	2.381010
305.000000	2.317234
304.000000	2.267584
303.000000	2.223931
302.000000	2.114683
301.000000	2.050471
300.000000	1.969378
299.000000	1.902274
298.000000	1.830522
297.000000	1.741565
296.000000	1.620363
295.000000	1.507659
294.000000	1.392192
293.000000	1.303638
292.000000	1.165932
291.000000	1.071980
290.000000	0.988823
289.000000	0.914725
288.000000	0.865041
287.000000	0.828718
286.000000	0.818280
285.000000	0.820857
284.000000	0.829076
283.000000	0.825569
282.000000	0.840161
281.000000	0.839386
280.000000	0.856741
279.000000	0.869532
278.000000	0.888814
277.000000	0.896738
276.000000	0.915401
275.000000	0.942295
274.000000	0.969183
273.000000	0.985688
272.000000	1.015177
271.000000	1.024565
270.000000	1.030684
269.000000	1.042891
268.000000	1.070946
267.000000	1.098400
266.000000	1.125198
265.000000	1.155337
264.000000	1.172779
263.000000	1.200799
262.000000	1.220688
261.000000	1.249021
260.000000	1.284545
259.000000	1.307882
258.000000	1.333479
257.000000	1.371651
256.000000	1.406618
255.000000	1.403348
254.000000	1.392549
253.000000	1.367728
252.000000	1.355655
251.000000	1.314007
250.000000	1.273108
249.000000	1.217856
248.000000	1.139059
247.000000	1.066423
246.000000	0.980165
245.000000	0.890303
244.000000	0.798175
243.000000	0.703876
242.000000	0.624783
241.000000	0.552429
240.000000	0.487405
239.000000	0.437017
238.000000	0.405070
237.000000	0.378595
236.000000	0.350674
235.000000	0.321405
234.000000	0.301311
233.000000	0.293946
232.000000	0.283485
231.000000	0.264349
230.000000	0.235680
229.000000	0.204630
228.000000	0.194597
227.000000	0.184498
226.000000	0.166397
225.000000	0.153459
224.000000	0.143026
223.000000	0.124850
222.000000	0.116499
221.000000	0.116749
220.000000	0.105805
219.000000	0.099799
218.000000	0.098659
217.000000	0.103568
216.000000	0.100562
215.000000	0.090016
214.000000	0.092294
213.000000	0.102705
212.000000	0.103749
211.000000	0.072210
210.000000	0.071022
209.000000	0.086218
208.000000	0.076501
207.000000	0.083366
206.000000	0.081222
205.000000	0.080465
204.000000	0.092379
203.000000	0.073189
202.000000	0.093031
201.000000	0.112799
200.000000	0.107372
