PE UV       SUBTECH     SPECTRUM    ASCII       PEDS        4.00        
   -1
TDgVeauAl 32.Sample.asc
18/03/08
18:17:48.00
18/03/08
18:17:48.00
Administrator

200.000000
1
Lambda 750
750N8071901
PerkinElmer UV WinLab 6.0.4.0738 / 1.61.00 Lambda 900

0
0
3350/servo 860.8/2
0
0
UV/VIS
1
1
1
CommonBeamDepol,150mm sphere / downward view
0
0
0
0
Program
Program
3350/servo 860.8/2
3350/0.2 860.8/0.2
3350/0.2 860.8/0.2
0
1
 
 
 
0
 
860.8
319.2
860.8
Front
100
on
 
 
0
0
0
 
0
 
 
 
0
 
 
0
0
0
0
0
 
 
 
 
0
0


0
0
#HDR
-1
-1
#GR
nm
%T
1.0
0.0
2350.000000
-1.000000
2151
8
40.465013
0.121982
#DATA
2350.000000	12.973513
2349.000000	12.836782
2348.000000	12.679674
2347.000000	13.218423
2346.000000	12.826484
2345.000000	12.533041
2344.000000	12.405068
2343.000000	12.561649
2342.000000	12.652706
2341.000000	12.671680
2340.000000	13.128617
2339.000000	13.223131
2338.000000	13.093622
2337.000000	13.058686
2336.000000	13.256714
2335.000000	13.069147
2334.000000	13.198329
2333.000000	13.357002
2332.000000	13.613868
2331.000000	13.507529
2330.000000	13.132056
2329.000000	13.257091
2328.000000	13.154746
2327.000000	13.341581
2326.000000	13.420074
2325.000000	13.427067
2324.000000	13.343105
2323.000000	13.131533
2322.000000	12.707312
2321.000000	12.833517
2320.000000	13.020713
2319.000000	13.050999
2318.000000	13.191610
2317.000000	13.090895
2316.000000	12.975704
2315.000000	12.899147
2314.000000	12.724566
2313.000000	12.815665
2312.000000	12.942646
2311.000000	12.711480
2310.000000	12.499054
2309.000000	12.502981
2308.000000	12.500013
2307.000000	12.369492
2306.000000	12.461601
2305.000000	12.331385
2304.000000	12.269182
2303.000000	12.292205
2302.000000	12.231013
2301.000000	11.984562
2300.000000	12.177620
2299.000000	11.926996
2298.000000	11.839609
2297.000000	11.606949
2296.000000	11.830763
2295.000000	11.619086
2294.000000	11.656341
2293.000000	11.795543
2292.000000	11.604343
2291.000000	11.448226
2290.000000	11.451106
2289.000000	11.418457
2288.000000	11.449570
2287.000000	11.530465
2286.000000	11.323402
2285.000000	11.279915
2284.000000	11.245018
2283.000000	11.419814
2282.000000	11.385126
2281.000000	11.371448
2280.000000	11.328021
2279.000000	11.253179
2278.000000	11.076571
2277.000000	11.359121
2276.000000	11.496249
2275.000000	11.329129
2274.000000	11.363430
2273.000000	11.501604
2272.000000	11.511136
2271.000000	11.481166
2270.000000	11.386150
2269.000000	11.425472
2268.000000	11.459527
2267.000000	11.624094
2266.000000	11.727021
2265.000000	11.721747
2264.000000	11.866800
2263.000000	11.947409
2262.000000	11.980197
2261.000000	12.154955
2260.000000	12.334996
2259.000000	12.465393
2258.000000	12.663811
2257.000000	12.835742
2256.000000	12.846730
2255.000000	12.964661
2254.000000	13.098974
2253.000000	13.189116
2252.000000	13.266633
2251.000000	13.476616
2250.000000	13.734036
2249.000000	13.966369
2248.000000	14.075409
2247.000000	14.198520
2246.000000	14.266430
2245.000000	14.450156
2244.000000	14.596080
2243.000000	14.738968
2242.000000	14.850014
2241.000000	14.878338
2240.000000	15.058613
2239.000000	15.133884
2238.000000	15.184216
2237.000000	15.310198
2236.000000	15.420944
2235.000000	15.571223
2234.000000	15.586851
2233.000000	15.604834
2232.000000	15.599373
2231.000000	15.548315
2230.000000	15.603703
2229.000000	15.748527
2228.000000	15.897602
2227.000000	15.905908
2226.000000	15.864400
2225.000000	15.805061
2224.000000	15.668028
2223.000000	15.603215
2222.000000	15.617878
2221.000000	15.619074
2220.000000	15.625512
2219.000000	15.580554
2218.000000	15.491752
2217.000000	15.452542
2216.000000	15.578845
2215.000000	15.584195
2214.000000	15.524459
2213.000000	15.474313
2212.000000	15.500852
2211.000000	15.386980
2210.000000	15.211907
2209.000000	15.184101
2208.000000	14.979571
2207.000000	14.973655
2206.000000	15.025051
2205.000000	15.107825
2204.000000	14.975794
2203.000000	14.866671
2202.000000	14.781460
2201.000000	14.872253
2200.000000	14.791105
2199.000000	14.537103
2198.000000	14.625752
2197.000000	14.643230
2196.000000	14.468006
2195.000000	14.393187
2194.000000	14.342357
2193.000000	14.245358
2192.000000	14.192427
2191.000000	14.201084
2190.000000	14.005494
2189.000000	13.881007
2188.000000	13.927651
2187.000000	13.860794
2186.000000	13.755354
2185.000000	13.767773
2184.000000	13.843288
2183.000000	13.942507
2182.000000	13.764628
2181.000000	13.685827
2180.000000	13.534316
2179.000000	13.538488
2178.000000	13.523841
2177.000000	13.546143
2176.000000	13.666960
2175.000000	13.769882
2174.000000	13.771876
2173.000000	13.649937
2172.000000	13.689383
2171.000000	13.908316
2170.000000	13.946632
2169.000000	14.035550
2168.000000	14.165063
2167.000000	13.896152
2166.000000	13.982571
2165.000000	14.079500
2164.000000	14.015895
2163.000000	13.926138
2162.000000	14.177898
2161.000000	14.403785
2160.000000	14.479760
2159.000000	14.591244
2158.000000	14.692137
2157.000000	14.820848
2156.000000	14.996872
2155.000000	14.943860
2154.000000	14.969227
2153.000000	15.115075
2152.000000	15.247904
2151.000000	15.361631
2150.000000	15.476839
2149.000000	15.459485
2148.000000	15.710601
2147.000000	15.620795
2146.000000	15.771042
2145.000000	15.994466
2144.000000	16.071147
2143.000000	16.211604
2142.000000	16.459782
2141.000000	16.407601
2140.000000	16.387096
2139.000000	16.593910
2138.000000	16.686841
2137.000000	16.772912
2136.000000	16.824358
2135.000000	17.002336
2134.000000	17.065042
2133.000000	16.737064
2132.000000	16.984903
2131.000000	17.327322
2130.000000	17.358163
2129.000000	17.203374
2128.000000	17.276046
2127.000000	17.261875
2126.000000	17.285559
2125.000000	17.320957
2124.000000	17.377377
2123.000000	17.422349
2122.000000	17.485818
2121.000000	17.536279
2120.000000	17.501688
2119.000000	17.680274
2118.000000	17.629671
2117.000000	17.787679
2116.000000	17.748163
2115.000000	17.665530
2114.000000	17.821707
2113.000000	17.790061
2112.000000	17.755859
2111.000000	17.839624
2110.000000	17.734963
2109.000000	17.755079
2108.000000	17.770607
2107.000000	17.818469
2106.000000	17.766224
2105.000000	17.834613
2104.000000	17.940079
2103.000000	17.926701
2102.000000	17.842052
2101.000000	17.960324
2100.000000	18.073979
2099.000000	17.998012
2098.000000	18.016035
2097.000000	18.056177
2096.000000	18.074792
2095.000000	17.903041
2094.000000	17.984763
2093.000000	17.952978
2092.000000	17.898878
2091.000000	17.934942
2090.000000	17.933323
2089.000000	17.946765
2088.000000	17.787139
2087.000000	17.804086
2086.000000	17.865365
2085.000000	17.880813
2084.000000	17.814678
2083.000000	17.745962
2082.000000	17.691190
2081.000000	17.595267
2080.000000	17.541577
2079.000000	17.507015
2078.000000	17.414410
2077.000000	17.323142
2076.000000	17.296304
2075.000000	17.231375
2074.000000	17.192199
2073.000000	17.079130
2072.000000	16.974337
2071.000000	16.856726
2070.000000	16.803263
2069.000000	16.633188
2068.000000	16.584256
2067.000000	16.516953
2066.000000	16.377443
2065.000000	16.276712
2064.000000	16.053903
2063.000000	16.020076
2062.000000	15.894830
2061.000000	15.677605
2060.000000	15.602106
2059.000000	15.501323
2058.000000	15.353238
2057.000000	15.244280
2056.000000	15.179093
2055.000000	15.115533
2054.000000	14.960828
2053.000000	14.746868
2052.000000	14.692617
2051.000000	14.598347
2050.000000	14.535574
2049.000000	14.431184
2048.000000	14.364183
2047.000000	14.342224
2046.000000	14.280964
2045.000000	14.236452
2044.000000	14.248828
2043.000000	14.193149
2042.000000	14.150211
2041.000000	14.248814
2040.000000	14.293684
2039.000000	14.283187
2038.000000	14.373216
2037.000000	14.405272
2036.000000	14.459915
2035.000000	14.509062
2034.000000	14.558281
2033.000000	14.654268
2032.000000	14.722126
2031.000000	14.810242
2030.000000	14.926960
2029.000000	15.020815
2028.000000	15.112013
2027.000000	15.170492
2026.000000	15.286350
2025.000000	15.430776
2024.000000	15.511443
2023.000000	15.570406
2022.000000	15.598945
2021.000000	15.654184
2020.000000	15.725067
2019.000000	15.767707
2018.000000	15.800670
2017.000000	15.835632
2016.000000	15.895813
2015.000000	15.889603
2014.000000	15.869635
2013.000000	15.846348
2012.000000	15.789980
2011.000000	15.805233
2010.000000	15.804043
2009.000000	15.718788
2008.000000	15.634906
2007.000000	15.570913
2006.000000	15.487325
2005.000000	15.460554
2004.000000	15.439929
2003.000000	15.351508
2002.000000	15.271174
2001.000000	15.191930
2000.000000	15.119008
1999.000000	15.062356
1998.000000	14.975754
1997.000000	14.904477
1996.000000	14.849000
1995.000000	14.757846
1994.000000	14.658504
1993.000000	14.584520
1992.000000	14.503927
1991.000000	14.424151
1990.000000	14.338201
1989.000000	14.254652
1988.000000	14.168293
1987.000000	14.093630
1986.000000	14.038769
1985.000000	13.931125
1984.000000	13.847740
1983.000000	13.787281
1982.000000	13.725244
1981.000000	13.621752
1980.000000	13.512064
1979.000000	13.465029
1978.000000	13.341891
1977.000000	13.279539
1976.000000	13.237189
1975.000000	13.153924
1974.000000	13.054749
1973.000000	13.005525
1972.000000	12.892774
1971.000000	12.832049
1970.000000	12.777596
1969.000000	12.743632
1968.000000	12.685418
1967.000000	12.581447
1966.000000	12.504852
1965.000000	12.422802
1964.000000	12.338145
1963.000000	12.266972
1962.000000	12.218162
1961.000000	12.181521
1960.000000	12.138032
1959.000000	12.028171
1958.000000	11.946817
1957.000000	11.911157
1956.000000	11.903461
1955.000000	11.811454
1954.000000	11.799686
1953.000000	11.743554
1952.000000	11.710315
1951.000000	11.711932
1950.000000	11.700993
1949.000000	11.608003
1948.000000	11.530822
1947.000000	11.552290
1946.000000	11.540272
1945.000000	11.568551
1944.000000	11.550261
1943.000000	11.555406
1942.000000	11.528572
1941.000000	11.472434
1940.000000	11.523252
1939.000000	11.565813
1938.000000	11.618913
1937.000000	11.722489
1936.000000	11.799819
1935.000000	11.880342
1934.000000	11.903549
1933.000000	12.063503
1932.000000	12.055521
1931.000000	12.241324
1930.000000	12.382613
1929.000000	12.555006
1928.000000	12.647284
1927.000000	12.696391
1926.000000	12.882213
1925.000000	13.081839
1924.000000	13.177314
1923.000000	13.451960
1922.000000	13.611073
1921.000000	13.898542
1920.000000	14.062945
1919.000000	14.234809
1918.000000	14.459790
1917.000000	14.782197
1916.000000	14.938529
1915.000000	15.349814
1914.000000	15.585804
1913.000000	15.825408
1912.000000	16.129140
1911.000000	16.390128
1910.000000	16.772312
1909.000000	17.061770
1908.000000	17.396229
1907.000000	17.757006
1906.000000	18.067575
1905.000000	18.408353
1904.000000	18.855188
1903.000000	19.271250
1902.000000	19.653429
1901.000000	20.082574
1900.000000	20.438784
1899.000000	20.867983
1898.000000	21.287120
1897.000000	21.747331
1896.000000	22.097181
1895.000000	22.540404
1894.000000	22.933534
1893.000000	23.362573
1892.000000	23.726158
1891.000000	24.088966
1890.000000	24.496667
1889.000000	24.824418
1888.000000	25.177754
1887.000000	25.612136
1886.000000	25.920792
1885.000000	26.296575
1884.000000	26.633030
1883.000000	26.938960
1882.000000	27.278545
1881.000000	27.560150
1880.000000	27.788125
1879.000000	28.061345
1878.000000	28.342880
1877.000000	28.635709
1876.000000	28.855867
1875.000000	29.061653
1874.000000	29.308591
1873.000000	29.477298
1872.000000	29.650834
1871.000000	29.796914
1870.000000	29.983233
1869.000000	30.090068
1868.000000	30.208136
1867.000000	30.304828
1866.000000	30.437265
1865.000000	30.536928
1864.000000	30.614945
1863.000000	30.648135
1862.000000	30.702735
1861.000000	30.769767
1860.000000	30.814750
1859.000000	30.850919
1858.000000	30.924792
1857.000000	30.994259
1856.000000	30.979946
1855.000000	31.000537
1854.000000	31.040151
1853.000000	31.097020
1852.000000	31.074886
1851.000000	31.069698
1850.000000	31.100542
1849.000000	31.115516
1848.000000	31.104544
1847.000000	31.113840
1846.000000	31.087857
1845.000000	31.072935
1844.000000	31.069094
1843.000000	31.050202
1842.000000	31.028497
1841.000000	31.022710
1840.000000	30.983051
1839.000000	30.947626
1838.000000	30.931199
1837.000000	30.906935
1836.000000	30.868864
1835.000000	30.785405
1834.000000	30.717846
1833.000000	30.694743
1832.000000	30.672330
1831.000000	30.613808
1830.000000	30.569652
1829.000000	30.521980
1828.000000	30.492999
1827.000000	30.473879
1826.000000	30.426309
1825.000000	30.402376
1824.000000	30.394899
1823.000000	30.330161
1822.000000	30.256553
1821.000000	30.224914
1820.000000	30.205939
1819.000000	30.184013
1818.000000	30.154430
1817.000000	30.113812
1816.000000	30.077352
1815.000000	30.063799
1814.000000	30.012577
1813.000000	29.968856
1812.000000	29.971862
1811.000000	29.960327
1810.000000	29.929711
1809.000000	29.883842
1808.000000	29.839269
1807.000000	29.791481
1806.000000	29.755287
1805.000000	29.743535
1804.000000	29.718116
1803.000000	29.681359
1802.000000	29.640770
1801.000000	29.601167
1800.000000	29.601410
1799.000000	29.588650
1798.000000	29.552901
1797.000000	29.535685
1796.000000	29.515559
1795.000000	29.507047
1794.000000	29.474252
1793.000000	29.439598
1792.000000	29.438648
1791.000000	29.436890
1790.000000	29.398488
1789.000000	29.379816
1788.000000	29.374208
1787.000000	29.353733
1786.000000	29.331876
1785.000000	29.295150
1784.000000	29.279033
1783.000000	29.246737
1782.000000	29.209637
1781.000000	29.176930
1780.000000	29.161649
1779.000000	29.135485
1778.000000	29.054499
1777.000000	28.989730
1776.000000	28.965176
1775.000000	28.913976
1774.000000	28.867491
1773.000000	28.843013
1772.000000	28.794655
1771.000000	28.729646
1770.000000	28.679195
1769.000000	28.646371
1768.000000	28.600999
1767.000000	28.539207
1766.000000	28.483711
1765.000000	28.438061
1764.000000	28.403407
1763.000000	28.336016
1762.000000	28.287062
1761.000000	28.243046
1760.000000	28.210083
1759.000000	28.165321
1758.000000	28.094280
1757.000000	28.054027
1756.000000	28.038948
1755.000000	27.981530
1754.000000	27.929594
1753.000000	27.888271
1752.000000	27.851814
1751.000000	27.793124
1750.000000	27.750284
1749.000000	27.733086
1748.000000	27.679576
1747.000000	27.616764
1746.000000	27.535554
1745.000000	27.460302
1744.000000	27.426383
1743.000000	27.372227
1742.000000	27.335430
1741.000000	27.299240
1740.000000	27.226907
1739.000000	27.190719
1738.000000	27.159606
1737.000000	27.129332
1736.000000	27.075200
1735.000000	27.061170
1734.000000	27.085312
1733.000000	27.053064
1732.000000	27.032463
1731.000000	27.041479
1730.000000	27.032070
1729.000000	27.067334
1728.000000	27.089771
1727.000000	27.130480
1726.000000	27.170100
1725.000000	27.251559
1724.000000	27.295133
1723.000000	27.367627
1722.000000	27.427760
1721.000000	27.529205
1720.000000	27.597369
1719.000000	27.702625
1718.000000	27.772878
1717.000000	27.838673
1716.000000	27.875107
1715.000000	27.970175
1714.000000	28.053707
1713.000000	28.132097
1712.000000	28.222559
1711.000000	28.265291
1710.000000	28.330335
1709.000000	28.367666
1708.000000	28.446126
1707.000000	28.462662
1706.000000	28.509932
1705.000000	28.536983
1704.000000	28.578885
1703.000000	28.602552
1702.000000	28.592471
1701.000000	28.615931
1700.000000	28.632457
1699.000000	28.625143
1698.000000	28.679165
1697.000000	28.713408
1696.000000	28.720340
1695.000000	28.751790
1694.000000	28.795817
1693.000000	28.801645
1692.000000	28.878993
1691.000000	28.924132
1690.000000	28.981080
1689.000000	29.080432
1688.000000	29.160459
1687.000000	29.265848
1686.000000	29.374249
1685.000000	29.434779
1684.000000	29.563793
1683.000000	29.708689
1682.000000	29.838899
1681.000000	29.964790
1680.000000	30.103546
1679.000000	30.232457
1678.000000	30.416939
1677.000000	30.554736
1676.000000	30.691088
1675.000000	30.847445
1674.000000	31.010462
1673.000000	31.146521
1672.000000	31.299602
1671.000000	31.420542
1670.000000	31.561555
1669.000000	31.703465
1668.000000	31.823772
1667.000000	31.968768
1666.000000	32.031981
1665.000000	32.106488
1664.000000	32.159510
1663.000000	32.238871
1662.000000	32.327539
1661.000000	32.403742
1660.000000	32.442408
1659.000000	32.510500
1658.000000	32.552338
1657.000000	32.594632
1656.000000	32.630629
1655.000000	32.657241
1654.000000	32.682101
1653.000000	32.704506
1652.000000	32.709552
1651.000000	32.709489
1650.000000	32.718492
1649.000000	32.714956
1648.000000	32.702281
1647.000000	32.696569
1646.000000	32.704943
1645.000000	32.682271
1644.000000	32.647503
1643.000000	32.617982
1642.000000	32.603063
1641.000000	32.583440
1640.000000	32.569208
1639.000000	32.536586
1638.000000	32.520501
1637.000000	32.487181
1636.000000	32.434157
1635.000000	32.415021
1634.000000	32.377546
1633.000000	32.329600
1632.000000	32.286191
1631.000000	32.253078
1630.000000	32.224078
1629.000000	32.195199
1628.000000	32.153015
1627.000000	32.117897
1626.000000	32.073779
1625.000000	32.034140
1624.000000	31.972151
1623.000000	31.943610
1622.000000	31.910317
1621.000000	31.859566
1620.000000	31.808904
1619.000000	31.747599
1618.000000	31.703631
1617.000000	31.658826
1616.000000	31.603385
1615.000000	31.542238
1614.000000	31.492913
1613.000000	31.461641
1612.000000	31.406290
1611.000000	31.355585
1610.000000	31.316113
1609.000000	31.261787
1608.000000	31.202499
1607.000000	31.144107
1606.000000	31.088884
1605.000000	31.025912
1604.000000	30.954568
1603.000000	30.904031
1602.000000	30.856708
1601.000000	30.804480
1600.000000	30.746916
1599.000000	30.696271
1598.000000	30.640549
1597.000000	30.583055
1596.000000	30.538419
1595.000000	30.487878
1594.000000	30.429741
1593.000000	30.380598
1592.000000	30.351312
1591.000000	30.306765
1590.000000	30.248187
1589.000000	30.197489
1588.000000	30.166246
1587.000000	30.117867
1586.000000	30.062292
1585.000000	30.029765
1584.000000	29.992556
1583.000000	29.946591
1582.000000	29.909424
1581.000000	29.858894
1580.000000	29.822590
1579.000000	29.794085
1578.000000	29.751919
1577.000000	29.709926
1576.000000	29.663451
1575.000000	29.614043
1574.000000	29.568458
1573.000000	29.524085
1572.000000	29.488239
1571.000000	29.439244
1570.000000	29.406898
1569.000000	29.373525
1568.000000	29.344349
1567.000000	29.311775
1566.000000	29.276558
1565.000000	29.242005
1564.000000	29.208132
1563.000000	29.202206
1562.000000	29.174775
1561.000000	29.147677
1560.000000	29.110470
1559.000000	29.087879
1558.000000	29.073706
1557.000000	29.056386
1556.000000	29.029890
1555.000000	29.012094
1554.000000	28.990572
1553.000000	28.954702
1552.000000	28.913923
1551.000000	28.885820
1550.000000	28.866613
1549.000000	28.825046
1548.000000	28.779913
1547.000000	28.737908
1546.000000	28.671036
1545.000000	28.618197
1544.000000	28.570734
1543.000000	28.496139
1542.000000	28.419999
1541.000000	28.362169
1540.000000	28.289558
1539.000000	28.206623
1538.000000	28.131516
1537.000000	28.048368
1536.000000	27.968007
1535.000000	27.900280
1534.000000	27.826771
1533.000000	27.753985
1532.000000	27.663249
1531.000000	27.597368
1530.000000	27.521402
1529.000000	27.431666
1528.000000	27.381851
1527.000000	27.346362
1526.000000	27.270518
1525.000000	27.207071
1524.000000	27.146665
1523.000000	27.103913
1522.000000	27.047744
1521.000000	26.996645
1520.000000	26.966350
1519.000000	26.918565
1518.000000	26.888272
1517.000000	26.871644
1516.000000	26.833309
1515.000000	26.794666
1514.000000	26.771432
1513.000000	26.748545
1512.000000	26.718490
1511.000000	26.689193
1510.000000	26.675745
1509.000000	26.675908
1508.000000	26.679310
1507.000000	26.674052
1506.000000	26.690796
1505.000000	26.677311
1504.000000	26.666775
1503.000000	26.651522
1502.000000	26.627763
1501.000000	26.612973
1500.000000	26.605781
1499.000000	26.599245
1498.000000	26.588680
1497.000000	26.601648
1496.000000	26.599712
1495.000000	26.620691
1494.000000	26.632661
1493.000000	26.640102
1492.000000	26.642293
1491.000000	26.683919
1490.000000	26.704005
1489.000000	26.732899
1488.000000	26.762004
1487.000000	26.805948
1486.000000	26.828782
1485.000000	26.834454
1484.000000	26.870286
1483.000000	26.932701
1482.000000	26.945177
1481.000000	27.019366
1480.000000	27.071071
1479.000000	27.096605
1478.000000	27.146945
1477.000000	27.189309
1476.000000	27.210771
1475.000000	27.242783
1474.000000	27.297401
1473.000000	27.354136
1472.000000	27.395669
1471.000000	27.421628
1470.000000	27.447097
1469.000000	27.506818
1468.000000	27.556321
1467.000000	27.589329
1466.000000	27.631025
1465.000000	27.655735
1464.000000	27.696155
1463.000000	27.764229
1462.000000	27.798037
1461.000000	27.821455
1460.000000	27.848411
1459.000000	27.916461
1458.000000	27.959164
1457.000000	27.994273
1456.000000	28.058066
1455.000000	28.107918
1454.000000	28.170039
1453.000000	28.199953
1452.000000	28.243090
1451.000000	28.306565
1450.000000	28.349404
1449.000000	28.421462
1448.000000	28.508659
1447.000000	28.554808
1446.000000	28.614380
1445.000000	28.657471
1444.000000	28.713709
1443.000000	28.804400
1442.000000	28.892693
1441.000000	28.980379
1440.000000	29.049902
1439.000000	29.123976
1438.000000	29.193148
1437.000000	29.262295
1436.000000	29.346671
1435.000000	29.434186
1434.000000	29.523605
1433.000000	29.615478
1432.000000	29.713037
1431.000000	29.809021
1430.000000	29.923662
1429.000000	30.040064
1428.000000	30.165292
1427.000000	30.281471
1426.000000	30.397640
1425.000000	30.519448
1424.000000	30.653107
1423.000000	30.793354
1422.000000	30.950347
1421.000000	31.077068
1420.000000	31.189337
1419.000000	31.338624
1418.000000	31.493399
1417.000000	31.632822
1416.000000	31.791960
1415.000000	31.967434
1414.000000	32.126569
1413.000000	32.286639
1412.000000	32.449780
1411.000000	32.631330
1410.000000	32.794242
1409.000000	32.965500
1408.000000	33.126056
1407.000000	33.295091
1406.000000	33.466076
1405.000000	33.608653
1404.000000	33.757644
1403.000000	33.929584
1402.000000	34.093887
1401.000000	34.262589
1400.000000	34.419568
1399.000000	34.564748
1398.000000	34.702866
1397.000000	34.852721
1396.000000	34.992798
1395.000000	35.116713
1394.000000	35.239332
1393.000000	35.372482
1392.000000	35.503140
1391.000000	35.614409
1390.000000	35.703714
1389.000000	35.815045
1388.000000	35.943505
1387.000000	36.055571
1386.000000	36.135785
1385.000000	36.225215
1384.000000	36.339209
1383.000000	36.433242
1382.000000	36.495373
1381.000000	36.575872
1380.000000	36.671174
1379.000000	36.731560
1378.000000	36.794942
1377.000000	36.873218
1376.000000	36.934178
1375.000000	36.975542
1374.000000	37.007006
1373.000000	37.064776
1372.000000	37.121367
1371.000000	37.165856
1370.000000	37.200106
1369.000000	37.240395
1368.000000	37.281011
1367.000000	37.311029
1366.000000	37.334953
1365.000000	37.384292
1364.000000	37.438176
1363.000000	37.467433
1362.000000	37.516467
1361.000000	37.576643
1360.000000	37.609275
1359.000000	37.645788
1358.000000	37.688186
1357.000000	37.737882
1356.000000	37.772693
1355.000000	37.815654
1354.000000	37.867433
1353.000000	37.926212
1352.000000	37.973811
1351.000000	38.012344
1350.000000	38.032395
1349.000000	38.078704
1348.000000	38.137588
1347.000000	38.181442
1346.000000	38.224556
1345.000000	38.269201
1344.000000	38.302853
1343.000000	38.329723
1342.000000	38.362602
1341.000000	38.430590
1340.000000	38.469979
1339.000000	38.481276
1338.000000	38.526741
1337.000000	38.589983
1336.000000	38.610394
1335.000000	38.642169
1334.000000	38.669665
1333.000000	38.681861
1332.000000	38.718883
1331.000000	38.762454
1330.000000	38.789681
1329.000000	38.812333
1328.000000	38.825947
1327.000000	38.835602
1326.000000	38.869037
1325.000000	38.894760
1324.000000	38.908871
1323.000000	38.931470
1322.000000	38.943028
1321.000000	38.969682
1320.000000	38.981880
1319.000000	38.984208
1318.000000	38.998692
1317.000000	39.019076
1316.000000	39.039257
1315.000000	39.054546
1314.000000	39.063168
1313.000000	39.061578
1312.000000	39.062026
1311.000000	39.080164
1310.000000	39.104320
1309.000000	39.122405
1308.000000	39.131261
1307.000000	39.139011
1306.000000	39.132417
1305.000000	39.121234
1304.000000	39.151610
1303.000000	39.177603
1302.000000	39.177295
1301.000000	39.177470
1300.000000	39.184580
1299.000000	39.167065
1298.000000	39.159030
1297.000000	39.165029
1296.000000	39.171604
1295.000000	39.182177
1294.000000	39.160868
1293.000000	39.166176
1292.000000	39.166971
1291.000000	39.145920
1290.000000	39.158141
1289.000000	39.153697
1288.000000	39.148360
1287.000000	39.149000
1286.000000	39.134810
1285.000000	39.100330
1284.000000	39.077800
1283.000000	39.082483
1282.000000	39.103420
1281.000000	39.105588
1280.000000	39.099503
1279.000000	39.103175
1278.000000	39.105906
1277.000000	39.096730
1276.000000	39.094306
1275.000000	39.095664
1274.000000	39.097624
1273.000000	39.061043
1272.000000	39.104551
1271.000000	39.086938
1270.000000	39.077135
1269.000000	39.089435
1268.000000	39.090681
1267.000000	39.079186
1266.000000	39.109617
1265.000000	39.078893
1264.000000	39.121546
1263.000000	39.148555
1262.000000	39.158558
1261.000000	39.136692
1260.000000	39.133006
1259.000000	39.139679
1258.000000	39.161430
1257.000000	39.194192
1256.000000	39.190886
1255.000000	39.195538
1254.000000	39.181124
1253.000000	39.173719
1252.000000	39.189382
1251.000000	39.166427
1250.000000	39.174244
1249.000000	39.173024
1248.000000	39.168783
1247.000000	39.150818
1246.000000	39.150027
1245.000000	39.141711
1244.000000	39.133423
1243.000000	39.136270
1242.000000	39.121319
1241.000000	39.097980
1240.000000	39.065102
1239.000000	39.027372
1238.000000	39.021315
1237.000000	38.962262
1236.000000	38.974714
1235.000000	38.969080
1234.000000	38.956791
1233.000000	38.929944
1232.000000	38.882662
1231.000000	38.863622
1230.000000	38.867678
1229.000000	38.840059
1228.000000	38.787776
1227.000000	38.780507
1226.000000	38.779482
1225.000000	38.761280
1224.000000	38.762634
1223.000000	38.729980
1222.000000	38.709687
1221.000000	38.697494
1220.000000	38.689364
1219.000000	38.660022
1218.000000	38.645258
1217.000000	38.620969
1216.000000	38.573877
1215.000000	38.553200
1214.000000	38.535814
1213.000000	38.530891
1212.000000	38.507797
1211.000000	38.490884
1210.000000	38.487460
1209.000000	38.460888
1208.000000	38.411682
1207.000000	38.371007
1206.000000	38.362247
1205.000000	38.345619
1204.000000	38.282127
1203.000000	38.263295
1202.000000	38.265885
1201.000000	38.220773
1200.000000	38.188831
1199.000000	38.171196
1198.000000	38.171134
1197.000000	38.137544
1196.000000	38.092421
1195.000000	38.053367
1194.000000	38.033703
1193.000000	38.011736
1192.000000	37.992331
1191.000000	37.985855
1190.000000	37.953952
1189.000000	37.909081
1188.000000	37.917700
1187.000000	37.930021
1186.000000	37.924994
1185.000000	37.916218
1184.000000	37.918578
1183.000000	37.926241
1182.000000	37.949100
1181.000000	37.969728
1180.000000	37.987334
1179.000000	38.022040
1178.000000	38.060121
1177.000000	38.081186
1176.000000	38.118968
1175.000000	38.162926
1174.000000	38.198374
1173.000000	38.241327
1172.000000	38.288847
1171.000000	38.333641
1170.000000	38.381997
1169.000000	38.429224
1168.000000	38.481069
1167.000000	38.538132
1166.000000	38.594912
1165.000000	38.652474
1164.000000	38.705210
1163.000000	38.757838
1162.000000	38.811625
1161.000000	38.863698
1160.000000	38.910344
1159.000000	38.963879
1158.000000	39.029441
1157.000000	39.092072
1156.000000	39.135897
1155.000000	39.157019
1154.000000	39.195369
1153.000000	39.236058
1152.000000	39.286678
1151.000000	39.335563
1150.000000	39.375781
1149.000000	39.435654
1148.000000	39.477670
1147.000000	39.499515
1146.000000	39.529426
1145.000000	39.565406
1144.000000	39.605083
1143.000000	39.643747
1142.000000	39.669462
1141.000000	39.691863
1140.000000	39.735365
1139.000000	39.756668
1138.000000	39.774086
1137.000000	39.806559
1136.000000	39.840769
1135.000000	39.878639
1134.000000	39.903652
1133.000000	39.932002
1132.000000	39.949683
1131.000000	39.974558
1130.000000	40.007679
1129.000000	40.030853
1128.000000	40.049488
1127.000000	40.060879
1126.000000	40.051398
1125.000000	40.055151
1124.000000	40.079466
1123.000000	40.080862
1122.000000	40.099964
1121.000000	40.121696
1120.000000	40.128859
1119.000000	40.126269
1118.000000	40.120665
1117.000000	40.129369
1116.000000	40.125000
1115.000000	40.149595
1114.000000	40.162353
1113.000000	40.173084
1112.000000	40.176635
1111.000000	40.163378
1110.000000	40.163826
1109.000000	40.167262
1108.000000	40.183405
1107.000000	40.175135
1106.000000	40.167942
1105.000000	40.170211
1104.000000	40.166795
1103.000000	40.175512
1102.000000	40.146394
1101.000000	40.131197
1100.000000	40.140373
1099.000000	40.160401
1098.000000	40.161773
1097.000000	40.177097
1096.000000	40.169575
1095.000000	40.166465
1094.000000	40.144855
1093.000000	40.131679
1092.000000	40.139538
1091.000000	40.143513
1090.000000	40.147037
1089.000000	40.164749
1088.000000	40.165251
1087.000000	40.160144
1086.000000	40.127746
1085.000000	40.118424
1084.000000	40.136836
1083.000000	40.124891
1082.000000	40.138921
1081.000000	40.131560
1080.000000	40.097002
1079.000000	40.080040
1078.000000	40.086836
1077.000000	40.104084
1076.000000	40.096955
1075.000000	40.088046
1074.000000	40.092427
1073.000000	40.044019
1072.000000	40.041531
1071.000000	40.060691
1070.000000	40.051676
1069.000000	40.063883
1068.000000	40.048400
1067.000000	40.047072
1066.000000	40.046464
1065.000000	40.012894
1064.000000	40.010377
1063.000000	40.007068
1062.000000	40.024465
1061.000000	40.005086
1060.000000	40.006232
1059.000000	39.978320
1058.000000	39.960763
1057.000000	39.954184
1056.000000	39.978943
1055.000000	39.957109
1054.000000	39.970568
1053.000000	39.932518
1052.000000	39.919910
1051.000000	39.916818
1050.000000	39.923743
1049.000000	39.908543
1048.000000	39.867041
1047.000000	39.901357
1046.000000	39.906031
1045.000000	39.912047
1044.000000	39.883262
1043.000000	39.870711
1042.000000	39.870502
1041.000000	39.867478
1040.000000	39.839231
1039.000000	39.849799
1038.000000	39.853075
1037.000000	39.865893
1036.000000	39.844866
1035.000000	39.820725
1034.000000	39.824159
1033.000000	39.835424
1032.000000	39.812627
1031.000000	39.817835
1030.000000	39.815727
1029.000000	39.818098
1028.000000	39.782224
1027.000000	39.800516
1026.000000	39.814775
1025.000000	39.820632
1024.000000	39.787090
1023.000000	39.803612
1022.000000	39.803201
1021.000000	39.777539
1020.000000	39.781624
1019.000000	39.794868
1018.000000	39.770464
1017.000000	39.782390
1016.000000	39.801615
1015.000000	39.778890
1014.000000	39.787200
1013.000000	39.808885
1012.000000	39.805707
1011.000000	39.789960
1010.000000	39.781669
1009.000000	39.798912
1008.000000	39.807906
1007.000000	39.820615
1006.000000	39.812405
1005.000000	39.808208
1004.000000	39.820223
1003.000000	39.846072
1002.000000	39.857764
1001.000000	39.861153
1000.000000	39.869578
999.000000	39.893078
998.000000	39.895430
997.000000	39.885089
996.000000	39.884051
995.000000	39.900526
994.000000	39.908123
993.000000	39.919755
992.000000	39.926631
991.000000	39.929481
990.000000	39.921113
989.000000	39.942190
988.000000	39.935016
987.000000	39.929958
986.000000	39.942514
985.000000	39.956737
984.000000	39.957338
983.000000	39.983839
982.000000	39.970302
981.000000	39.972977
980.000000	39.976940
979.000000	39.987685
978.000000	39.996686
977.000000	39.994839
976.000000	39.999827
975.000000	40.016372
974.000000	40.025305
973.000000	40.022793
972.000000	40.008722
971.000000	40.025310
970.000000	40.028234
969.000000	40.039870
968.000000	40.061592
967.000000	40.073963
966.000000	40.075672
965.000000	40.059563
964.000000	40.064363
963.000000	40.070411
962.000000	40.075379
961.000000	40.097779
960.000000	40.101018
959.000000	40.105235
958.000000	40.117959
957.000000	40.139087
956.000000	40.149398
955.000000	40.149374
954.000000	40.155846
953.000000	40.152355
952.000000	40.145917
951.000000	40.158941
950.000000	40.166284
949.000000	40.165497
948.000000	40.184086
947.000000	40.198687
946.000000	40.197144
945.000000	40.191689
944.000000	40.186644
943.000000	40.189379
942.000000	40.193601
941.000000	40.201833
940.000000	40.202625
939.000000	40.200511
938.000000	40.200099
937.000000	40.211020
936.000000	40.222761
935.000000	40.213276
934.000000	40.227622
933.000000	40.231113
932.000000	40.214919
931.000000	40.214401
930.000000	40.212811
929.000000	40.203267
928.000000	40.196121
927.000000	40.198284
926.000000	40.227379
925.000000	40.217174
924.000000	40.242831
923.000000	40.257250
922.000000	40.243817
921.000000	40.242441
920.000000	40.229671
919.000000	40.250117
918.000000	40.254324
917.000000	40.250786
916.000000	40.251926
915.000000	40.234786
914.000000	40.243796
913.000000	40.235863
912.000000	40.262442
911.000000	40.253383
910.000000	40.239872
909.000000	40.240277
908.000000	40.259108
907.000000	40.259180
906.000000	40.250849
905.000000	40.274024
904.000000	40.286312
903.000000	40.277950
902.000000	40.262056
901.000000	40.295071
900.000000	40.314829
899.000000	40.289711
898.000000	40.271560
897.000000	40.288583
896.000000	40.309849
895.000000	40.348504
894.000000	40.367579
893.000000	40.316539
892.000000	40.316220
891.000000	40.352115
890.000000	40.365866
889.000000	40.297089
888.000000	40.333793
887.000000	40.359751
886.000000	40.364919
885.000000	40.360984
884.000000	40.337255
883.000000	40.404301
882.000000	40.381887
881.000000	40.394874
880.000000	40.405046
879.000000	40.364905
878.000000	40.386239
877.000000	40.447387
876.000000	40.395122
875.000000	40.384881
874.000000	40.465013
873.000000	40.452646
872.000000	40.457574
871.000000	40.420748
870.000000	40.438620
869.000000	40.351712
868.000000	40.381231
867.000000	40.384752
866.000000	40.426520
865.000000	40.333782
864.000000	40.348242
863.000000	40.432943
862.000000	40.419914
861.000000	40.349261
860.000000	40.354581
859.000000	40.314813
858.000000	40.141032
857.000000	40.283438
856.000000	40.295027
855.000000	40.096445
854.000000	40.176129
853.000000	39.976655
852.000000	40.374297
851.000000	40.279007
850.000000	40.235929
849.000000	40.347209
848.000000	40.216374
847.000000	40.164375
846.000000	40.213075
845.000000	40.186679
844.000000	40.374615
843.000000	40.185049
842.000000	40.166605
841.000000	40.178356
840.000000	40.230459
839.000000	40.054958
838.000000	40.112741
837.000000	40.112996
836.000000	40.097296
835.000000	40.158220
834.000000	40.104043
833.000000	40.065728
832.000000	40.007846
831.000000	40.065850
830.000000	40.135857
829.000000	40.194125
828.000000	40.027228
827.000000	40.161413
826.000000	40.064923
825.000000	40.071020
824.000000	40.164077
823.000000	39.988197
822.000000	40.025725
821.000000	40.097447
820.000000	40.003963
819.000000	40.089668
818.000000	40.092014
817.000000	40.163858
816.000000	39.984505
815.000000	39.936116
814.000000	40.095880
813.000000	40.175608
812.000000	40.086478
811.000000	40.088413
810.000000	40.165659
809.000000	40.013287
808.000000	40.081770
807.000000	40.006256
806.000000	40.040292
805.000000	40.071855
804.000000	40.094140
803.000000	40.012640
802.000000	40.061695
801.000000	40.095464
800.000000	39.995862
799.000000	40.044375
798.000000	40.048048
797.000000	40.108107
796.000000	40.136418
795.000000	40.140859
794.000000	40.043415
793.000000	40.123800
792.000000	40.071324
791.000000	40.040927
790.000000	39.950248
789.000000	39.912884
788.000000	39.950179
787.000000	39.952161
786.000000	40.000833
785.000000	40.095270
784.000000	39.992762
783.000000	40.091783
782.000000	40.021129
781.000000	39.983473
780.000000	39.997193
779.000000	40.020280
778.000000	39.963742
777.000000	40.004571
776.000000	40.027704
775.000000	39.999234
774.000000	39.966051
773.000000	39.986290
772.000000	40.048569
771.000000	39.980185
770.000000	40.067960
769.000000	39.976077
768.000000	39.955945
767.000000	40.010745
766.000000	40.030273
765.000000	40.053818
764.000000	40.016520
763.000000	40.014684
762.000000	40.023577
761.000000	39.982458
760.000000	39.936022
759.000000	39.918380
758.000000	40.009193
757.000000	39.956721
756.000000	39.937724
755.000000	39.949922
754.000000	39.937374
753.000000	40.002088
752.000000	39.953616
751.000000	39.969600
750.000000	39.932048
749.000000	39.922000
748.000000	39.956364
747.000000	39.916931
746.000000	39.913723
745.000000	39.965532
744.000000	39.928723
743.000000	39.971731
742.000000	39.956189
741.000000	39.916743
740.000000	39.921580
739.000000	40.000507
738.000000	39.959990
737.000000	39.931955
736.000000	39.962962
735.000000	39.955108
734.000000	39.908839
733.000000	39.877618
732.000000	39.896848
731.000000	39.914146
730.000000	39.925068
729.000000	39.884849
728.000000	39.894879
727.000000	39.934185
726.000000	39.909490
725.000000	39.889727
724.000000	39.898844
723.000000	39.909808
722.000000	39.878945
721.000000	39.878002
720.000000	39.875208
719.000000	39.851809
718.000000	39.848496
717.000000	39.865745
716.000000	39.885637
715.000000	39.858544
714.000000	39.859136
713.000000	39.852907
712.000000	39.846289
711.000000	39.859531
710.000000	39.831493
709.000000	39.824663
708.000000	39.874302
707.000000	39.890062
706.000000	39.848222
705.000000	39.821644
704.000000	39.852754
703.000000	39.860086
702.000000	39.843269
701.000000	39.830222
700.000000	39.846158
699.000000	39.846921
698.000000	39.811123
697.000000	39.806617
696.000000	39.834687
695.000000	39.834847
694.000000	39.816006
693.000000	39.776512
692.000000	39.805338
691.000000	39.816522
690.000000	39.786312
689.000000	39.779127
688.000000	39.756296
687.000000	39.720902
686.000000	39.701452
685.000000	39.761012
684.000000	39.767869
683.000000	39.734687
682.000000	39.740553
681.000000	39.764388
680.000000	39.757935
679.000000	39.728320
678.000000	39.736862
677.000000	39.727350
676.000000	39.705451
675.000000	39.699111
674.000000	39.690920
673.000000	39.711583
672.000000	39.692141
671.000000	39.663725
670.000000	39.658025
669.000000	39.696341
668.000000	39.678142
667.000000	39.662987
666.000000	39.641170
665.000000	39.650069
664.000000	39.657190
663.000000	39.643759
662.000000	39.651133
661.000000	39.681389
660.000000	39.612040
659.000000	39.564573
658.000000	39.568138
657.000000	39.616535
656.000000	39.622494
655.000000	39.602881
654.000000	39.595002
653.000000	39.568278
652.000000	39.543374
651.000000	39.592472
650.000000	39.542661
649.000000	39.552916
648.000000	39.545381
647.000000	39.553447
646.000000	39.515047
645.000000	39.496664
644.000000	39.490987
643.000000	39.531388
642.000000	39.520196
641.000000	39.494700
640.000000	39.447268
639.000000	39.481064
638.000000	39.471419
637.000000	39.449374
636.000000	39.475421
635.000000	39.477203
634.000000	39.441527
633.000000	39.432807
632.000000	39.383429
631.000000	39.407860
630.000000	39.396765
629.000000	39.388279
628.000000	39.394318
627.000000	39.356146
626.000000	39.367013
625.000000	39.378295
624.000000	39.345003
623.000000	39.321797
622.000000	39.314666
621.000000	39.309657
620.000000	39.299686
619.000000	39.293260
618.000000	39.254100
617.000000	39.251026
616.000000	39.245589
615.000000	39.241423
614.000000	39.203501
613.000000	39.244829
612.000000	39.262170
611.000000	39.187585
610.000000	39.196078
609.000000	39.200648
608.000000	39.130120
607.000000	39.161848
606.000000	39.132899
605.000000	39.129450
604.000000	39.102013
603.000000	39.081275
602.000000	39.068241
601.000000	39.040902
600.000000	39.033272
599.000000	39.056422
598.000000	39.022366
597.000000	39.037459
596.000000	38.980245
595.000000	38.951288
594.000000	38.960160
593.000000	38.960991
592.000000	38.916374
591.000000	38.970648
590.000000	38.891696
589.000000	38.899088
588.000000	38.890071
587.000000	38.862520
586.000000	38.800414
585.000000	38.836005
584.000000	38.829517
583.000000	38.787773
582.000000	38.818708
581.000000	38.768911
580.000000	38.757174
579.000000	38.725471
578.000000	38.694440
577.000000	38.686403
576.000000	38.662125
575.000000	38.656319
574.000000	38.621748
573.000000	38.626256
572.000000	38.550154
571.000000	38.577711
570.000000	38.545937
569.000000	38.552290
568.000000	38.499353
567.000000	38.474540
566.000000	38.438109
565.000000	38.471902
564.000000	38.426988
563.000000	38.377264
562.000000	38.389344
561.000000	38.324355
560.000000	38.290958
559.000000	38.351417
558.000000	38.283118
557.000000	38.260871
556.000000	38.221947
555.000000	38.258160
554.000000	38.169856
553.000000	38.178451
552.000000	38.157455
551.000000	38.129080
550.000000	38.125323
549.000000	38.053654
548.000000	38.034572
547.000000	37.979922
546.000000	37.983289
545.000000	37.973773
544.000000	37.935334
543.000000	37.929823
542.000000	37.863045
541.000000	37.860565
540.000000	37.812404
539.000000	37.790510
538.000000	37.752204
537.000000	37.753856
536.000000	37.705043
535.000000	37.671161
534.000000	37.643023
533.000000	37.650870
532.000000	37.568645
531.000000	37.543002
530.000000	37.497494
529.000000	37.472402
528.000000	37.442746
527.000000	37.410928
526.000000	37.364990
525.000000	37.349064
524.000000	37.307211
523.000000	37.296021
522.000000	37.228281
521.000000	37.202510
520.000000	37.196977
519.000000	37.160585
518.000000	37.089508
517.000000	37.051066
516.000000	37.019754
515.000000	36.991467
514.000000	36.935685
513.000000	36.884865
512.000000	36.845618
511.000000	36.814512
510.000000	36.796782
509.000000	36.764522
508.000000	36.720856
507.000000	36.669195
506.000000	36.617752
505.000000	36.543004
504.000000	36.513292
503.000000	36.455910
502.000000	36.413311
501.000000	36.372705
500.000000	36.297241
499.000000	36.272071
498.000000	36.206568
497.000000	36.169251
496.000000	36.113746
495.000000	36.042953
494.000000	36.013732
493.000000	35.975568
492.000000	35.897594
491.000000	35.866003
490.000000	35.823183
489.000000	35.765662
488.000000	35.714820
487.000000	35.632179
486.000000	35.550061
485.000000	35.462230
484.000000	35.442952
483.000000	35.426619
482.000000	35.385552
481.000000	35.346190
480.000000	35.286981
479.000000	35.210460
478.000000	35.107166
477.000000	35.029312
476.000000	34.984449
475.000000	34.915263
474.000000	34.855168
473.000000	34.782401
472.000000	34.717269
471.000000	34.648193
470.000000	34.563714
469.000000	34.482510
468.000000	34.410095
467.000000	34.330202
466.000000	34.244325
465.000000	34.153464
464.000000	34.081985
463.000000	33.995793
462.000000	33.896123
461.000000	33.800996
460.000000	33.707507
459.000000	33.627468
458.000000	33.558076
457.000000	33.465568
456.000000	33.361911
455.000000	33.260192
454.000000	33.166304
453.000000	33.073084
452.000000	32.943914
451.000000	32.816658
450.000000	32.701139
449.000000	32.592506
448.000000	32.485370
447.000000	32.378432
446.000000	32.282719
445.000000	32.165219
444.000000	32.042416
443.000000	31.937768
442.000000	31.826719
441.000000	31.689271
440.000000	31.565672
439.000000	31.459335
438.000000	31.337138
437.000000	31.206322
436.000000	31.047247
435.000000	30.881371
434.000000	30.783501
433.000000	30.673550
432.000000	30.550239
431.000000	30.405704
430.000000	30.286799
429.000000	30.177847
428.000000	30.018263
427.000000	29.890590
426.000000	29.721958
425.000000	29.548376
424.000000	29.408790
423.000000	29.262323
422.000000	29.128706
421.000000	28.969715
420.000000	28.823827
419.000000	28.654960
418.000000	28.459361
417.000000	28.287509
416.000000	28.168557
415.000000	27.975539
414.000000	27.832472
413.000000	27.696169
412.000000	27.474264
411.000000	27.248636
410.000000	27.128748
409.000000	26.927322
408.000000	26.760650
407.000000	26.590891
406.000000	26.394040
405.000000	26.201872
404.000000	25.996355
403.000000	25.826400
402.000000	25.645278
401.000000	25.462261
400.000000	25.247138
399.000000	25.075441
398.000000	24.848951
397.000000	24.657744
396.000000	24.436876
395.000000	24.273592
394.000000	24.065402
393.000000	23.872308
392.000000	23.666621
391.000000	23.457285
390.000000	23.200753
389.000000	23.026539
388.000000	22.791421
387.000000	22.601798
386.000000	22.367825
385.000000	22.195362
384.000000	21.977663
383.000000	21.705902
382.000000	21.486021
381.000000	21.292633
380.000000	21.058765
379.000000	20.813680
378.000000	20.561678
377.000000	20.373061
376.000000	20.218673
375.000000	19.951252
374.000000	19.676837
373.000000	19.476836
372.000000	19.140395
371.000000	18.980568
370.000000	18.684893
369.000000	18.520891
368.000000	18.219644
367.000000	17.957207
366.000000	17.788030
365.000000	17.520868
364.000000	17.212096
363.000000	16.975438
362.000000	16.751517
361.000000	16.514779
360.000000	16.270420
359.000000	15.980470
358.000000	15.742635
357.000000	15.426018
356.000000	15.252823
355.000000	15.027064
354.000000	14.833499
353.000000	14.574653
352.000000	14.339027
351.000000	14.122252
350.000000	13.818239
349.000000	13.673821
348.000000	13.344185
347.000000	13.169591
346.000000	13.002005
345.000000	12.772566
344.000000	12.557378
343.000000	12.192458
342.000000	12.037189
341.000000	11.847526
340.000000	11.645934
339.000000	11.441490
338.000000	11.203517
337.000000	10.962504
336.000000	10.781688
335.000000	10.529434
334.000000	10.274815
333.000000	10.161663
332.000000	9.874642
331.000000	9.641516
330.000000	9.413355
329.000000	9.255307
328.000000	8.875555
327.000000	8.657787
326.000000	8.412717
325.000000	8.280084
324.000000	8.005343
323.000000	7.769927
322.000000	7.483816
321.000000	7.197468
320.000000	7.004785
319.000000	6.800540
318.000000	6.549125
317.000000	6.352907
316.000000	6.118182
315.000000	5.870679
314.000000	5.710238
313.000000	5.496056
312.000000	5.290413
311.000000	5.123735
310.000000	4.906804
309.000000	4.747647
308.000000	4.528891
307.000000	4.329920
306.000000	4.150473
305.000000	3.978260
304.000000	3.828640
303.000000	3.670109
302.000000	3.461260
301.000000	3.301530
300.000000	3.073943
299.000000	2.919351
298.000000	2.721063
297.000000	2.501911
296.000000	2.300464
295.000000	2.080988
294.000000	1.865630
293.000000	1.629948
292.000000	1.425865
291.000000	1.234049
290.000000	1.085603
289.000000	0.965981
288.000000	0.871427
287.000000	0.809174
286.000000	0.766104
285.000000	0.732559
284.000000	0.730421
283.000000	0.726388
282.000000	0.723699
281.000000	0.719622
280.000000	0.725342
279.000000	0.725795
278.000000	0.709325
277.000000	0.723648
276.000000	0.730684
275.000000	0.743636
274.000000	0.757353
273.000000	0.771500
272.000000	0.756202
271.000000	0.761350
270.000000	0.777577
269.000000	0.784855
268.000000	0.796405
267.000000	0.822120
266.000000	0.842874
265.000000	0.846083
264.000000	0.863259
263.000000	0.878768
262.000000	0.889723
261.000000	0.904114
260.000000	0.926129
259.000000	0.943380
258.000000	0.956143
257.000000	0.969544
256.000000	0.982122
255.000000	1.006239
254.000000	1.015826
253.000000	1.009834
252.000000	1.010780
251.000000	1.000727
250.000000	0.993249
249.000000	0.972960
248.000000	0.963971
247.000000	0.945637
246.000000	0.919101
245.000000	0.904875
244.000000	0.889977
243.000000	0.861558
242.000000	0.829146
241.000000	0.785108
240.000000	0.748146
239.000000	0.725034
238.000000	0.700219
237.000000	0.673407
236.000000	0.636122
235.000000	0.593178
234.000000	0.561591
233.000000	0.520380
232.000000	0.489476
231.000000	0.461698
230.000000	0.414604
229.000000	0.393182
228.000000	0.362096
227.000000	0.335012
226.000000	0.312545
225.000000	0.271206
224.000000	0.230864
223.000000	0.216484
222.000000	0.212595
221.000000	0.208427
220.000000	0.203610
219.000000	0.192752
218.000000	0.173082
217.000000	0.175128
216.000000	0.184200
215.000000	0.168943
214.000000	0.165692
213.000000	0.164262
212.000000	0.143627
211.000000	0.137745
210.000000	0.155068
209.000000	0.148425
208.000000	0.143257
207.000000	0.132822
206.000000	0.143866
205.000000	0.151712
204.000000	0.135589
203.000000	0.167748
202.000000	0.195795
201.000000	0.157803
200.000000	0.121982
