PE UV       SUBTECH     SPECTRUM    ASCII       PEDS        4.00        
   -1
006-2S-XXX-NR004-C001.Sample.asc
24/01/11
10:49:37.00
24/01/11
10:49:37.00
Administrator

250.000000
1
Lambda 750
750N8071901
PerkinElmer UV WinLab 6.0.4.0738 / 1.61.00 Lambda 900

0
0
3350/servo 860.8/2
0
0
UV/VIS
1
1
1
CommonBeamDepol,150mm sphere / downward view
0
0
0
0
Program
Program
3350/servo 860.8/2
3350/0.2 860.8/0.2
3350/0.2 860.8/0.2
0
1
 
 
 
0
 
860.8
319.2
860.8
Front
100
on
 
 
0
0
0
 
0
 
 
 
0
 
 
0
0
0
0
0
 
 
 
 
0
0


0
0
#HDR
-1
-1
#GR
nm
%R
1.0
0.0
2500.000000
-10.000000
226
8
66.521784
23.664492
#DATA
2500.000000	34.263167
2490.000000	34.329633
2480.000000	33.840620
2470.000000	38.510115
2460.000000	40.232411
2450.000000	39.306335
2440.000000	38.618384
2430.000000	40.285622
2420.000000	38.649152
2410.000000	40.233866
2400.000000	38.624665
2390.000000	40.200611
2380.000000	39.780365
2370.000000	39.144885
2360.000000	40.460831
2350.000000	39.252525
2340.000000	39.290685
2330.000000	39.361170
2320.000000	38.254473
2310.000000	38.582630
2300.000000	38.602640
2290.000000	37.803769
2280.000000	39.990310
2270.000000	40.950012
2260.000000	42.290080
2250.000000	43.506219
2240.000000	43.683848
2230.000000	43.680124
2220.000000	43.358261
2210.000000	43.003899
2200.000000	42.618384
2190.000000	42.569607
2180.000000	43.575434
2170.000000	44.258528
2160.000000	46.266446
2150.000000	47.243111
2140.000000	47.462917
2130.000000	47.426335
2120.000000	47.942125
2110.000000	47.795269
2100.000000	47.322518
2090.000000	46.601721
2080.000000	45.523548
2070.000000	44.044375
2060.000000	43.855655
2050.000000	44.083715
2040.000000	44.778794
2030.000000	45.278643
2020.000000	44.473831
2010.000000	43.750357
2000.000000	42.991205
1990.000000	41.900673
1980.000000	40.948559
1970.000000	40.294132
1960.000000	39.876489
1950.000000	40.807160
1940.000000	42.582614
1930.000000	45.305260
1920.000000	48.499824
1910.000000	52.143517
1900.000000	54.807499
1890.000000	56.301208
1880.000000	57.215898
1870.000000	57.469421
1860.000000	57.585915
1850.000000	57.452113
1840.000000	57.118222
1830.000000	56.924175
1820.000000	56.875039
1810.000000	56.724237
1800.000000	56.541632
1790.000000	56.234323
1780.000000	55.927990
1770.000000	55.616079
1760.000000	55.316037
1750.000000	55.035975
1740.000000	55.148917
1730.000000	55.826528
1720.000000	56.287344
1710.000000	56.687429
1700.000000	57.434552
1690.000000	58.300176
1680.000000	59.013988
1670.000000	59.367483
1660.000000	59.458424
1650.000000	59.378961
1640.000000	59.194274
1630.000000	59.001426
1620.000000	58.725782
1610.000000	58.434542
1600.000000	58.186358
1590.000000	57.886110
1580.000000	57.786853
1570.000000	57.643676
1560.000000	57.385035
1550.000000	57.046245
1540.000000	56.635367
1530.000000	56.347232
1520.000000	56.292873
1510.000000	56.326055
1500.000000	56.511256
1490.000000	56.820946
1480.000000	57.108661
1470.000000	57.406319
1460.000000	57.819559
1450.000000	58.259981
1440.000000	58.876866
1430.000000	59.632299
1420.000000	60.707660
1410.000000	61.724413
1400.000000	62.287940
1390.000000	62.576937
1380.000000	62.934349
1370.000000	63.156409
1360.000000	63.577013
1350.000000	63.914201
1340.000000	64.102680
1330.000000	64.047955
1320.000000	63.911555
1310.000000	63.887251
1300.000000	63.976689
1290.000000	63.935500
1280.000000	64.003245
1270.000000	64.142702
1260.000000	64.129836
1250.000000	64.133757
1240.000000	63.904661
1230.000000	63.758510
1220.000000	63.652212
1210.000000	63.724701
1200.000000	63.805906
1190.000000	64.021852
1180.000000	64.155881
1170.000000	64.433080
1160.000000	64.663323
1150.000000	64.945855
1140.000000	64.982180
1130.000000	64.973399
1120.000000	65.017365
1110.000000	65.188288
1100.000000	65.126425
1090.000000	65.159475
1080.000000	65.118659
1070.000000	65.134748
1060.000000	65.165762
1050.000000	65.162494
1040.000000	65.186754
1030.000000	65.118156
1020.000000	65.147363
1010.000000	65.365367
1000.000000	65.480812
990.000000	65.462123
980.000000	65.569919
970.000000	65.556684
960.000000	65.838917
950.000000	65.817723
940.000000	65.877296
930.000000	65.987116
920.000000	66.101861
910.000000	65.887898
900.000000	66.293325
890.000000	66.165497
880.000000	66.296091
870.000000	66.064959
860.000000	66.195793
850.000000	66.521784
840.000000	66.228121
830.000000	66.089437
820.000000	65.924247
810.000000	65.990402
800.000000	66.253626
790.000000	66.088810
780.000000	66.106960
770.000000	66.110348
760.000000	66.153726
750.000000	66.004502
740.000000	65.924347
730.000000	65.865278
720.000000	65.780974
710.000000	65.840196
700.000000	65.668131
690.000000	65.706420
680.000000	65.570400
670.000000	65.393921
660.000000	65.384989
650.000000	65.242406
640.000000	65.038336
630.000000	64.913456
620.000000	64.757641
610.000000	64.530507
600.000000	64.444083
590.000000	64.266430
580.000000	64.141413
570.000000	63.933525
560.000000	63.942609
550.000000	63.728241
540.000000	63.538698
530.000000	63.368356
520.000000	63.155683
510.000000	62.993469
500.000000	62.680115
490.000000	62.302804
480.000000	61.917396
470.000000	61.575671
460.000000	61.138870
450.000000	60.339847
440.000000	59.481476
430.000000	58.565855
420.000000	57.046299
410.000000	56.106207
400.000000	55.633664
390.000000	54.871472
380.000000	54.009114
370.000000	53.069238
360.000000	51.397455
350.000000	49.667725
340.000000	48.077600
330.000000	45.876275
320.000000	44.208155
310.000000	41.381805
300.000000	39.066106
290.000000	32.734627
280.000000	27.387513
270.000000	25.606063
260.000000	24.763169
250.000000	23.664492
