PE UV       SUBTECH     SPECTRUM    ASCII       PEDS        4.00        
   -1
RTmshap11.Sample.asc
18/03/12
15:46:30.00
18/03/12
15:46:30.00
Administrator

200.000000
1
Lambda 750
750N8071901
PerkinElmer UV WinLab 6.0.4.0738 / 1.61.00 Lambda 900

0
0
3350/servo 860.8/2
0
0
UV/VIS
1
1
1
CommonBeamDepol,150mm sphere / downward view
0
0
0
0
Program
Program
3350/servo 860.8/2
3350/0.2 860.8/0.2
3350/0.2 860.8/0.2
0
1
 
 
 
0
 
860.8
319.2
860.8
Front
100
on
 
 
0
0
0
 
0
 
 
 
0
 
 
0
0
0
0
0
 
 
 
 
0
0


0
0
#HDR
-1
-1
#GR
nm
%R
1.0
0.0
2350.000000
-1.000000
2151
8
69.566463
10.867622
#DATA
2350.000000	26.736838
2349.000000	26.801083
2348.000000	26.463551
2347.000000	27.040061
2346.000000	26.905163
2345.000000	26.328021
2344.000000	26.662632
2343.000000	26.458949
2342.000000	26.649812
2341.000000	27.016230
2340.000000	27.037999
2339.000000	27.204622
2338.000000	27.184822
2337.000000	27.279663
2336.000000	27.353282
2335.000000	27.759125
2334.000000	27.689697
2333.000000	28.016731
2332.000000	27.929970
2331.000000	27.592603
2330.000000	27.562084
2329.000000	27.493745
2328.000000	27.414280
2327.000000	27.299301
2326.000000	27.434458
2325.000000	27.567998
2324.000000	27.619705
2323.000000	27.331275
2322.000000	26.928299
2321.000000	26.898328
2320.000000	27.077523
2319.000000	26.954414
2318.000000	27.065291
2317.000000	26.997413
2316.000000	26.819050
2315.000000	26.612843
2314.000000	26.641137
2313.000000	26.616253
2312.000000	26.655942
2311.000000	26.576319
2310.000000	26.426340
2309.000000	26.413267
2308.000000	26.403645
2307.000000	26.236771
2306.000000	26.194999
2305.000000	26.104879
2304.000000	26.238554
2303.000000	26.288416
2302.000000	26.114585
2301.000000	26.127808
2300.000000	26.068866
2299.000000	25.968898
2298.000000	25.917552
2297.000000	25.878911
2296.000000	25.691729
2295.000000	25.605240
2294.000000	25.612804
2293.000000	25.777585
2292.000000	25.620207
2291.000000	25.688740
2290.000000	25.694351
2289.000000	25.746327
2288.000000	25.691632
2287.000000	25.766809
2286.000000	25.710513
2285.000000	25.573434
2284.000000	25.478484
2283.000000	25.506016
2282.000000	25.507557
2281.000000	25.633844
2280.000000	25.609011
2279.000000	25.595856
2278.000000	25.499075
2277.000000	25.502934
2276.000000	25.629943
2275.000000	25.760096
2274.000000	25.665828
2273.000000	25.786340
2272.000000	25.924852
2271.000000	26.028410
2270.000000	26.047209
2269.000000	26.042174
2268.000000	25.988311
2267.000000	26.072498
2266.000000	26.201697
2265.000000	26.261847
2264.000000	26.473126
2263.000000	26.703088
2262.000000	26.737995
2261.000000	26.975424
2260.000000	27.088730
2259.000000	27.181306
2258.000000	27.504189
2257.000000	27.710588
2256.000000	27.725661
2255.000000	27.831983
2254.000000	27.993915
2253.000000	28.287331
2252.000000	28.584618
2251.000000	28.679718
2250.000000	28.754369
2249.000000	29.012202
2248.000000	29.295006
2247.000000	29.494770
2246.000000	29.749049
2245.000000	29.908298
2244.000000	30.059530
2243.000000	30.258542
2242.000000	30.352555
2241.000000	30.474431
2240.000000	30.727415
2239.000000	30.786245
2238.000000	30.855581
2237.000000	31.157808
2236.000000	31.299149
2235.000000	31.309579
2234.000000	31.391567
2233.000000	31.429068
2232.000000	31.504917
2231.000000	31.659294
2230.000000	31.659695
2229.000000	31.657654
2228.000000	31.797027
2227.000000	31.862442
2226.000000	31.801249
2225.000000	31.800896
2224.000000	31.727972
2223.000000	31.764851
2222.000000	31.809476
2221.000000	31.654672
2220.000000	31.627977
2219.000000	31.643621
2218.000000	31.490865
2217.000000	31.492223
2216.000000	31.606867
2215.000000	31.530965
2214.000000	31.582439
2213.000000	31.475002
2212.000000	31.337589
2211.000000	31.219630
2210.000000	31.236251
2209.000000	31.239109
2208.000000	31.066980
2207.000000	31.010059
2206.000000	30.934035
2205.000000	30.821970
2204.000000	30.837036
2203.000000	30.816212
2202.000000	30.743247
2201.000000	30.617098
2200.000000	30.580778
2199.000000	30.595627
2198.000000	30.532878
2197.000000	30.366255
2196.000000	30.297472
2195.000000	30.241136
2194.000000	30.160710
2193.000000	30.006284
2192.000000	29.967873
2191.000000	29.978468
2190.000000	29.923801
2189.000000	29.791052
2188.000000	29.670135
2187.000000	29.655503
2186.000000	29.645172
2185.000000	29.562740
2184.000000	29.549071
2183.000000	29.633362
2182.000000	29.531566
2181.000000	29.434854
2180.000000	29.461412
2179.000000	29.497066
2178.000000	29.344473
2177.000000	29.418986
2176.000000	29.320641
2175.000000	29.414040
2174.000000	29.470897
2173.000000	29.341338
2172.000000	29.472136
2171.000000	29.542637
2170.000000	29.740747
2169.000000	29.763893
2168.000000	29.926183
2167.000000	29.809339
2166.000000	29.744959
2165.000000	30.013689
2164.000000	30.245935
2163.000000	30.112598
2162.000000	30.349459
2161.000000	30.340456
2160.000000	30.615490
2159.000000	30.685535
2158.000000	30.641522
2157.000000	30.864521
2156.000000	31.124209
2155.000000	31.225952
2154.000000	31.301589
2153.000000	31.564925
2152.000000	31.465368
2151.000000	31.585022
2150.000000	31.816742
2149.000000	31.894038
2148.000000	32.098756
2147.000000	32.156471
2146.000000	32.301393
2145.000000	32.602047
2144.000000	32.704894
2143.000000	32.713584
2142.000000	32.859241
2141.000000	33.028108
2140.000000	33.262897
2139.000000	33.332865
2138.000000	33.366653
2137.000000	33.425675
2136.000000	33.443186
2135.000000	33.601056
2134.000000	33.533367
2133.000000	33.538945
2132.000000	33.884865
2131.000000	34.043344
2130.000000	34.045949
2129.000000	34.063289
2128.000000	34.005072
2127.000000	34.284012
2126.000000	34.125392
2125.000000	34.127379
2124.000000	34.250023
2123.000000	34.298978
2122.000000	34.406345
2121.000000	34.425058
2120.000000	34.357419
2119.000000	34.491662
2118.000000	34.566193
2117.000000	34.552394
2116.000000	34.641928
2115.000000	34.728378
2114.000000	34.729563
2113.000000	34.621395
2112.000000	34.656097
2111.000000	34.675112
2110.000000	34.670299
2109.000000	34.726300
2108.000000	34.719849
2107.000000	34.735016
2106.000000	34.815972
2105.000000	34.802551
2104.000000	34.715409
2103.000000	34.766466
2102.000000	34.902200
2101.000000	34.806367
2100.000000	34.786037
2099.000000	34.856845
2098.000000	34.897505
2097.000000	34.926848
2096.000000	34.861063
2095.000000	34.781374
2094.000000	34.815582
2093.000000	34.837231
2092.000000	34.886622
2091.000000	34.865997
2090.000000	34.801080
2089.000000	34.751739
2088.000000	34.700387
2087.000000	34.678204
2086.000000	34.670974
2085.000000	34.701769
2084.000000	34.570472
2083.000000	34.438577
2082.000000	34.424654
2081.000000	34.375678
2080.000000	34.327617
2079.000000	34.243954
2078.000000	34.123048
2077.000000	34.032504
2076.000000	33.982942
2075.000000	33.815709
2074.000000	33.677882
2073.000000	33.645354
2072.000000	33.587390
2071.000000	33.434485
2070.000000	33.291254
2069.000000	33.124593
2068.000000	32.989047
2067.000000	32.909614
2066.000000	32.682787
2065.000000	32.559646
2064.000000	32.475984
2063.000000	32.319109
2062.000000	32.185904
2061.000000	31.971697
2060.000000	31.828540
2059.000000	31.653818
2058.000000	31.473613
2057.000000	31.366087
2056.000000	31.261534
2055.000000	31.075287
2054.000000	30.941115
2053.000000	30.846712
2052.000000	30.720763
2051.000000	30.582530
2050.000000	30.482426
2049.000000	30.422111
2048.000000	30.284683
2047.000000	30.216781
2046.000000	30.131073
2045.000000	30.075876
2044.000000	30.100223
2043.000000	30.069547
2042.000000	30.013487
2041.000000	30.044546
2040.000000	30.099434
2039.000000	30.129593
2038.000000	30.200588
2037.000000	30.230089
2036.000000	30.280767
2035.000000	30.361659
2034.000000	30.449862
2033.000000	30.531068
2032.000000	30.633312
2031.000000	30.699443
2030.000000	30.770374
2029.000000	30.882933
2028.000000	30.949838
2027.000000	31.054949
2026.000000	31.164088
2025.000000	31.233988
2024.000000	31.284578
2023.000000	31.329661
2022.000000	31.388406
2021.000000	31.421853
2020.000000	31.444398
2019.000000	31.460667
2018.000000	31.484869
2017.000000	31.498517
2016.000000	31.467628
2015.000000	31.410871
2014.000000	31.402295
2013.000000	31.407937
2012.000000	31.392591
2011.000000	31.329456
2010.000000	31.241028
2009.000000	31.156136
2008.000000	31.063188
2007.000000	31.008838
2006.000000	30.903622
2005.000000	30.815307
2004.000000	30.750904
2003.000000	30.667845
2002.000000	30.580863
2001.000000	30.488406
2000.000000	30.374151
1999.000000	30.249403
1998.000000	30.154534
1997.000000	30.056617
1996.000000	29.979532
1995.000000	29.836068
1994.000000	29.677764
1993.000000	29.589193
1992.000000	29.499616
1991.000000	29.387610
1990.000000	29.287989
1989.000000	29.176290
1988.000000	29.044892
1987.000000	28.961368
1986.000000	28.872150
1985.000000	28.771982
1984.000000	28.641605
1983.000000	28.542859
1982.000000	28.421627
1981.000000	28.345937
1980.000000	28.222743
1979.000000	28.108635
1978.000000	28.016552
1977.000000	27.877526
1976.000000	27.763104
1975.000000	27.698304
1974.000000	27.595804
1973.000000	27.495651
1972.000000	27.381701
1971.000000	27.306529
1970.000000	27.201288
1969.000000	27.079972
1968.000000	26.957518
1967.000000	26.903052
1966.000000	26.834268
1965.000000	26.721107
1964.000000	26.612352
1963.000000	26.511591
1962.000000	26.438776
1961.000000	26.316163
1960.000000	26.283023
1959.000000	26.206552
1958.000000	26.099014
1957.000000	26.038080
1956.000000	26.010110
1955.000000	25.947095
1954.000000	25.872796
1953.000000	25.812022
1952.000000	25.760008
1951.000000	25.715463
1950.000000	25.697219
1949.000000	25.605914
1948.000000	25.614688
1947.000000	25.566729
1946.000000	25.539567
1945.000000	25.547419
1944.000000	25.518461
1943.000000	25.550223
1942.000000	25.625786
1941.000000	25.618842
1940.000000	25.742795
1939.000000	25.768889
1938.000000	25.764246
1937.000000	25.875129
1936.000000	25.951562
1935.000000	26.002482
1934.000000	26.062962
1933.000000	26.166126
1932.000000	26.306486
1931.000000	26.382261
1930.000000	26.541445
1929.000000	26.674793
1928.000000	26.893406
1927.000000	27.019677
1926.000000	27.272792
1925.000000	27.508247
1924.000000	27.748170
1923.000000	27.986873
1922.000000	28.187205
1921.000000	28.527462
1920.000000	28.778296
1919.000000	29.034217
1918.000000	29.318524
1917.000000	29.631633
1916.000000	29.911304
1915.000000	30.284102
1914.000000	30.655408
1913.000000	31.140681
1912.000000	31.431175
1911.000000	31.830710
1910.000000	32.229916
1909.000000	32.705585
1908.000000	33.186634
1907.000000	33.634131
1906.000000	34.147778
1905.000000	34.756920
1904.000000	35.214560
1903.000000	35.818202
1902.000000	36.382598
1901.000000	36.886776
1900.000000	37.555196
1899.000000	38.122197
1898.000000	38.738669
1897.000000	39.289552
1896.000000	39.865632
1895.000000	40.467446
1894.000000	41.069297
1893.000000	41.671496
1892.000000	42.236697
1891.000000	42.777134
1890.000000	43.384158
1889.000000	43.933291
1888.000000	44.437324
1887.000000	44.977042
1886.000000	45.433329
1885.000000	45.930764
1884.000000	46.435965
1883.000000	46.940940
1882.000000	47.403410
1881.000000	47.838104
1880.000000	48.260432
1879.000000	48.703572
1878.000000	49.143030
1877.000000	49.469836
1876.000000	49.870248
1875.000000	50.196655
1874.000000	50.553434
1873.000000	50.850952
1872.000000	51.126123
1871.000000	51.408960
1870.000000	51.634594
1869.000000	51.910739
1868.000000	52.111621
1867.000000	52.283692
1866.000000	52.476651
1865.000000	52.592083
1864.000000	52.703503
1863.000000	52.869550
1862.000000	53.004736
1861.000000	53.070769
1860.000000	53.179676
1859.000000	53.243708
1858.000000	53.319734
1857.000000	53.368092
1856.000000	53.438170
1855.000000	53.512542
1854.000000	53.568440
1853.000000	53.610663
1852.000000	53.590658
1851.000000	53.654362
1850.000000	53.677908
1849.000000	53.705396
1848.000000	53.697063
1847.000000	53.713228
1846.000000	53.718829
1845.000000	53.692383
1844.000000	53.666032
1843.000000	53.652959
1842.000000	53.647407
1841.000000	53.594784
1840.000000	53.549799
1839.000000	53.535239
1838.000000	53.519696
1837.000000	53.450294
1836.000000	53.395080
1835.000000	53.333609
1834.000000	53.292633
1833.000000	53.253745
1832.000000	53.194134
1831.000000	53.158362
1830.000000	53.099041
1829.000000	53.057433
1828.000000	53.023995
1827.000000	52.961491
1826.000000	52.904772
1825.000000	52.889295
1824.000000	52.851658
1823.000000	52.794594
1822.000000	52.758960
1821.000000	52.731679
1820.000000	52.707468
1819.000000	52.653627
1818.000000	52.619211
1817.000000	52.556346
1816.000000	52.508134
1815.000000	52.476680
1814.000000	52.434304
1813.000000	52.399415
1812.000000	52.376158
1811.000000	52.338287
1810.000000	52.290716
1809.000000	52.261918
1808.000000	52.199296
1807.000000	52.146003
1806.000000	52.137355
1805.000000	52.088426
1804.000000	52.032389
1803.000000	52.010342
1802.000000	51.983763
1801.000000	51.958836
1800.000000	51.926989
1799.000000	51.891711
1798.000000	51.858543
1797.000000	51.798721
1796.000000	51.776235
1795.000000	51.751599
1794.000000	51.728258
1793.000000	51.691691
1792.000000	51.656280
1791.000000	51.640442
1790.000000	51.605836
1789.000000	51.565254
1788.000000	51.555344
1787.000000	51.515815
1786.000000	51.485038
1785.000000	51.468607
1784.000000	51.423713
1783.000000	51.368019
1782.000000	51.331321
1781.000000	51.295379
1780.000000	51.236844
1779.000000	51.207576
1778.000000	51.122164
1777.000000	51.044680
1776.000000	51.019204
1775.000000	50.955879
1774.000000	50.895980
1773.000000	50.826494
1772.000000	50.737646
1771.000000	50.668417
1770.000000	50.604870
1769.000000	50.577254
1768.000000	50.495501
1767.000000	50.420168
1766.000000	50.334646
1765.000000	50.284617
1764.000000	50.243466
1763.000000	50.166532
1762.000000	50.112422
1761.000000	50.072635
1760.000000	50.002534
1759.000000	49.956362
1758.000000	49.916419
1757.000000	49.855966
1756.000000	49.807092
1755.000000	49.751068
1754.000000	49.682248
1753.000000	49.638013
1752.000000	49.600499
1751.000000	49.563034
1750.000000	49.479153
1749.000000	49.432372
1748.000000	49.366429
1747.000000	49.308086
1746.000000	49.225115
1745.000000	49.134063
1744.000000	49.087014
1743.000000	49.024091
1742.000000	48.912375
1741.000000	48.849389
1740.000000	48.799236
1739.000000	48.757757
1738.000000	48.709090
1737.000000	48.633460
1736.000000	48.611371
1735.000000	48.595542
1734.000000	48.567805
1733.000000	48.544533
1732.000000	48.542254
1731.000000	48.539169
1730.000000	48.550248
1729.000000	48.606492
1728.000000	48.666870
1727.000000	48.725522
1726.000000	48.770140
1725.000000	48.886175
1724.000000	49.006972
1723.000000	49.076803
1722.000000	49.187695
1721.000000	49.312863
1720.000000	49.459605
1719.000000	49.586180
1718.000000	49.694090
1717.000000	49.830626
1716.000000	49.953141
1715.000000	50.080139
1714.000000	50.201364
1713.000000	50.337568
1712.000000	50.408068
1711.000000	50.512759
1710.000000	50.640478
1709.000000	50.703358
1708.000000	50.786759
1707.000000	50.855163
1706.000000	50.908492
1705.000000	50.955167
1704.000000	51.029480
1703.000000	51.053393
1702.000000	51.070786
1701.000000	51.141818
1700.000000	51.172314
1699.000000	51.195481
1698.000000	51.220340
1697.000000	51.280973
1696.000000	51.307979
1695.000000	51.363180
1694.000000	51.439469
1693.000000	51.473547
1692.000000	51.535956
1691.000000	51.657026
1690.000000	51.765730
1689.000000	51.852002
1688.000000	52.001216
1687.000000	52.115741
1686.000000	52.273261
1685.000000	52.454541
1684.000000	52.619215
1683.000000	52.785518
1682.000000	52.959522
1681.000000	53.209551
1680.000000	53.383388
1679.000000	53.586903
1678.000000	53.783534
1677.000000	53.979846
1676.000000	54.193739
1675.000000	54.428425
1674.000000	54.620092
1673.000000	54.817340
1672.000000	55.011031
1671.000000	55.191679
1670.000000	55.389018
1669.000000	55.600767
1668.000000	55.722140
1667.000000	55.896433
1666.000000	56.029175
1665.000000	56.149139
1664.000000	56.264664
1663.000000	56.351110
1662.000000	56.457973
1661.000000	56.557263
1660.000000	56.616738
1659.000000	56.688379
1658.000000	56.755339
1657.000000	56.810380
1656.000000	56.865189
1655.000000	56.890404
1654.000000	56.899689
1653.000000	56.929620
1652.000000	56.945808
1651.000000	56.951460
1650.000000	56.971109
1649.000000	56.968880
1648.000000	56.959399
1647.000000	56.959689
1646.000000	56.946782
1645.000000	56.917178
1644.000000	56.895323
1643.000000	56.887032
1642.000000	56.845161
1641.000000	56.817986
1640.000000	56.777874
1639.000000	56.759417
1638.000000	56.712403
1637.000000	56.684913
1636.000000	56.643771
1635.000000	56.605518
1634.000000	56.536243
1633.000000	56.488869
1632.000000	56.452395
1631.000000	56.402869
1630.000000	56.361321
1629.000000	56.306221
1628.000000	56.261472
1627.000000	56.202156
1626.000000	56.147221
1625.000000	56.105129
1624.000000	56.045556
1623.000000	55.986679
1622.000000	55.927068
1621.000000	55.859833
1620.000000	55.782523
1619.000000	55.709184
1618.000000	55.652711
1617.000000	55.596925
1616.000000	55.528559
1615.000000	55.453469
1614.000000	55.384854
1613.000000	55.318300
1612.000000	55.242123
1611.000000	55.162113
1610.000000	55.080385
1609.000000	55.030337
1608.000000	54.961956
1607.000000	54.867086
1606.000000	54.788035
1605.000000	54.713108
1604.000000	54.621220
1603.000000	54.549347
1602.000000	54.473116
1601.000000	54.394153
1600.000000	54.338066
1599.000000	54.262785
1598.000000	54.172968
1597.000000	54.103721
1596.000000	54.030192
1595.000000	53.968097
1594.000000	53.899517
1593.000000	53.826909
1592.000000	53.761263
1591.000000	53.687155
1590.000000	53.624868
1589.000000	53.572372
1588.000000	53.504083
1587.000000	53.444986
1586.000000	53.398290
1585.000000	53.333664
1584.000000	53.268201
1583.000000	53.207045
1582.000000	53.149901
1581.000000	53.084599
1580.000000	53.026707
1579.000000	52.976012
1578.000000	52.922276
1577.000000	52.853365
1576.000000	52.800236
1575.000000	52.746872
1574.000000	52.684387
1573.000000	52.615306
1572.000000	52.552136
1571.000000	52.495565
1570.000000	52.436334
1569.000000	52.385906
1568.000000	52.351989
1567.000000	52.306271
1566.000000	52.254642
1565.000000	52.220218
1564.000000	52.182462
1563.000000	52.143256
1562.000000	52.105412
1561.000000	52.073473
1560.000000	52.049765
1559.000000	52.002214
1558.000000	51.971706
1557.000000	51.931738
1556.000000	51.908854
1555.000000	51.893962
1554.000000	51.853853
1553.000000	51.825557
1552.000000	51.787553
1551.000000	51.737771
1550.000000	51.692360
1549.000000	51.641282
1548.000000	51.590152
1547.000000	51.508627
1546.000000	51.434894
1545.000000	51.355934
1544.000000	51.275537
1543.000000	51.187215
1542.000000	51.106259
1541.000000	51.009516
1540.000000	50.902776
1539.000000	50.795069
1538.000000	50.685015
1537.000000	50.571712
1536.000000	50.473759
1535.000000	50.367017
1534.000000	50.273244
1533.000000	50.173388
1532.000000	50.067837
1531.000000	49.970204
1530.000000	49.875001
1529.000000	49.779040
1528.000000	49.698280
1527.000000	49.622246
1526.000000	49.549189
1525.000000	49.472350
1524.000000	49.383117
1523.000000	49.328419
1522.000000	49.275219
1521.000000	49.214927
1520.000000	49.169923
1519.000000	49.127486
1518.000000	49.058037
1517.000000	49.019602
1516.000000	48.992848
1515.000000	48.940256
1514.000000	48.926321
1513.000000	48.929280
1512.000000	48.905920
1511.000000	48.914227
1510.000000	48.846169
1509.000000	48.805822
1508.000000	48.769504
1507.000000	48.720683
1506.000000	48.686007
1505.000000	48.673809
1504.000000	48.649600
1503.000000	48.616550
1502.000000	48.621255
1501.000000	48.604790
1500.000000	48.569477
1499.000000	48.574589
1498.000000	48.561701
1497.000000	48.544120
1496.000000	48.554241
1495.000000	48.551359
1494.000000	48.563075
1493.000000	48.584494
1492.000000	48.583451
1491.000000	48.602453
1490.000000	48.615955
1489.000000	48.643744
1488.000000	48.670438
1487.000000	48.687433
1486.000000	48.724236
1485.000000	48.742402
1484.000000	48.787253
1483.000000	48.811251
1482.000000	48.856746
1481.000000	48.874579
1480.000000	48.929046
1479.000000	48.968085
1478.000000	49.017623
1477.000000	49.050945
1476.000000	49.080697
1475.000000	49.141377
1474.000000	49.150428
1473.000000	49.188458
1472.000000	49.226430
1471.000000	49.265844
1470.000000	49.311384
1469.000000	49.353369
1468.000000	49.402562
1467.000000	49.428547
1466.000000	49.459777
1465.000000	49.517158
1464.000000	49.581008
1463.000000	49.629244
1462.000000	49.694950
1461.000000	49.735013
1460.000000	49.786584
1459.000000	49.854749
1458.000000	49.912456
1457.000000	49.947224
1456.000000	50.019209
1455.000000	50.089260
1454.000000	50.158955
1453.000000	50.216914
1452.000000	50.299551
1451.000000	50.390666
1450.000000	50.474920
1449.000000	50.577028
1448.000000	50.654465
1447.000000	50.734795
1446.000000	50.825088
1445.000000	50.928473
1444.000000	51.023898
1443.000000	51.127685
1442.000000	51.232340
1441.000000	51.345099
1440.000000	51.466022
1439.000000	51.576611
1438.000000	51.710412
1437.000000	51.825027
1436.000000	51.959198
1435.000000	52.093022
1434.000000	52.236420
1433.000000	52.376535
1432.000000	52.539129
1431.000000	52.714375
1430.000000	52.860948
1429.000000	53.035274
1428.000000	53.194071
1427.000000	53.390603
1426.000000	53.585532
1425.000000	53.763797
1424.000000	53.962663
1423.000000	54.173949
1422.000000	54.409861
1421.000000	54.620309
1420.000000	54.822631
1419.000000	55.046120
1418.000000	55.294437
1417.000000	55.528820
1416.000000	55.768604
1415.000000	56.024534
1414.000000	56.285853
1413.000000	56.537267
1412.000000	56.797853
1411.000000	57.077983
1410.000000	57.319491
1409.000000	57.586780
1408.000000	57.844791
1407.000000	58.111367
1406.000000	58.368240
1405.000000	58.640081
1404.000000	58.892949
1403.000000	59.161198
1402.000000	59.432199
1401.000000	59.680531
1400.000000	59.916270
1399.000000	60.143974
1398.000000	60.372317
1397.000000	60.598531
1396.000000	60.823040
1395.000000	61.045480
1394.000000	61.265439
1393.000000	61.480342
1392.000000	61.673942
1391.000000	61.879007
1390.000000	62.070336
1389.000000	62.248995
1388.000000	62.437034
1387.000000	62.614586
1386.000000	62.767856
1385.000000	62.905996
1384.000000	63.057445
1383.000000	63.204206
1382.000000	63.330550
1381.000000	63.468052
1380.000000	63.583796
1379.000000	63.667994
1378.000000	63.776115
1377.000000	63.892182
1376.000000	63.977994
1375.000000	64.062835
1374.000000	64.165365
1373.000000	64.230853
1372.000000	64.286526
1371.000000	64.372723
1370.000000	64.446531
1369.000000	64.499496
1368.000000	64.544846
1367.000000	64.620735
1366.000000	64.702487
1365.000000	64.764950
1364.000000	64.823124
1363.000000	64.877551
1362.000000	64.942436
1361.000000	65.005488
1360.000000	65.076663
1359.000000	65.135689
1358.000000	65.230918
1357.000000	65.323161
1356.000000	65.373558
1355.000000	65.448304
1354.000000	65.538280
1353.000000	65.588719
1352.000000	65.630018
1351.000000	65.712831
1350.000000	65.798592
1349.000000	65.861099
1348.000000	65.923909
1347.000000	66.004335
1346.000000	66.084250
1345.000000	66.141563
1344.000000	66.174229
1343.000000	66.251014
1342.000000	66.348201
1341.000000	66.400672
1340.000000	66.448144
1339.000000	66.506426
1338.000000	66.569962
1337.000000	66.632895
1336.000000	66.667137
1335.000000	66.742437
1334.000000	66.783828
1333.000000	66.826402
1332.000000	66.882958
1331.000000	66.921397
1330.000000	66.955473
1329.000000	67.002893
1328.000000	67.056290
1327.000000	67.085444
1326.000000	67.119017
1325.000000	67.150986
1324.000000	67.180748
1323.000000	67.178530
1322.000000	67.216477
1321.000000	67.247339
1320.000000	67.254996
1319.000000	67.306864
1318.000000	67.315223
1317.000000	67.326415
1316.000000	67.355642
1315.000000	67.383383
1314.000000	67.415096
1313.000000	67.426683
1312.000000	67.430855
1311.000000	67.440065
1310.000000	67.475760
1309.000000	67.500151
1308.000000	67.498189
1307.000000	67.518107
1306.000000	67.533380
1305.000000	67.571829
1304.000000	67.581786
1303.000000	67.583623
1302.000000	67.596875
1301.000000	67.623890
1300.000000	67.605686
1299.000000	67.630553
1298.000000	67.622834
1297.000000	67.628654
1296.000000	67.630055
1295.000000	67.632721
1294.000000	67.621740
1293.000000	67.615092
1292.000000	67.631040
1291.000000	67.637991
1290.000000	67.624765
1289.000000	67.620784
1288.000000	67.613569
1287.000000	67.593846
1286.000000	67.593074
1285.000000	67.592709
1284.000000	67.600460
1283.000000	67.591554
1282.000000	67.591512
1281.000000	67.598297
1280.000000	67.586267
1279.000000	67.589313
1278.000000	67.585517
1277.000000	67.599753
1276.000000	67.613341
1275.000000	67.584992
1274.000000	67.591776
1273.000000	67.602601
1272.000000	67.594952
1271.000000	67.572230
1270.000000	67.608389
1269.000000	67.600938
1268.000000	67.615715
1267.000000	67.640683
1266.000000	67.603744
1265.000000	67.645642
1264.000000	67.640998
1263.000000	67.630949
1262.000000	67.672657
1261.000000	67.678653
1260.000000	67.701838
1259.000000	67.693475
1258.000000	67.682855
1257.000000	67.685692
1256.000000	67.703660
1255.000000	67.716151
1254.000000	67.719185
1253.000000	67.707264
1252.000000	67.705400
1251.000000	67.711860
1250.000000	67.701487
1249.000000	67.704311
1248.000000	67.690242
1247.000000	67.680693
1246.000000	67.672084
1245.000000	67.681737
1244.000000	67.653046
1243.000000	67.635944
1242.000000	67.629595
1241.000000	67.598658
1240.000000	67.565284
1239.000000	67.563525
1238.000000	67.548766
1237.000000	67.490803
1236.000000	67.472296
1235.000000	67.440226
1234.000000	67.405308
1233.000000	67.378384
1232.000000	67.362139
1231.000000	67.339683
1230.000000	67.302909
1229.000000	67.271287
1228.000000	67.266204
1227.000000	67.234275
1226.000000	67.210618
1225.000000	67.167447
1224.000000	67.155234
1223.000000	67.133840
1222.000000	67.092033
1221.000000	67.059033
1220.000000	67.041528
1219.000000	66.992053
1218.000000	66.958109
1217.000000	66.925893
1216.000000	66.905817
1215.000000	66.850055
1214.000000	66.845925
1213.000000	66.797936
1212.000000	66.754850
1211.000000	66.772752
1210.000000	66.723547
1209.000000	66.652434
1208.000000	66.646305
1207.000000	66.627939
1206.000000	66.553708
1205.000000	66.512602
1204.000000	66.513306
1203.000000	66.461481
1202.000000	66.404014
1201.000000	66.378466
1200.000000	66.357076
1199.000000	66.295239
1198.000000	66.270116
1197.000000	66.237607
1196.000000	66.226330
1195.000000	66.226652
1194.000000	66.195345
1193.000000	66.152410
1192.000000	66.139520
1191.000000	66.122818
1190.000000	66.085747
1189.000000	66.057680
1188.000000	66.055673
1187.000000	66.048149
1186.000000	66.048499
1185.000000	66.069379
1184.000000	66.089348
1183.000000	66.088833
1182.000000	66.112357
1181.000000	66.152372
1180.000000	66.184417
1179.000000	66.230015
1178.000000	66.268883
1177.000000	66.304509
1176.000000	66.351828
1175.000000	66.402123
1174.000000	66.462431
1173.000000	66.529347
1172.000000	66.601017
1171.000000	66.663757
1170.000000	66.736014
1169.000000	66.807215
1168.000000	66.890377
1167.000000	66.976953
1166.000000	67.048549
1165.000000	67.130227
1164.000000	67.223575
1163.000000	67.301153
1162.000000	67.374800
1161.000000	67.470440
1160.000000	67.553972
1159.000000	67.620388
1158.000000	67.705666
1157.000000	67.789698
1156.000000	67.861789
1155.000000	67.932746
1154.000000	67.997677
1153.000000	68.062416
1152.000000	68.138596
1151.000000	68.208420
1150.000000	68.274312
1149.000000	68.333649
1148.000000	68.390061
1147.000000	68.446418
1146.000000	68.500237
1145.000000	68.555810
1144.000000	68.618063
1143.000000	68.655564
1142.000000	68.682148
1141.000000	68.733975
1140.000000	68.787699
1139.000000	68.840671
1138.000000	68.891751
1137.000000	68.929308
1136.000000	68.970936
1135.000000	69.015685
1134.000000	69.078916
1133.000000	69.109492
1132.000000	69.142035
1131.000000	69.188522
1130.000000	69.196548
1129.000000	69.219663
1128.000000	69.257092
1127.000000	69.290364
1126.000000	69.320615
1125.000000	69.342052
1124.000000	69.364680
1123.000000	69.373081
1122.000000	69.394632
1121.000000	69.414153
1120.000000	69.426804
1119.000000	69.447555
1118.000000	69.455384
1117.000000	69.451021
1116.000000	69.455144
1115.000000	69.467122
1114.000000	69.484553
1113.000000	69.503398
1112.000000	69.485115
1111.000000	69.483823
1110.000000	69.485001
1109.000000	69.487622
1108.000000	69.494047
1107.000000	69.505790
1106.000000	69.518697
1105.000000	69.515866
1104.000000	69.514529
1103.000000	69.511767
1102.000000	69.522206
1101.000000	69.515914
1100.000000	69.531012
1099.000000	69.538733
1098.000000	69.541378
1097.000000	69.533975
1096.000000	69.566463
1095.000000	69.561746
1094.000000	69.531259
1093.000000	69.524446
1092.000000	69.534767
1091.000000	69.532008
1090.000000	69.533173
1089.000000	69.555139
1088.000000	69.547940
1087.000000	69.536135
1086.000000	69.520258
1085.000000	69.519248
1084.000000	69.506573
1083.000000	69.514926
1082.000000	69.532002
1081.000000	69.529653
1080.000000	69.514834
1079.000000	69.496778
1078.000000	69.502064
1077.000000	69.500121
1076.000000	69.511364
1075.000000	69.502858
1074.000000	69.492482
1073.000000	69.488721
1072.000000	69.470754
1071.000000	69.450294
1070.000000	69.472705
1069.000000	69.471672
1068.000000	69.469877
1067.000000	69.467385
1066.000000	69.427353
1065.000000	69.433254
1064.000000	69.411039
1063.000000	69.422232
1062.000000	69.412742
1061.000000	69.434855
1060.000000	69.399200
1059.000000	69.376191
1058.000000	69.386798
1057.000000	69.385314
1056.000000	69.367702
1055.000000	69.363690
1054.000000	69.360127
1053.000000	69.331164
1052.000000	69.333444
1051.000000	69.313726
1050.000000	69.299401
1049.000000	69.311021
1048.000000	69.309027
1047.000000	69.299956
1046.000000	69.291434
1045.000000	69.280149
1044.000000	69.265820
1043.000000	69.260622
1042.000000	69.257617
1041.000000	69.260606
1040.000000	69.252907
1039.000000	69.236491
1038.000000	69.228314
1037.000000	69.224282
1036.000000	69.242068
1035.000000	69.232868
1034.000000	69.230679
1033.000000	69.212104
1032.000000	69.207599
1031.000000	69.217021
1030.000000	69.200183
1029.000000	69.217355
1028.000000	69.224252
1027.000000	69.201867
1026.000000	69.202930
1025.000000	69.209339
1024.000000	69.179787
1023.000000	69.179289
1022.000000	69.188527
1021.000000	69.184948
1020.000000	69.199188
1019.000000	69.202518
1018.000000	69.197803
1017.000000	69.185001
1016.000000	69.200098
1015.000000	69.194077
1014.000000	69.194871
1013.000000	69.213236
1012.000000	69.210478
1011.000000	69.190935
1010.000000	69.187082
1009.000000	69.199884
1008.000000	69.202938
1007.000000	69.219358
1006.000000	69.219048
1005.000000	69.207367
1004.000000	69.207624
1003.000000	69.227497
1002.000000	69.218865
1001.000000	69.241857
1000.000000	69.257800
999.000000	69.233649
998.000000	69.237339
997.000000	69.243906
996.000000	69.265025
995.000000	69.255095
994.000000	69.255458
993.000000	69.275508
992.000000	69.283710
991.000000	69.304238
990.000000	69.290475
989.000000	69.295064
988.000000	69.300385
987.000000	69.309559
986.000000	69.305168
985.000000	69.319235
984.000000	69.317628
983.000000	69.316678
982.000000	69.327066
981.000000	69.329601
980.000000	69.322809
979.000000	69.334847
978.000000	69.356033
977.000000	69.362526
976.000000	69.369614
975.000000	69.368705
974.000000	69.363176
973.000000	69.361129
972.000000	69.371280
971.000000	69.398060
970.000000	69.398701
969.000000	69.414976
968.000000	69.420287
967.000000	69.414053
966.000000	69.406891
965.000000	69.406768
964.000000	69.437449
963.000000	69.451115
962.000000	69.461743
961.000000	69.467108
960.000000	69.455238
959.000000	69.473082
958.000000	69.489914
957.000000	69.482495
956.000000	69.479243
955.000000	69.486831
954.000000	69.485546
953.000000	69.486346
952.000000	69.499317
951.000000	69.505214
950.000000	69.512163
949.000000	69.509702
948.000000	69.505062
947.000000	69.506291
946.000000	69.525542
945.000000	69.553079
944.000000	69.551572
943.000000	69.524097
942.000000	69.516910
941.000000	69.512308
940.000000	69.524758
939.000000	69.511976
938.000000	69.506535
937.000000	69.523989
936.000000	69.497494
935.000000	69.492226
934.000000	69.526024
933.000000	69.527813
932.000000	69.510298
931.000000	69.492067
930.000000	69.485260
929.000000	69.483034
928.000000	69.464931
927.000000	69.452151
926.000000	69.457135
925.000000	69.434706
924.000000	69.400030
923.000000	69.422843
922.000000	69.423888
921.000000	69.377809
920.000000	69.399625
919.000000	69.410388
918.000000	69.407385
917.000000	69.417469
916.000000	69.365561
915.000000	69.338595
914.000000	69.345880
913.000000	69.348518
912.000000	69.341446
911.000000	69.342599
910.000000	69.369871
909.000000	69.341564
908.000000	69.313958
907.000000	69.314131
906.000000	69.309843
905.000000	69.306834
904.000000	69.326259
903.000000	69.299675
902.000000	69.355884
901.000000	69.288605
900.000000	69.250423
899.000000	69.288300
898.000000	69.294505
897.000000	69.322071
896.000000	69.279125
895.000000	69.225595
894.000000	69.261042
893.000000	69.285890
892.000000	69.303764
891.000000	69.268704
890.000000	69.299468
889.000000	69.326748
888.000000	69.314309
887.000000	69.281696
886.000000	69.266530
885.000000	69.282136
884.000000	69.301736
883.000000	69.270285
882.000000	69.235859
881.000000	69.286942
880.000000	69.328785
879.000000	69.215843
878.000000	69.282979
877.000000	69.255231
876.000000	69.245264
875.000000	69.191117
874.000000	69.254133
873.000000	69.243974
872.000000	69.224892
871.000000	69.140278
870.000000	69.168915
869.000000	69.168635
868.000000	69.119334
867.000000	69.100457
866.000000	69.014268
865.000000	69.109435
864.000000	69.034886
863.000000	68.994825
862.000000	69.098576
861.000000	69.042247
860.000000	69.130833
859.000000	68.099125
858.000000	68.219946
857.000000	68.040124
856.000000	68.465627
855.000000	68.444235
854.000000	68.082178
853.000000	68.236506
852.000000	67.975214
851.000000	68.380122
850.000000	68.087000
849.000000	68.200714
848.000000	68.015745
847.000000	68.064284
846.000000	67.771492
845.000000	67.912635
844.000000	67.924624
843.000000	67.925197
842.000000	68.142735
841.000000	67.987347
840.000000	67.871669
839.000000	67.900996
838.000000	68.085213
837.000000	67.640173
836.000000	67.602308
835.000000	67.725194
834.000000	67.773004
833.000000	67.732352
832.000000	67.886910
831.000000	67.877454
830.000000	67.805664
829.000000	67.794746
828.000000	67.740957
827.000000	67.591148
826.000000	67.601637
825.000000	67.610830
824.000000	67.653959
823.000000	67.554842
822.000000	67.717877
821.000000	67.592580
820.000000	67.512469
819.000000	67.698804
818.000000	67.716279
817.000000	67.588751
816.000000	67.579559
815.000000	67.478071
814.000000	67.557869
813.000000	67.444295
812.000000	67.467126
811.000000	67.453572
810.000000	67.520098
809.000000	67.435223
808.000000	67.517208
807.000000	67.326565
806.000000	67.258178
805.000000	67.447348
804.000000	67.428552
803.000000	67.441836
802.000000	67.340998
801.000000	67.307499
800.000000	67.403126
799.000000	67.268229
798.000000	67.248682
797.000000	67.345422
796.000000	67.242280
795.000000	67.155677
794.000000	67.200344
793.000000	67.075734
792.000000	67.341013
791.000000	67.199337
790.000000	67.090290
789.000000	67.011901
788.000000	67.113847
787.000000	67.058620
786.000000	67.029384
785.000000	66.968113
784.000000	67.002889
783.000000	66.993090
782.000000	67.006254
781.000000	66.983007
780.000000	66.955571
779.000000	66.864225
778.000000	66.805487
777.000000	66.770297
776.000000	66.794447
775.000000	66.842425
774.000000	66.811799
773.000000	66.839759
772.000000	66.751391
771.000000	66.696447
770.000000	66.595316
769.000000	66.583010
768.000000	66.477334
767.000000	66.560162
766.000000	66.438314
765.000000	66.484639
764.000000	66.473033
763.000000	66.542325
762.000000	66.395087
761.000000	66.437066
760.000000	66.425922
759.000000	66.389113
758.000000	66.285220
757.000000	66.258090
756.000000	66.246954
755.000000	66.189686
754.000000	66.138148
753.000000	66.195128
752.000000	66.193091
751.000000	66.139947
750.000000	66.023035
749.000000	66.005561
748.000000	65.966089
747.000000	65.948634
746.000000	65.884142
745.000000	65.918485
744.000000	65.890261
743.000000	65.906851
742.000000	65.812651
741.000000	65.744814
740.000000	65.690488
739.000000	65.635209
738.000000	65.624325
737.000000	65.608258
736.000000	65.552895
735.000000	65.543484
734.000000	65.452439
733.000000	65.434549
732.000000	65.402282
731.000000	65.351657
730.000000	65.348216
729.000000	65.327638
728.000000	65.254433
727.000000	65.274254
726.000000	65.204942
725.000000	65.094659
724.000000	65.058278
723.000000	64.967598
722.000000	64.897963
721.000000	64.929912
720.000000	64.969109
719.000000	64.891393
718.000000	64.815197
717.000000	64.773721
716.000000	64.687074
715.000000	64.687298
714.000000	64.646719
713.000000	64.526794
712.000000	64.456450
711.000000	64.446915
710.000000	64.470665
709.000000	64.419277
708.000000	64.289637
707.000000	64.211401
706.000000	64.169249
705.000000	64.111557
704.000000	64.055338
703.000000	63.970730
702.000000	63.877747
701.000000	63.870199
700.000000	63.861976
699.000000	63.769341
698.000000	63.683187
697.000000	63.613536
696.000000	63.526389
695.000000	63.474433
694.000000	63.461623
693.000000	63.376417
692.000000	63.262852
691.000000	63.234965
690.000000	63.188708
689.000000	63.105945
688.000000	62.980636
687.000000	62.926182
686.000000	62.932544
685.000000	62.864921
684.000000	62.765300
683.000000	62.728612
682.000000	62.637240
681.000000	62.478774
680.000000	62.433780
679.000000	62.422373
678.000000	62.327160
677.000000	62.307547
676.000000	62.192582
675.000000	62.076186
674.000000	62.060978
673.000000	61.997248
672.000000	61.907780
671.000000	61.812331
670.000000	61.733222
669.000000	61.645821
668.000000	61.540801
667.000000	61.511508
666.000000	61.463835
665.000000	61.367173
664.000000	61.253252
663.000000	61.185689
662.000000	61.074953
661.000000	61.062339
660.000000	61.024532
659.000000	60.935412
658.000000	60.814276
657.000000	60.803357
656.000000	60.692757
655.000000	60.559753
654.000000	60.518017
653.000000	60.448879
652.000000	60.337289
651.000000	60.251297
650.000000	60.201792
649.000000	60.166178
648.000000	59.967273
647.000000	59.956073
646.000000	59.869336
645.000000	59.766560
644.000000	59.719854
643.000000	59.665301
642.000000	59.584282
641.000000	59.473301
640.000000	59.378948
639.000000	59.337537
638.000000	59.207871
637.000000	59.218558
636.000000	59.121214
635.000000	59.022716
634.000000	58.949441
633.000000	58.872900
632.000000	58.792206
631.000000	58.674494
630.000000	58.604386
629.000000	58.539677
628.000000	58.438963
627.000000	58.334878
626.000000	58.210541
625.000000	58.164381
624.000000	58.117019
623.000000	58.007861
622.000000	57.874768
621.000000	57.776568
620.000000	57.629569
619.000000	57.542678
618.000000	57.432867
617.000000	57.373252
616.000000	57.237971
615.000000	57.174099
614.000000	57.033658
613.000000	57.034806
612.000000	56.854556
611.000000	56.771234
610.000000	56.654041
609.000000	56.525500
608.000000	56.446930
607.000000	56.312534
606.000000	56.170216
605.000000	56.072732
604.000000	55.956753
603.000000	55.856918
602.000000	55.700178
601.000000	55.576511
600.000000	55.478873
599.000000	55.329590
598.000000	55.272989
597.000000	55.153131
596.000000	55.030181
595.000000	54.828612
594.000000	54.776263
593.000000	54.669483
592.000000	54.495375
591.000000	54.387979
590.000000	54.270243
589.000000	54.129530
588.000000	54.018439
587.000000	53.901872
586.000000	53.720558
585.000000	53.662914
584.000000	53.494210
583.000000	53.349722
582.000000	53.223355
581.000000	53.073081
580.000000	52.928924
579.000000	52.822791
578.000000	52.638296
577.000000	52.573384
576.000000	52.395200
575.000000	52.298752
574.000000	52.146321
573.000000	52.077356
572.000000	51.891533
571.000000	51.719214
570.000000	51.599862
569.000000	51.497599
568.000000	51.342238
567.000000	51.171840
566.000000	51.041836
565.000000	50.880470
564.000000	50.769212
563.000000	50.610517
562.000000	50.481388
561.000000	50.272694
560.000000	50.170660
559.000000	50.021699
558.000000	49.882798
557.000000	49.753782
556.000000	49.616839
555.000000	49.488406
554.000000	49.320886
553.000000	49.191925
552.000000	49.021274
551.000000	48.898091
550.000000	48.771828
549.000000	48.623451
548.000000	48.458357
547.000000	48.329816
546.000000	48.162653
545.000000	47.991342
544.000000	47.901499
543.000000	47.734058
542.000000	47.551168
541.000000	47.459755
540.000000	47.264386
539.000000	47.140020
538.000000	47.005253
537.000000	46.861390
536.000000	46.647215
535.000000	46.584829
534.000000	46.385308
533.000000	46.253627
532.000000	46.091035
531.000000	45.934089
530.000000	45.775137
529.000000	45.670548
528.000000	45.498551
527.000000	45.365666
526.000000	45.170587
525.000000	45.002493
524.000000	44.848857
523.000000	44.714219
522.000000	44.537750
521.000000	44.397960
520.000000	44.221892
519.000000	44.041687
518.000000	43.893298
517.000000	43.709873
516.000000	43.560572
515.000000	43.397633
514.000000	43.209648
513.000000	43.068367
512.000000	42.881228
511.000000	42.741015
510.000000	42.591784
509.000000	42.423256
508.000000	42.249266
507.000000	42.072834
506.000000	41.898822
505.000000	41.752700
504.000000	41.603858
503.000000	41.450542
502.000000	41.298579
501.000000	41.175919
500.000000	41.000595
499.000000	40.842508
498.000000	40.687275
497.000000	40.550307
496.000000	40.402575
495.000000	40.220655
494.000000	40.054774
493.000000	39.923542
492.000000	39.765624
491.000000	39.654363
490.000000	39.494712
489.000000	39.311672
488.000000	39.170456
487.000000	39.026564
486.000000	38.883752
485.000000	38.768608
484.000000	38.664244
483.000000	38.503626
482.000000	38.375570
481.000000	38.184592
480.000000	37.974658
479.000000	37.782378
478.000000	37.615833
477.000000	37.437435
476.000000	37.260681
475.000000	37.099120
474.000000	36.922090
473.000000	36.767666
472.000000	36.602051
471.000000	36.435353
470.000000	36.253503
469.000000	36.062356
468.000000	35.881201
467.000000	35.723040
466.000000	35.540246
465.000000	35.361603
464.000000	35.191036
463.000000	35.013198
462.000000	34.821624
461.000000	34.652304
460.000000	34.486240
459.000000	34.315216
458.000000	34.128745
457.000000	33.907186
456.000000	33.728973
455.000000	33.562453
454.000000	33.377796
453.000000	33.212550
452.000000	33.010829
451.000000	32.779977
450.000000	32.590151
449.000000	32.399642
448.000000	32.179716
447.000000	31.967917
446.000000	31.757950
445.000000	31.562921
444.000000	31.362290
443.000000	31.120494
442.000000	30.923602
441.000000	30.706796
440.000000	30.473228
439.000000	30.248969
438.000000	30.010837
437.000000	29.800631
436.000000	29.585641
435.000000	29.345674
434.000000	29.146866
433.000000	28.957459
432.000000	28.728859
431.000000	28.482398
430.000000	28.248422
429.000000	28.025593
428.000000	27.818613
427.000000	27.603024
426.000000	27.372187
425.000000	27.158711
424.000000	26.919130
423.000000	26.700909
422.000000	26.526491
421.000000	26.306757
420.000000	26.092990
419.000000	25.882344
418.000000	25.667410
417.000000	25.461413
416.000000	25.281798
415.000000	25.055392
414.000000	24.884289
413.000000	24.713698
412.000000	24.518035
411.000000	24.304107
410.000000	24.141769
409.000000	23.975639
408.000000	23.771901
407.000000	23.621914
406.000000	23.452765
405.000000	23.274634
404.000000	23.072909
403.000000	22.923121
402.000000	22.764427
401.000000	22.580347
400.000000	22.388967
399.000000	22.224727
398.000000	22.055038
397.000000	21.885034
396.000000	21.714205
395.000000	21.537730
394.000000	21.343271
393.000000	21.200614
392.000000	21.054088
391.000000	20.869433
390.000000	20.717842
389.000000	20.530277
388.000000	20.374665
387.000000	20.190606
386.000000	19.975459
385.000000	19.837056
384.000000	19.652011
383.000000	19.503249
382.000000	19.324596
381.000000	19.184159
380.000000	19.029128
379.000000	18.841869
378.000000	18.711090
377.000000	18.694667
376.000000	18.434791
375.000000	18.260119
374.000000	18.021334
373.000000	17.964062
372.000000	17.804201
371.000000	17.617331
370.000000	17.490985
369.000000	17.304581
368.000000	17.103399
367.000000	16.966137
366.000000	16.941886
365.000000	16.680528
364.000000	16.527440
363.000000	16.425750
362.000000	16.362613
361.000000	16.203679
360.000000	15.959457
359.000000	15.920104
358.000000	15.785502
357.000000	15.677488
356.000000	15.561803
355.000000	15.448330
354.000000	15.260765
353.000000	15.217521
352.000000	15.012286
351.000000	14.948531
350.000000	14.872296
349.000000	14.803222
348.000000	14.647084
347.000000	14.506256
346.000000	14.409501
345.000000	14.348553
344.000000	14.199565
343.000000	14.114549
342.000000	14.029816
341.000000	13.892145
340.000000	13.798055
339.000000	13.695085
338.000000	13.680318
337.000000	13.468210
336.000000	13.379097
335.000000	13.231239
334.000000	13.199069
333.000000	13.121599
332.000000	13.016457
331.000000	12.971476
330.000000	12.912070
329.000000	12.706467
328.000000	12.650759
327.000000	12.611214
326.000000	12.510593
325.000000	12.412497
324.000000	12.462471
323.000000	12.358636
322.000000	12.153963
321.000000	12.222609
320.000000	12.197738
319.000000	12.045012
318.000000	11.935589
317.000000	11.985761
316.000000	11.920262
315.000000	11.865242
314.000000	11.853671
313.000000	11.735660
312.000000	11.689926
311.000000	11.583751
310.000000	11.533046
309.000000	11.516372
308.000000	11.481831
307.000000	11.428181
306.000000	11.419182
305.000000	11.428361
304.000000	11.378391
303.000000	11.354619
302.000000	11.347635
301.000000	11.344682
300.000000	11.334363
299.000000	11.306479
298.000000	11.245920
297.000000	11.233260
296.000000	11.180478
295.000000	11.146487
294.000000	11.160109
293.000000	11.091613
292.000000	11.019594
291.000000	10.948201
290.000000	10.961590
289.000000	10.939996
288.000000	10.891305
287.000000	10.867622
286.000000	10.875328
285.000000	10.909022
284.000000	10.896794
283.000000	10.893240
282.000000	10.965956
281.000000	10.980012
280.000000	11.007141
279.000000	11.089319
278.000000	11.076083
277.000000	11.048491
276.000000	11.118660
275.000000	11.137145
274.000000	11.188088
273.000000	11.225772
272.000000	11.255886
271.000000	11.256822
270.000000	11.255244
269.000000	11.309477
268.000000	11.371901
267.000000	11.399027
266.000000	11.421269
265.000000	11.392415
264.000000	11.450719
263.000000	11.475930
262.000000	11.541564
261.000000	11.658424
260.000000	11.676247
259.000000	11.756169
258.000000	11.804648
257.000000	11.899775
256.000000	12.017088
255.000000	12.089304
254.000000	12.193298
253.000000	12.305905
252.000000	12.464630
251.000000	12.595091
250.000000	12.711582
249.000000	12.870561
248.000000	12.937925
247.000000	13.078985
246.000000	13.128749
245.000000	13.139643
244.000000	13.213799
243.000000	13.265340
242.000000	13.278606
241.000000	13.189661
240.000000	13.205166
239.000000	13.147929
238.000000	13.089066
237.000000	12.912505
236.000000	12.799928
235.000000	12.746458
234.000000	12.624121
233.000000	12.470659
232.000000	12.364706
231.000000	12.273703
230.000000	12.116069
229.000000	11.938293
228.000000	11.858879
227.000000	11.714239
226.000000	11.628189
225.000000	11.639214
224.000000	11.615076
223.000000	11.548678
222.000000	11.540774
221.000000	11.509987
220.000000	11.541724
219.000000	11.658369
218.000000	11.689465
217.000000	11.743877
216.000000	11.855312
215.000000	12.030871
214.000000	12.182087
213.000000	12.267044
212.000000	12.414347
211.000000	12.580751
210.000000	12.773540
209.000000	13.046293
208.000000	13.325326
207.000000	13.587419
206.000000	13.940083
205.000000	14.350040
204.000000	14.843858
203.000000	15.449230
202.000000	15.730184
201.000000	16.090176
200.000000	16.511465
