PE UV       SUBTECH     SPECTRUM    ASCII       PEDS        4.00        
   -1
TTmshap11.Sample.asc
18/03/12
16:15:30.00
18/03/12
16:15:30.00
Administrator

200.000000
1
Lambda 750
750N8071901
PerkinElmer UV WinLab 6.0.4.0738 / 1.61.00 Lambda 900

0
0
3350/servo 860.8/2
0
0
UV/VIS
1
1
1
CommonBeamDepol,150mm sphere / downward view
0
0
0
0
Program
Program
3350/servo 860.8/2
3350/0.2 860.8/0.2
3350/0.2 860.8/0.2
0
1
 
 
 
0
 
860.8
319.2
860.8
Front
100
on
 
 
0
0
0
 
0
 
 
 
0
 
 
0
0
0
0
0
 
 
 
 
0
0


0
0
#HDR
-1
-1
#GR
nm
%T
1.0
0.0
2350.000000
-1.000000
2151
8
11.177221
-0.013998
#DATA
2350.000000	2.653505
2349.000000	3.069900
2348.000000	2.852273
2347.000000	3.794101
2346.000000	3.152406
2345.000000	3.029096
2344.000000	2.804719
2343.000000	2.761288
2342.000000	3.143347
2341.000000	3.050091
2340.000000	3.151355
2339.000000	3.317922
2338.000000	3.277648
2337.000000	3.399263
2336.000000	3.851520
2335.000000	3.811911
2334.000000	3.757244
2333.000000	3.739414
2332.000000	3.640924
2331.000000	3.568057
2330.000000	3.531040
2329.000000	3.585178
2328.000000	3.541650
2327.000000	3.430115
2326.000000	3.526862
2325.000000	3.711461
2324.000000	3.724172
2323.000000	3.559867
2322.000000	3.453773
2321.000000	3.686255
2320.000000	3.691064
2319.000000	3.572499
2318.000000	3.574212
2317.000000	3.838449
2316.000000	3.515250
2315.000000	3.425578
2314.000000	3.433966
2313.000000	3.132841
2312.000000	2.919661
2311.000000	3.146071
2310.000000	3.326753
2309.000000	3.360886
2308.000000	3.330228
2307.000000	3.128750
2306.000000	3.175219
2305.000000	3.036712
2304.000000	3.048958
2303.000000	3.244027
2302.000000	3.265774
2301.000000	2.976916
2300.000000	3.008622
2299.000000	3.227404
2298.000000	3.023314
2297.000000	2.995609
2296.000000	2.990386
2295.000000	3.071150
2294.000000	3.078520
2293.000000	3.121851
2292.000000	2.904691
2291.000000	2.963066
2290.000000	3.170775
2289.000000	3.021502
2288.000000	3.033915
2287.000000	3.057548
2286.000000	3.075101
2285.000000	2.980755
2284.000000	3.002474
2283.000000	2.869765
2282.000000	2.801952
2281.000000	2.793634
2280.000000	2.884588
2279.000000	2.963558
2278.000000	2.935879
2277.000000	2.949341
2276.000000	2.887952
2275.000000	3.016173
2274.000000	2.994412
2273.000000	2.901321
2272.000000	2.978947
2271.000000	3.017255
2270.000000	3.003050
2269.000000	3.038538
2268.000000	3.043944
2267.000000	3.000812
2266.000000	3.107550
2265.000000	3.004630
2264.000000	3.000897
2263.000000	3.167355
2262.000000	3.303830
2261.000000	3.185534
2260.000000	3.201849
2259.000000	3.244696
2258.000000	3.343934
2257.000000	3.418543
2256.000000	3.395789
2255.000000	3.362490
2254.000000	3.489081
2253.000000	3.540432
2252.000000	3.570593
2251.000000	3.649920
2250.000000	3.677904
2249.000000	3.655604
2248.000000	3.686184
2247.000000	3.859497
2246.000000	3.859419
2245.000000	3.835099
2244.000000	3.970102
2243.000000	4.052229
2242.000000	3.955401
2241.000000	4.026537
2240.000000	4.089386
2239.000000	4.122584
2238.000000	4.135414
2237.000000	4.143239
2236.000000	4.203934
2235.000000	4.228120
2234.000000	4.215168
2233.000000	4.066460
2232.000000	4.172760
2231.000000	4.251194
2230.000000	4.307998
2229.000000	4.418599
2228.000000	4.418023
2227.000000	4.419039
2226.000000	4.370698
2225.000000	4.289242
2224.000000	4.280480
2223.000000	4.296142
2222.000000	4.321240
2221.000000	4.293467
2220.000000	4.352172
2219.000000	4.387416
2218.000000	4.217302
2217.000000	4.171879
2216.000000	4.335682
2215.000000	4.350396
2214.000000	4.270935
2213.000000	4.285231
2212.000000	4.243031
2211.000000	4.242149
2210.000000	4.242071
2209.000000	4.142350
2208.000000	4.178150
2207.000000	4.110217
2206.000000	4.127637
2205.000000	4.210684
2204.000000	4.112702
2203.000000	4.086105
2202.000000	4.097499
2201.000000	4.037338
2200.000000	3.857604
2199.000000	3.766524
2198.000000	3.879579
2197.000000	3.892261
2196.000000	3.825522
2195.000000	3.753355
2194.000000	3.755571
2193.000000	3.755085
2192.000000	3.720797
2191.000000	3.713829
2190.000000	3.666994
2189.000000	3.553046
2188.000000	3.659031
2187.000000	3.573495
2186.000000	3.555737
2185.000000	3.766666
2184.000000	3.764589
2183.000000	3.733566
2182.000000	3.828926
2181.000000	3.708153
2180.000000	3.633217
2179.000000	3.483538
2178.000000	3.594981
2177.000000	3.720159
2176.000000	3.712806
2175.000000	3.691765
2174.000000	3.668039
2173.000000	3.588749
2172.000000	3.714214
2171.000000	3.506195
2170.000000	3.630330
2169.000000	3.783802
2168.000000	3.908179
2167.000000	4.008586
2166.000000	3.816010
2165.000000	3.799171
2164.000000	3.694009
2163.000000	3.643146
2162.000000	3.672041
2161.000000	3.665445
2160.000000	3.836038
2159.000000	4.034211
2158.000000	4.041338
2157.000000	4.094672
2156.000000	4.011537
2155.000000	3.936593
2154.000000	4.205599
2153.000000	4.245628
2152.000000	4.299435
2151.000000	4.205369
2150.000000	4.149608
2149.000000	3.942620
2148.000000	4.207664
2147.000000	4.316280
2146.000000	4.122158
2145.000000	4.222225
2144.000000	4.289819
2143.000000	4.250817
2142.000000	4.484193
2141.000000	4.389258
2140.000000	4.375436
2139.000000	4.559478
2138.000000	4.570205
2137.000000	4.517901
2136.000000	4.665956
2135.000000	4.638278
2134.000000	4.559938
2133.000000	4.375488
2132.000000	4.562093
2131.000000	4.645033
2130.000000	4.700005
2129.000000	4.528540
2128.000000	4.680979
2127.000000	4.528987
2126.000000	4.561766
2125.000000	4.600581
2124.000000	4.667371
2123.000000	4.640643
2122.000000	4.605863
2121.000000	4.617955
2120.000000	4.486197
2119.000000	4.580462
2118.000000	4.690793
2117.000000	4.546919
2116.000000	4.610771
2115.000000	4.692788
2114.000000	4.652398
2113.000000	4.782354
2112.000000	4.653570
2111.000000	4.708802
2110.000000	4.620954
2109.000000	4.557637
2108.000000	4.564675
2107.000000	4.661101
2106.000000	4.576377
2105.000000	4.633565
2104.000000	4.698045
2103.000000	4.688797
2102.000000	4.719186
2101.000000	4.753989
2100.000000	4.636641
2099.000000	4.608618
2098.000000	4.652739
2097.000000	4.709315
2096.000000	4.725828
2095.000000	4.692952
2094.000000	4.633268
2093.000000	4.615220
2092.000000	4.644940
2091.000000	4.606867
2090.000000	4.572673
2089.000000	4.649121
2088.000000	4.591300
2087.000000	4.545798
2086.000000	4.687385
2085.000000	4.680317
2084.000000	4.603939
2083.000000	4.600214
2082.000000	4.618861
2081.000000	4.578059
2080.000000	4.478717
2079.000000	4.441560
2078.000000	4.485191
2077.000000	4.445896
2076.000000	4.414953
2075.000000	4.394671
2074.000000	4.327839
2073.000000	4.361340
2072.000000	4.326187
2071.000000	4.228921
2070.000000	4.212741
2069.000000	4.160071
2068.000000	4.092489
2067.000000	4.131033
2066.000000	4.063460
2065.000000	3.991563
2064.000000	3.934067
2063.000000	3.811592
2062.000000	3.905162
2061.000000	3.885698
2060.000000	3.843261
2059.000000	3.816355
2058.000000	3.723577
2057.000000	3.631390
2056.000000	3.563439
2055.000000	3.592330
2054.000000	3.608923
2053.000000	3.580901
2052.000000	3.486829
2051.000000	3.458249
2050.000000	3.402833
2049.000000	3.398183
2048.000000	3.417736
2047.000000	3.397838
2046.000000	3.305916
2045.000000	3.310719
2044.000000	3.305181
2043.000000	3.301352
2042.000000	3.320149
2041.000000	3.279463
2040.000000	3.308800
2039.000000	3.367857
2038.000000	3.366243
2037.000000	3.306133
2036.000000	3.314936
2035.000000	3.338133
2034.000000	3.321274
2033.000000	3.374463
2032.000000	3.466086
2031.000000	3.481850
2030.000000	3.497306
2029.000000	3.544727
2028.000000	3.548209
2027.000000	3.524719
2026.000000	3.537807
2025.000000	3.601319
2024.000000	3.637662
2023.000000	3.610290
2022.000000	3.590961
2021.000000	3.594395
2020.000000	3.537356
2019.000000	3.509302
2018.000000	3.595797
2017.000000	3.651899
2016.000000	3.624626
2015.000000	3.603580
2014.000000	3.586835
2013.000000	3.607500
2012.000000	3.604390
2011.000000	3.597449
2010.000000	3.574684
2009.000000	3.546464
2008.000000	3.509047
2007.000000	3.466756
2006.000000	3.451566
2005.000000	3.478408
2004.000000	3.418005
2003.000000	3.371008
2002.000000	3.407029
2001.000000	3.335146
2000.000000	3.307497
1999.000000	3.338293
1998.000000	3.308253
1997.000000	3.266256
1996.000000	3.233206
1995.000000	3.209075
1994.000000	3.205550
1993.000000	3.162236
1992.000000	3.102174
1991.000000	3.088028
1990.000000	3.059130
1989.000000	3.024741
1988.000000	3.024157
1987.000000	2.991275
1986.000000	2.971028
1985.000000	2.977921
1984.000000	2.943459
1983.000000	2.942014
1982.000000	2.915408
1981.000000	2.905463
1980.000000	2.842496
1979.000000	2.822058
1978.000000	2.829951
1977.000000	2.776579
1976.000000	2.763965
1975.000000	2.755799
1974.000000	2.719911
1973.000000	2.738867
1972.000000	2.711337
1971.000000	2.679281
1970.000000	2.701433
1969.000000	2.657572
1968.000000	2.640301
1967.000000	2.603185
1966.000000	2.586141
1965.000000	2.549488
1964.000000	2.566313
1963.000000	2.579996
1962.000000	2.562583
1961.000000	2.513332
1960.000000	2.480415
1959.000000	2.458725
1958.000000	2.443717
1957.000000	2.441361
1956.000000	2.437204
1955.000000	2.437903
1954.000000	2.409957
1953.000000	2.431233
1952.000000	2.427387
1951.000000	2.431106
1950.000000	2.432170
1949.000000	2.456144
1948.000000	2.382159
1947.000000	2.457538
1946.000000	2.437897
1945.000000	2.457012
1944.000000	2.444542
1943.000000	2.502697
1942.000000	2.460260
1941.000000	2.405373
1940.000000	2.462917
1939.000000	2.546264
1938.000000	2.548041
1937.000000	2.541880
1936.000000	2.573762
1935.000000	2.548520
1934.000000	2.541048
1933.000000	2.545570
1932.000000	2.607669
1931.000000	2.630771
1930.000000	2.656742
1929.000000	2.677526
1928.000000	2.689351
1927.000000	2.704655
1926.000000	2.764550
1925.000000	2.822268
1924.000000	2.879740
1923.000000	2.982078
1922.000000	2.929429
1921.000000	3.086517
1920.000000	3.051130
1919.000000	3.124233
1918.000000	3.181610
1917.000000	3.302217
1916.000000	3.303600
1915.000000	3.436558
1914.000000	3.547620
1913.000000	3.600348
1912.000000	3.682504
1911.000000	3.824672
1910.000000	3.885739
1909.000000	3.931619
1908.000000	3.989277
1907.000000	4.113017
1906.000000	4.208263
1905.000000	4.423246
1904.000000	4.521028
1903.000000	4.638718
1902.000000	4.729972
1901.000000	4.910438
1900.000000	5.000925
1899.000000	5.128765
1898.000000	5.347280
1897.000000	5.450517
1896.000000	5.609756
1895.000000	5.733076
1894.000000	5.916363
1893.000000	6.095606
1892.000000	6.278622
1891.000000	6.400328
1890.000000	6.577357
1889.000000	6.673491
1888.000000	6.816224
1887.000000	6.943906
1886.000000	7.107258
1885.000000	7.254464
1884.000000	7.421118
1883.000000	7.567642
1882.000000	7.678030
1881.000000	7.774889
1880.000000	7.883309
1879.000000	8.011599
1878.000000	8.133714
1877.000000	8.290688
1876.000000	8.412200
1875.000000	8.551615
1874.000000	8.608385
1873.000000	8.630496
1872.000000	8.727103
1871.000000	8.836055
1870.000000	8.929960
1869.000000	9.009847
1868.000000	9.004451
1867.000000	9.062819
1866.000000	9.057517
1865.000000	9.099543
1864.000000	9.111211
1863.000000	9.122837
1862.000000	9.151040
1861.000000	9.164146
1860.000000	9.197309
1859.000000	9.191019
1858.000000	9.179320
1857.000000	9.212935
1856.000000	9.203867
1855.000000	9.230109
1854.000000	9.273229
1853.000000	9.329626
1852.000000	9.334328
1851.000000	9.330294
1850.000000	9.333563
1849.000000	9.316565
1848.000000	9.281223
1847.000000	9.305535
1846.000000	9.328420
1845.000000	9.336762
1844.000000	9.335377
1843.000000	9.291450
1842.000000	9.295126
1841.000000	9.291298
1840.000000	9.260652
1839.000000	9.246609
1838.000000	9.248373
1837.000000	9.211726
1836.000000	9.182457
1835.000000	9.127418
1834.000000	9.128755
1833.000000	9.128494
1832.000000	9.073747
1831.000000	9.037205
1830.000000	9.025297
1829.000000	9.032863
1828.000000	9.001423
1827.000000	8.956760
1826.000000	8.930938
1825.000000	8.922936
1824.000000	8.923192
1823.000000	8.931031
1822.000000	8.904802
1821.000000	8.872733
1820.000000	8.843851
1819.000000	8.827877
1818.000000	8.823041
1817.000000	8.813972
1816.000000	8.806698
1815.000000	8.781409
1814.000000	8.754378
1813.000000	8.748597
1812.000000	8.729562
1811.000000	8.713628
1810.000000	8.716267
1809.000000	8.708310
1808.000000	8.704711
1807.000000	8.677091
1806.000000	8.653055
1805.000000	8.626413
1804.000000	8.619916
1803.000000	8.621498
1802.000000	8.602185
1801.000000	8.588546
1800.000000	8.589738
1799.000000	8.582458
1798.000000	8.563775
1797.000000	8.561429
1796.000000	8.569952
1795.000000	8.574307
1794.000000	8.567102
1793.000000	8.543247
1792.000000	8.542321
1791.000000	8.551057
1790.000000	8.562498
1789.000000	8.550689
1788.000000	8.538479
1787.000000	8.535584
1786.000000	8.539070
1785.000000	8.533016
1784.000000	8.525146
1783.000000	8.498625
1782.000000	8.489946
1781.000000	8.497665
1780.000000	8.499411
1779.000000	8.492311
1778.000000	8.459846
1777.000000	8.419664
1776.000000	8.409145
1775.000000	8.381370
1774.000000	8.377508
1773.000000	8.353540
1772.000000	8.336509
1771.000000	8.309066
1770.000000	8.291615
1769.000000	8.289849
1768.000000	8.257034
1767.000000	8.204628
1766.000000	8.181398
1765.000000	8.177375
1764.000000	8.175888
1763.000000	8.136157
1762.000000	8.120199
1761.000000	8.096192
1760.000000	8.075753
1759.000000	8.053907
1758.000000	8.046258
1757.000000	8.019907
1756.000000	8.029053
1755.000000	7.995427
1754.000000	7.952658
1753.000000	7.939590
1752.000000	7.940968
1751.000000	7.930256
1750.000000	7.908483
1749.000000	7.882540
1748.000000	7.851555
1747.000000	7.840303
1746.000000	7.817579
1745.000000	7.751786
1744.000000	7.775808
1743.000000	7.755688
1742.000000	7.724393
1741.000000	7.738942
1740.000000	7.679780
1739.000000	7.674060
1738.000000	7.660127
1737.000000	7.643444
1736.000000	7.626694
1735.000000	7.625750
1734.000000	7.630701
1733.000000	7.645195
1732.000000	7.605659
1731.000000	7.584951
1730.000000	7.593229
1729.000000	7.624079
1728.000000	7.618247
1727.000000	7.598212
1726.000000	7.661950
1725.000000	7.653873
1724.000000	7.687630
1723.000000	7.721255
1722.000000	7.740399
1721.000000	7.775392
1720.000000	7.810803
1719.000000	7.846101
1718.000000	7.844339
1717.000000	7.873081
1716.000000	7.901650
1715.000000	7.919367
1714.000000	7.966209
1713.000000	7.987716
1712.000000	7.987568
1711.000000	8.028148
1710.000000	8.035898
1709.000000	8.070092
1708.000000	8.076069
1707.000000	8.083942
1706.000000	8.101254
1705.000000	8.110360
1704.000000	8.106848
1703.000000	8.148378
1702.000000	8.131877
1701.000000	8.137981
1700.000000	8.158571
1699.000000	8.122198
1698.000000	8.137389
1697.000000	8.178133
1696.000000	8.185177
1695.000000	8.176345
1694.000000	8.152264
1693.000000	8.205346
1692.000000	8.222802
1691.000000	8.226214
1690.000000	8.285090
1689.000000	8.285104
1688.000000	8.320896
1687.000000	8.338660
1686.000000	8.399884
1685.000000	8.445206
1684.000000	8.485441
1683.000000	8.540851
1682.000000	8.589030
1681.000000	8.670448
1680.000000	8.706581
1679.000000	8.748338
1678.000000	8.803561
1677.000000	8.848288
1676.000000	8.922736
1675.000000	8.988754
1674.000000	9.014320
1673.000000	9.072593
1672.000000	9.102816
1671.000000	9.178782
1670.000000	9.222998
1669.000000	9.269376
1668.000000	9.308569
1667.000000	9.357509
1666.000000	9.359221
1665.000000	9.388281
1664.000000	9.401831
1663.000000	9.403731
1662.000000	9.448267
1661.000000	9.479319
1660.000000	9.506292
1659.000000	9.524296
1658.000000	9.546074
1657.000000	9.571473
1656.000000	9.579877
1655.000000	9.598864
1654.000000	9.595458
1653.000000	9.601835
1652.000000	9.606090
1651.000000	9.597913
1650.000000	9.589540
1649.000000	9.589044
1648.000000	9.573319
1647.000000	9.572850
1646.000000	9.572647
1645.000000	9.558605
1644.000000	9.542175
1643.000000	9.530103
1642.000000	9.532397
1641.000000	9.504961
1640.000000	9.500352
1639.000000	9.494379
1638.000000	9.472468
1637.000000	9.453846
1636.000000	9.434352
1635.000000	9.407946
1634.000000	9.407116
1633.000000	9.383918
1632.000000	9.363501
1631.000000	9.335619
1630.000000	9.322769
1629.000000	9.310370
1628.000000	9.287294
1627.000000	9.256535
1626.000000	9.242752
1625.000000	9.236102
1624.000000	9.219275
1623.000000	9.190645
1622.000000	9.176331
1621.000000	9.156815
1620.000000	9.130987
1619.000000	9.093458
1618.000000	9.072313
1617.000000	9.058193
1616.000000	9.036102
1615.000000	9.013494
1614.000000	8.993467
1613.000000	8.980516
1612.000000	8.954511
1611.000000	8.928524
1610.000000	8.903781
1609.000000	8.874529
1608.000000	8.854561
1607.000000	8.823547
1606.000000	8.795818
1605.000000	8.781221
1604.000000	8.763582
1603.000000	8.735414
1602.000000	8.702888
1601.000000	8.690727
1600.000000	8.668944
1599.000000	8.646855
1598.000000	8.626956
1597.000000	8.600301
1596.000000	8.583155
1595.000000	8.562482
1594.000000	8.538097
1593.000000	8.513789
1592.000000	8.501011
1591.000000	8.486336
1590.000000	8.456372
1589.000000	8.430740
1588.000000	8.423869
1587.000000	8.402711
1586.000000	8.379031
1585.000000	8.364860
1584.000000	8.344798
1583.000000	8.331697
1582.000000	8.319847
1581.000000	8.299716
1580.000000	8.276950
1579.000000	8.264331
1578.000000	8.249893
1577.000000	8.230540
1576.000000	8.206582
1575.000000	8.183428
1574.000000	8.155337
1573.000000	8.145345
1572.000000	8.138985
1571.000000	8.109738
1570.000000	8.091872
1569.000000	8.078262
1568.000000	8.059306
1567.000000	8.049711
1566.000000	8.033517
1565.000000	8.008326
1564.000000	7.989205
1563.000000	7.983174
1562.000000	7.980290
1561.000000	7.952814
1560.000000	7.938092
1559.000000	7.928718
1558.000000	7.906857
1557.000000	7.896545
1556.000000	7.897796
1555.000000	7.885284
1554.000000	7.863205
1553.000000	7.848804
1552.000000	7.831485
1551.000000	7.809500
1550.000000	7.787103
1549.000000	7.756882
1548.000000	7.754905
1547.000000	7.728692
1546.000000	7.706255
1545.000000	7.664843
1544.000000	7.631674
1543.000000	7.601816
1542.000000	7.565197
1541.000000	7.548812
1540.000000	7.514802
1539.000000	7.475782
1538.000000	7.447201
1537.000000	7.410450
1536.000000	7.375102
1535.000000	7.348332
1534.000000	7.304243
1533.000000	7.284004
1532.000000	7.255644
1531.000000	7.234399
1530.000000	7.252189
1529.000000	7.281781
1528.000000	7.267685
1527.000000	7.226298
1526.000000	7.188780
1525.000000	7.130817
1524.000000	7.113935
1523.000000	7.107784
1522.000000	7.060751
1521.000000	7.053061
1520.000000	7.039815
1519.000000	7.012792
1518.000000	6.980540
1517.000000	6.981770
1516.000000	6.986500
1515.000000	6.960172
1514.000000	6.935733
1513.000000	6.903565
1512.000000	6.900082
1511.000000	6.898660
1510.000000	6.890708
1509.000000	6.868788
1508.000000	6.848860
1507.000000	6.824137
1506.000000	6.829949
1505.000000	6.822332
1504.000000	6.832094
1503.000000	6.842479
1502.000000	6.805727
1501.000000	6.792898
1500.000000	6.782551
1499.000000	6.769604
1498.000000	6.766027
1497.000000	6.775356
1496.000000	6.773481
1495.000000	6.758774
1494.000000	6.745611
1493.000000	6.742712
1492.000000	6.756796
1491.000000	6.772474
1490.000000	6.779045
1489.000000	6.768232
1488.000000	6.770713
1487.000000	6.770547
1486.000000	6.784481
1485.000000	6.784251
1484.000000	6.753006
1483.000000	6.749203
1482.000000	6.761228
1481.000000	6.777805
1480.000000	6.804972
1479.000000	6.819032
1478.000000	6.819659
1477.000000	6.823670
1476.000000	6.842095
1475.000000	6.853211
1474.000000	6.864833
1473.000000	6.883543
1472.000000	6.865253
1471.000000	6.859503
1470.000000	6.864217
1469.000000	6.922103
1468.000000	6.941891
1467.000000	6.949850
1466.000000	6.930632
1465.000000	6.928847
1464.000000	6.926337
1463.000000	6.952258
1462.000000	6.983888
1461.000000	6.967521
1460.000000	6.987211
1459.000000	7.005407
1458.000000	7.032310
1457.000000	7.034128
1456.000000	7.036820
1455.000000	7.029235
1454.000000	7.047513
1453.000000	7.096693
1452.000000	7.111069
1451.000000	7.108609
1450.000000	7.112068
1449.000000	7.131073
1448.000000	7.142446
1447.000000	7.197732
1446.000000	7.232247
1445.000000	7.245129
1444.000000	7.252945
1443.000000	7.270403
1442.000000	7.282161
1441.000000	7.308650
1440.000000	7.336478
1439.000000	7.365503
1438.000000	7.408486
1437.000000	7.461293
1436.000000	7.501190
1435.000000	7.533039
1434.000000	7.549256
1433.000000	7.591332
1432.000000	7.624107
1431.000000	7.660100
1430.000000	7.698651
1429.000000	7.728008
1428.000000	7.783259
1427.000000	7.820178
1426.000000	7.853671
1425.000000	7.874743
1424.000000	7.934718
1423.000000	8.005307
1422.000000	8.065171
1421.000000	8.137539
1420.000000	8.198063
1419.000000	8.234027
1418.000000	8.285326
1417.000000	8.329903
1416.000000	8.400528
1415.000000	8.483782
1414.000000	8.567006
1413.000000	8.648462
1412.000000	8.691444
1411.000000	8.737074
1410.000000	8.810304
1409.000000	8.895044
1408.000000	8.981095
1407.000000	9.052863
1406.000000	9.108978
1405.000000	9.177549
1404.000000	9.246105
1403.000000	9.328747
1402.000000	9.415478
1401.000000	9.476002
1400.000000	9.528490
1399.000000	9.582548
1398.000000	9.644005
1397.000000	9.703272
1396.000000	9.766456
1395.000000	9.827733
1394.000000	9.881321
1393.000000	9.937589
1392.000000	9.996317
1391.000000	10.038630
1390.000000	10.085244
1389.000000	10.132350
1388.000000	10.169974
1387.000000	10.214793
1386.000000	10.266759
1385.000000	10.324978
1384.000000	10.366101
1383.000000	10.390301
1382.000000	10.423676
1381.000000	10.467325
1380.000000	10.496782
1379.000000	10.507580
1378.000000	10.541048
1377.000000	10.562136
1376.000000	10.552051
1375.000000	10.554332
1374.000000	10.585413
1373.000000	10.612295
1372.000000	10.620447
1371.000000	10.633389
1370.000000	10.638441
1369.000000	10.643923
1368.000000	10.661342
1367.000000	10.676016
1366.000000	10.690752
1365.000000	10.699332
1364.000000	10.727027
1363.000000	10.753402
1362.000000	10.772760
1361.000000	10.803549
1360.000000	10.819696
1359.000000	10.811279
1358.000000	10.813121
1357.000000	10.837532
1356.000000	10.854340
1355.000000	10.865213
1354.000000	10.861258
1353.000000	10.884780
1352.000000	10.896305
1351.000000	10.893402
1350.000000	10.899740
1349.000000	10.926462
1348.000000	10.941844
1347.000000	10.932607
1346.000000	10.941277
1345.000000	10.960575
1344.000000	10.979371
1343.000000	10.998636
1342.000000	10.999574
1341.000000	10.989980
1340.000000	10.995763
1339.000000	11.024125
1338.000000	11.056665
1337.000000	11.064412
1336.000000	11.060342
1335.000000	11.053569
1334.000000	11.053999
1333.000000	11.077102
1332.000000	11.107355
1331.000000	11.109441
1330.000000	11.092862
1329.000000	11.091339
1328.000000	11.113028
1327.000000	11.134866
1326.000000	11.111459
1325.000000	11.097617
1324.000000	11.125439
1323.000000	11.142451
1322.000000	11.142930
1321.000000	11.142760
1320.000000	11.122534
1319.000000	11.112344
1318.000000	11.128465
1317.000000	11.154644
1316.000000	11.162478
1315.000000	11.143997
1314.000000	11.122483
1313.000000	11.095973
1312.000000	11.115304
1311.000000	11.149373
1310.000000	11.177221
1309.000000	11.159941
1308.000000	11.120541
1307.000000	11.097085
1306.000000	11.098768
1305.000000	11.109664
1304.000000	11.126185
1303.000000	11.127506
1302.000000	11.112950
1301.000000	11.104573
1300.000000	11.094069
1299.000000	11.089201
1298.000000	11.083525
1297.000000	11.091444
1296.000000	11.085356
1295.000000	11.091950
1294.000000	11.096816
1293.000000	11.075091
1292.000000	11.078504
1291.000000	11.072820
1290.000000	11.083587
1289.000000	11.071851
1288.000000	11.093835
1287.000000	11.073291
1286.000000	11.068365
1285.000000	11.062681
1284.000000	11.072265
1283.000000	11.063947
1282.000000	11.011316
1281.000000	11.007899
1280.000000	11.015345
1279.000000	10.985652
1278.000000	10.988094
1277.000000	10.984394
1276.000000	10.998162
1275.000000	10.990267
1274.000000	10.994148
1273.000000	10.990796
1272.000000	10.976549
1271.000000	10.965110
1270.000000	10.977042
1269.000000	10.971512
1268.000000	10.954554
1267.000000	10.941580
1266.000000	10.988928
1265.000000	10.999282
1264.000000	10.984754
1263.000000	10.983474
1262.000000	10.952761
1261.000000	10.936927
1260.000000	10.982024
1259.000000	10.970065
1258.000000	10.947064
1257.000000	10.948931
1256.000000	10.940680
1255.000000	10.928002
1254.000000	10.924321
1253.000000	10.913579
1252.000000	10.915267
1251.000000	10.953066
1250.000000	10.966305
1249.000000	10.957574
1248.000000	10.945233
1247.000000	10.926645
1246.000000	10.920318
1245.000000	10.875752
1244.000000	10.873881
1243.000000	10.858157
1242.000000	10.860148
1241.000000	10.873169
1240.000000	10.865283
1239.000000	10.830086
1238.000000	10.825974
1237.000000	10.821260
1236.000000	10.812365
1235.000000	10.770476
1234.000000	10.765790
1233.000000	10.761314
1232.000000	10.776066
1231.000000	10.736639
1230.000000	10.736725
1229.000000	10.741896
1228.000000	10.735240
1227.000000	10.733823
1226.000000	10.689688
1225.000000	10.662114
1224.000000	10.670750
1223.000000	10.675210
1222.000000	10.661071
1221.000000	10.655707
1220.000000	10.639609
1219.000000	10.621987
1218.000000	10.606762
1217.000000	10.590459
1216.000000	10.597574
1215.000000	10.582737
1214.000000	10.588388
1213.000000	10.576141
1212.000000	10.547188
1211.000000	10.527067
1210.000000	10.532959
1209.000000	10.523820
1208.000000	10.491029
1207.000000	10.485140
1206.000000	10.472587
1205.000000	10.440069
1204.000000	10.446245
1203.000000	10.442466
1202.000000	10.413048
1201.000000	10.377839
1200.000000	10.381296
1199.000000	10.363679
1198.000000	10.340131
1197.000000	10.311900
1196.000000	10.295452
1195.000000	10.292282
1194.000000	10.296399
1193.000000	10.304817
1192.000000	10.303520
1191.000000	10.299234
1190.000000	10.269496
1189.000000	10.204596
1188.000000	10.208411
1187.000000	10.225479
1186.000000	10.217848
1185.000000	10.201030
1184.000000	10.195711
1183.000000	10.206899
1182.000000	10.225988
1181.000000	10.233471
1180.000000	10.242805
1179.000000	10.262493
1178.000000	10.274371
1177.000000	10.288568
1176.000000	10.305493
1175.000000	10.312707
1174.000000	10.319607
1173.000000	10.338617
1172.000000	10.358279
1171.000000	10.369198
1170.000000	10.381579
1169.000000	10.390172
1168.000000	10.408635
1167.000000	10.431967
1166.000000	10.449977
1165.000000	10.468202
1164.000000	10.486339
1163.000000	10.507021
1162.000000	10.526896
1161.000000	10.549998
1160.000000	10.568407
1159.000000	10.561703
1158.000000	10.557699
1157.000000	10.583704
1156.000000	10.612284
1155.000000	10.632338
1154.000000	10.649920
1153.000000	10.667515
1152.000000	10.686996
1151.000000	10.704859
1150.000000	10.718500
1149.000000	10.733298
1148.000000	10.757307
1147.000000	10.771858
1146.000000	10.776332
1145.000000	10.790713
1144.000000	10.779205
1143.000000	10.773028
1142.000000	10.782996
1141.000000	10.798092
1140.000000	10.816513
1139.000000	10.827347
1138.000000	10.830475
1137.000000	10.847788
1136.000000	10.859543
1135.000000	10.871928
1134.000000	10.887285
1133.000000	10.907085
1132.000000	10.920590
1131.000000	10.887195
1130.000000	10.875218
1129.000000	10.895767
1128.000000	10.909076
1127.000000	10.918618
1126.000000	10.923878
1125.000000	10.931582
1124.000000	10.938036
1123.000000	10.933875
1122.000000	10.936928
1121.000000	10.937662
1120.000000	10.939446
1119.000000	10.927443
1118.000000	10.929302
1117.000000	10.921764
1116.000000	10.927233
1115.000000	10.922844
1114.000000	10.912454
1113.000000	10.920452
1112.000000	10.930329
1111.000000	10.920518
1110.000000	10.916386
1109.000000	10.915391
1108.000000	10.911715
1107.000000	10.905663
1106.000000	10.911119
1105.000000	10.919434
1104.000000	10.909076
1103.000000	10.879071
1102.000000	10.874534
1101.000000	10.865160
1100.000000	10.865461
1099.000000	10.873297
1098.000000	10.878953
1097.000000	10.887450
1096.000000	10.886366
1095.000000	10.895597
1094.000000	10.868154
1093.000000	10.842261
1092.000000	10.838413
1091.000000	10.853483
1090.000000	10.865275
1089.000000	10.870504
1088.000000	10.864402
1087.000000	10.835096
1086.000000	10.807570
1085.000000	10.813935
1084.000000	10.819640
1083.000000	10.835950
1082.000000	10.837402
1081.000000	10.827105
1080.000000	10.798794
1079.000000	10.796078
1078.000000	10.803764
1077.000000	10.802313
1076.000000	10.807557
1075.000000	10.809491
1074.000000	10.800066
1073.000000	10.783146
1072.000000	10.757581
1071.000000	10.757912
1070.000000	10.762319
1069.000000	10.767383
1068.000000	10.780900
1067.000000	10.774355
1066.000000	10.766558
1065.000000	10.722474
1064.000000	10.720800
1063.000000	10.749381
1062.000000	10.733198
1061.000000	10.741361
1060.000000	10.726250
1059.000000	10.704364
1058.000000	10.689571
1057.000000	10.691078
1056.000000	10.702055
1055.000000	10.705914
1054.000000	10.719804
1053.000000	10.695061
1052.000000	10.666320
1051.000000	10.679947
1050.000000	10.682727
1049.000000	10.697942
1048.000000	10.631514
1047.000000	10.660865
1046.000000	10.666186
1045.000000	10.652461
1044.000000	10.661501
1043.000000	10.629267
1042.000000	10.626998
1041.000000	10.634140
1040.000000	10.640782
1039.000000	10.616245
1038.000000	10.599722
1037.000000	10.608088
1036.000000	10.630278
1035.000000	10.633566
1034.000000	10.602271
1033.000000	10.604310
1032.000000	10.620456
1031.000000	10.618275
1030.000000	10.585100
1029.000000	10.584155
1028.000000	10.596540
1027.000000	10.567093
1026.000000	10.573819
1025.000000	10.585167
1024.000000	10.584154
1023.000000	10.573314
1022.000000	10.565266
1021.000000	10.569118
1020.000000	10.581776
1019.000000	10.557685
1018.000000	10.571329
1017.000000	10.573214
1016.000000	10.540584
1015.000000	10.535783
1014.000000	10.556482
1013.000000	10.555573
1012.000000	10.552139
1011.000000	10.565983
1010.000000	10.561383
1009.000000	10.556797
1008.000000	10.556646
1007.000000	10.530837
1006.000000	10.534674
1005.000000	10.580818
1004.000000	10.564953
1003.000000	10.534030
1002.000000	10.519090
1001.000000	10.524732
1000.000000	10.535458
999.000000	10.565550
998.000000	10.558471
997.000000	10.560044
996.000000	10.548846
995.000000	10.537329
994.000000	10.552321
993.000000	10.536414
992.000000	10.525333
991.000000	10.540229
990.000000	10.541398
989.000000	10.549361
988.000000	10.543662
987.000000	10.540324
986.000000	10.552558
985.000000	10.569666
984.000000	10.602687
983.000000	10.624330
982.000000	10.618221
981.000000	10.622757
980.000000	10.625627
979.000000	10.631099
978.000000	10.636139
977.000000	10.634783
976.000000	10.638149
975.000000	10.646028
974.000000	10.646020
973.000000	10.654183
972.000000	10.652542
971.000000	10.642953
970.000000	10.645276
969.000000	10.652059
968.000000	10.640076
967.000000	10.642929
966.000000	10.634666
965.000000	10.634064
964.000000	10.640609
963.000000	10.641567
962.000000	10.633526
961.000000	10.634180
960.000000	10.624671
959.000000	10.628404
958.000000	10.631685
957.000000	10.636439
956.000000	10.641904
955.000000	10.638723
954.000000	10.639398
953.000000	10.644024
952.000000	10.631763
951.000000	10.622237
950.000000	10.621599
949.000000	10.615360
948.000000	10.603884
947.000000	10.604162
946.000000	10.618963
945.000000	10.623787
944.000000	10.611251
943.000000	10.604283
942.000000	10.601026
941.000000	10.593748
940.000000	10.588979
939.000000	10.588090
938.000000	10.578548
937.000000	10.583098
936.000000	10.576845
935.000000	10.570611
934.000000	10.586578
933.000000	10.569240
932.000000	10.549856
931.000000	10.534192
930.000000	10.535049
929.000000	10.542483
928.000000	10.527742
927.000000	10.529358
926.000000	10.533905
925.000000	10.534487
924.000000	10.533043
923.000000	10.516897
922.000000	10.495838
921.000000	10.478285
920.000000	10.472944
919.000000	10.485754
918.000000	10.485513
917.000000	10.490971
916.000000	10.488745
915.000000	10.473003
914.000000	10.486673
913.000000	10.471698
912.000000	10.494054
911.000000	10.501901
910.000000	10.469326
909.000000	10.455837
908.000000	10.444739
907.000000	10.432086
906.000000	10.427708
905.000000	10.460102
904.000000	10.459765
903.000000	10.449524
902.000000	10.454308
901.000000	10.459975
900.000000	10.469101
899.000000	10.416338
898.000000	10.394194
897.000000	10.417483
896.000000	10.449894
895.000000	10.463981
894.000000	10.462971
893.000000	10.450128
892.000000	10.432571
891.000000	10.392908
890.000000	10.424181
889.000000	10.449640
888.000000	10.412412
887.000000	10.397713
886.000000	10.398462
885.000000	10.378530
884.000000	10.396165
883.000000	10.441378
882.000000	10.485480
881.000000	10.445060
880.000000	10.360724
879.000000	10.426693
878.000000	10.447122
877.000000	10.425914
876.000000	10.312303
875.000000	10.302274
874.000000	10.353073
873.000000	10.369119
872.000000	10.367923
871.000000	10.419259
870.000000	10.326499
869.000000	10.319622
868.000000	10.305717
867.000000	10.265737
866.000000	10.290341
865.000000	10.349289
864.000000	10.397937
863.000000	10.223585
862.000000	10.263710
861.000000	10.193547
860.000000	10.173914
859.000000	9.966017
858.000000	10.008526
857.000000	10.045380
856.000000	10.022587
855.000000	10.033689
854.000000	9.962105
853.000000	9.991910
852.000000	9.989621
851.000000	9.978716
850.000000	9.962944
849.000000	9.981484
848.000000	9.909080
847.000000	9.903456
846.000000	9.904755
845.000000	9.916626
844.000000	9.886315
843.000000	9.908251
842.000000	9.956433
841.000000	9.913973
840.000000	9.903152
839.000000	9.863266
838.000000	9.860939
837.000000	9.835413
836.000000	9.840853
835.000000	9.812596
834.000000	9.818744
833.000000	9.782523
832.000000	9.792441
831.000000	9.817801
830.000000	9.788183
829.000000	9.751955
828.000000	9.777993
827.000000	9.723493
826.000000	9.750010
825.000000	9.712589
824.000000	9.694496
823.000000	9.690362
822.000000	9.734479
821.000000	9.707475
820.000000	9.655851
819.000000	9.680098
818.000000	9.668640
817.000000	9.678045
816.000000	9.679163
815.000000	9.596060
814.000000	9.637264
813.000000	9.619023
812.000000	9.575516
811.000000	9.602569
810.000000	9.566341
809.000000	9.586658
808.000000	9.600694
807.000000	9.561423
806.000000	9.558913
805.000000	9.564354
804.000000	9.552352
803.000000	9.548307
802.000000	9.532303
801.000000	9.507299
800.000000	9.522177
799.000000	9.529599
798.000000	9.508781
797.000000	9.520271
796.000000	9.478992
795.000000	9.462101
794.000000	9.462722
793.000000	9.434681
792.000000	9.432795
791.000000	9.430563
790.000000	9.416891
789.000000	9.408265
788.000000	9.400206
787.000000	9.385947
786.000000	9.392390
785.000000	9.397844
784.000000	9.375499
783.000000	9.360774
782.000000	9.351337
781.000000	9.364510
780.000000	9.355584
779.000000	9.335597
778.000000	9.312582
777.000000	9.299162
776.000000	9.314428
775.000000	9.295439
774.000000	9.294935
773.000000	9.301903
772.000000	9.254396
771.000000	9.250686
770.000000	9.231778
769.000000	9.232686
768.000000	9.215494
767.000000	9.212659
766.000000	9.200015
765.000000	9.186292
764.000000	9.173366
763.000000	9.168369
762.000000	9.161731
761.000000	9.155390
760.000000	9.149210
759.000000	9.120548
758.000000	9.099505
757.000000	9.091810
756.000000	9.090966
755.000000	9.081100
754.000000	9.054354
753.000000	9.068989
752.000000	9.020341
751.000000	9.020369
750.000000	9.023900
749.000000	9.021325
748.000000	8.991921
747.000000	8.975183
746.000000	8.954262
745.000000	8.950289
744.000000	8.949823
743.000000	8.927614
742.000000	8.902547
741.000000	8.910221
740.000000	8.907025
739.000000	8.889634
738.000000	8.878606
737.000000	8.870420
736.000000	8.856625
735.000000	8.843353
734.000000	8.812967
733.000000	8.803783
732.000000	8.801059
731.000000	8.791227
730.000000	8.764276
729.000000	8.753698
728.000000	8.742551
727.000000	8.733114
726.000000	8.717146
725.000000	8.693143
724.000000	8.687487
723.000000	8.675616
722.000000	8.665912
721.000000	8.652322
720.000000	8.641208
719.000000	8.622283
718.000000	8.601058
717.000000	8.586358
716.000000	8.569767
715.000000	8.566843
714.000000	8.554874
713.000000	8.528542
712.000000	8.518148
711.000000	8.504853
710.000000	8.487204
709.000000	8.473239
708.000000	8.444122
707.000000	8.427343
706.000000	8.428125
705.000000	8.415970
704.000000	8.400131
703.000000	8.375385
702.000000	8.350035
701.000000	8.342552
700.000000	8.320746
699.000000	8.298388
698.000000	8.290753
697.000000	8.276564
696.000000	8.258729
695.000000	8.237724
694.000000	8.220941
693.000000	8.198715
692.000000	8.175042
691.000000	8.167190
690.000000	8.154194
689.000000	8.133111
688.000000	8.103808
687.000000	8.081697
686.000000	8.060344
685.000000	8.047739
684.000000	8.030452
683.000000	8.021080
682.000000	8.011252
681.000000	7.979174
680.000000	7.961226
679.000000	7.954999
678.000000	7.922337
677.000000	7.907507
676.000000	7.882164
675.000000	7.853764
674.000000	7.835220
673.000000	7.834850
672.000000	7.812695
671.000000	7.798753
670.000000	7.772945
669.000000	7.750015
668.000000	7.725625
667.000000	7.711153
666.000000	7.695466
665.000000	7.672500
664.000000	7.652693
663.000000	7.634003
662.000000	7.606639
661.000000	7.600926
660.000000	7.583387
659.000000	7.552141
658.000000	7.531149
657.000000	7.516920
656.000000	7.494003
655.000000	7.471667
654.000000	7.450656
653.000000	7.428263
652.000000	7.411820
651.000000	7.395402
650.000000	7.382106
649.000000	7.359573
648.000000	7.316995
647.000000	7.306830
646.000000	7.288561
645.000000	7.267481
644.000000	7.251055
643.000000	7.233668
642.000000	7.212018
641.000000	7.185116
640.000000	7.169585
639.000000	7.140391
638.000000	7.128428
637.000000	7.108809
636.000000	7.092656
635.000000	7.060820
634.000000	7.046110
633.000000	7.025985
632.000000	7.001951
631.000000	6.980352
630.000000	6.962948
629.000000	6.938372
628.000000	6.911843
627.000000	6.895165
626.000000	6.867949
625.000000	6.854285
624.000000	6.829562
623.000000	6.800021
622.000000	6.773019
621.000000	6.758810
620.000000	6.733791
619.000000	6.708950
618.000000	6.681436
617.000000	6.661996
616.000000	6.635826
615.000000	6.610602
614.000000	6.586424
613.000000	6.569207
612.000000	6.541807
611.000000	6.515513
610.000000	6.491358
609.000000	6.466821
608.000000	6.435926
607.000000	6.416080
606.000000	6.389873
605.000000	6.356324
604.000000	6.327681
603.000000	6.308268
602.000000	6.288780
601.000000	6.263734
600.000000	6.233032
599.000000	6.208494
598.000000	6.180610
597.000000	6.149553
596.000000	6.119672
595.000000	6.106973
594.000000	6.065177
593.000000	6.042496
592.000000	6.013849
591.000000	5.985185
590.000000	5.961485
589.000000	5.942709
588.000000	5.920084
587.000000	5.886342
586.000000	5.851296
585.000000	5.831528
584.000000	5.807300
583.000000	5.775912
582.000000	5.755415
581.000000	5.709774
580.000000	5.681022
579.000000	5.661047
578.000000	5.632325
577.000000	5.612495
576.000000	5.581440
575.000000	5.545126
574.000000	5.513554
573.000000	5.502681
572.000000	5.469867
571.000000	5.439663
570.000000	5.413143
569.000000	5.387982
568.000000	5.344311
567.000000	5.320943
566.000000	5.290944
565.000000	5.271615
564.000000	5.234146
563.000000	5.206195
562.000000	5.172153
561.000000	5.146363
560.000000	5.126264
559.000000	5.096443
558.000000	5.070960
557.000000	5.039257
556.000000	5.014374
555.000000	4.973636
554.000000	4.945918
553.000000	4.924007
552.000000	4.891593
551.000000	4.858210
550.000000	4.826960
549.000000	4.796157
548.000000	4.765989
547.000000	4.732505
546.000000	4.701460
545.000000	4.675667
544.000000	4.636481
543.000000	4.609674
542.000000	4.581007
541.000000	4.562645
540.000000	4.519103
539.000000	4.482345
538.000000	4.454873
537.000000	4.412723
536.000000	4.386274
535.000000	4.361667
534.000000	4.327570
533.000000	4.298064
532.000000	4.264199
531.000000	4.222093
530.000000	4.193726
529.000000	4.163452
528.000000	4.136198
527.000000	4.105454
526.000000	4.064401
525.000000	4.038437
524.000000	4.005981
523.000000	3.965298
522.000000	3.922963
521.000000	3.893744
520.000000	3.856336
519.000000	3.820406
518.000000	3.781942
517.000000	3.750591
516.000000	3.718597
515.000000	3.683296
514.000000	3.646703
513.000000	3.609472
512.000000	3.570213
511.000000	3.533562
510.000000	3.505814
509.000000	3.470219
508.000000	3.434818
507.000000	3.397224
506.000000	3.358806
505.000000	3.335618
504.000000	3.306868
503.000000	3.279998
502.000000	3.242552
501.000000	3.206344
500.000000	3.172954
499.000000	3.144443
498.000000	3.115898
497.000000	3.084972
496.000000	3.054004
495.000000	3.030972
494.000000	2.998560
493.000000	2.967779
492.000000	2.943380
491.000000	2.915900
490.000000	2.887851
489.000000	2.859349
488.000000	2.830642
487.000000	2.805596
486.000000	2.777961
485.000000	2.757078
484.000000	2.736249
483.000000	2.709142
482.000000	2.681782
481.000000	2.652658
480.000000	2.618266
479.000000	2.581956
478.000000	2.550223
477.000000	2.519254
476.000000	2.484052
475.000000	2.450800
474.000000	2.430878
473.000000	2.403165
472.000000	2.364514
471.000000	2.332772
470.000000	2.305240
469.000000	2.274108
468.000000	2.242779
467.000000	2.219120
466.000000	2.189353
465.000000	2.154067
464.000000	2.122420
463.000000	2.094673
462.000000	2.070513
461.000000	2.045367
460.000000	2.013229
459.000000	1.983062
458.000000	1.955235
457.000000	1.923619
456.000000	1.894883
455.000000	1.869851
454.000000	1.843217
453.000000	1.814084
452.000000	1.780960
451.000000	1.754040
450.000000	1.730915
449.000000	1.697212
448.000000	1.664431
447.000000	1.637400
446.000000	1.613515
445.000000	1.586169
444.000000	1.561693
443.000000	1.534253
442.000000	1.502556
441.000000	1.470939
440.000000	1.437353
439.000000	1.411084
438.000000	1.385989
437.000000	1.352956
436.000000	1.325199
435.000000	1.295765
434.000000	1.262504
433.000000	1.239456
432.000000	1.216115
431.000000	1.189052
430.000000	1.161872
429.000000	1.134854
428.000000	1.107355
427.000000	1.082400
426.000000	1.059243
425.000000	1.032719
424.000000	1.012023
423.000000	0.983416
422.000000	0.956090
421.000000	0.933885
420.000000	0.913325
419.000000	0.893625
418.000000	0.874407
417.000000	0.850984
416.000000	0.828440
415.000000	0.807741
414.000000	0.786788
413.000000	0.767771
412.000000	0.745675
411.000000	0.724203
410.000000	0.709109
409.000000	0.690678
408.000000	0.678097
407.000000	0.657569
406.000000	0.635420
405.000000	0.621244
404.000000	0.602914
403.000000	0.593034
402.000000	0.586400
401.000000	0.567384
400.000000	0.549189
399.000000	0.538142
398.000000	0.518757
397.000000	0.506998
396.000000	0.504453
395.000000	0.491556
394.000000	0.473722
393.000000	0.457985
392.000000	0.444884
391.000000	0.438522
390.000000	0.431147
389.000000	0.418123
388.000000	0.401754
387.000000	0.393992
386.000000	0.379893
385.000000	0.370871
384.000000	0.368119
383.000000	0.350441
382.000000	0.340484
381.000000	0.334643
380.000000	0.324758
379.000000	0.322669
378.000000	0.307881
377.000000	0.329619
376.000000	0.315623
375.000000	0.308789
374.000000	0.296627
373.000000	0.290912
372.000000	0.286555
371.000000	0.272084
370.000000	0.260803
369.000000	0.248538
368.000000	0.249176
367.000000	0.242419
366.000000	0.236022
365.000000	0.228451
364.000000	0.220816
363.000000	0.219396
362.000000	0.218851
361.000000	0.197418
360.000000	0.195224
359.000000	0.190043
358.000000	0.184194
357.000000	0.185262
356.000000	0.182097
355.000000	0.170631
354.000000	0.171779
353.000000	0.164643
352.000000	0.160179
351.000000	0.163912
350.000000	0.159351
349.000000	0.157899
348.000000	0.144389
347.000000	0.148997
346.000000	0.138540
345.000000	0.137850
344.000000	0.147093
343.000000	0.134737
342.000000	0.128194
341.000000	0.130580
340.000000	0.136437
339.000000	0.129948
338.000000	0.120295
337.000000	0.128742
336.000000	0.121253
335.000000	0.107629
334.000000	0.112341
333.000000	0.113502
332.000000	0.109687
331.000000	0.111584
330.000000	0.097181
329.000000	0.096316
328.000000	0.089709
327.000000	0.096042
326.000000	0.102673
325.000000	0.098217
324.000000	0.105638
323.000000	0.091943
322.000000	0.096144
321.000000	0.097851
320.000000	0.099775
319.000000	0.084319
318.000000	0.098897
317.000000	0.098699
316.000000	0.106368
315.000000	0.112418
314.000000	0.108938
313.000000	0.114948
312.000000	0.104196
311.000000	0.108085
310.000000	0.100315
309.000000	0.104037
308.000000	0.098056
307.000000	0.094555
306.000000	0.105073
305.000000	0.100346
304.000000	0.096755
303.000000	0.092792
302.000000	0.098485
301.000000	0.101783
300.000000	0.098691
299.000000	0.097945
298.000000	0.102435
297.000000	0.099227
296.000000	0.104404
295.000000	0.100042
294.000000	0.097032
293.000000	0.100369
292.000000	0.093729
291.000000	0.092384
290.000000	0.095242
289.000000	0.091848
288.000000	0.099490
287.000000	0.089576
286.000000	0.093123
285.000000	0.098363
284.000000	0.103410
283.000000	0.102601
282.000000	0.100188
281.000000	0.096451
280.000000	0.105026
279.000000	0.106300
278.000000	0.103203
277.000000	0.113106
276.000000	0.114507
275.000000	0.110949
274.000000	0.114593
273.000000	0.125306
272.000000	0.121565
271.000000	0.117094
270.000000	0.119733
269.000000	0.121339
268.000000	0.121151
267.000000	0.117952
266.000000	0.128846
265.000000	0.130138
264.000000	0.127874
263.000000	0.134672
262.000000	0.142864
261.000000	0.142532
260.000000	0.141316
259.000000	0.145906
258.000000	0.150472
257.000000	0.147986
256.000000	0.151373
255.000000	0.158644
254.000000	0.158399
253.000000	0.152070
252.000000	0.155480
251.000000	0.163896
250.000000	0.160691
249.000000	0.158835
248.000000	0.159708
247.000000	0.163050
246.000000	0.163149
245.000000	0.157167
244.000000	0.151805
243.000000	0.152587
242.000000	0.145051
241.000000	0.139622
240.000000	0.130572
239.000000	0.120797
238.000000	0.112620
237.000000	0.106117
236.000000	0.107529
235.000000	0.100268
234.000000	0.088626
233.000000	0.081013
232.000000	0.076403
231.000000	0.069653
230.000000	0.066571
229.000000	0.065136
228.000000	0.060552
227.000000	0.056135
226.000000	0.054181
225.000000	0.051940
224.000000	0.047574
223.000000	0.034626
222.000000	0.030418
221.000000	0.034990
220.000000	0.034129
219.000000	0.032905
218.000000	0.032169
217.000000	0.020569
216.000000	0.012076
215.000000	0.014828
214.000000	0.014380
213.000000	0.024917
212.000000	0.027727
211.000000	0.019353
210.000000	0.019956
209.000000	0.011781
208.000000	0.007901
207.000000	0.012229
206.000000	0.008427
205.000000	-0.005969
204.000000	-0.005575
203.000000	-0.004870
202.000000	-0.013998
201.000000	0.011074
200.000000	0.005535
