PE UV       SUBTECH     SPECTRUM    ASCII       PEDS        4.00        
   -1
009-5S-XXX-NR003-F001.Sample.asc
24/01/09
15:53:55.00
24/01/09
15:53:55.00
Administrator

250.000000
1
Lambda 750
750N8071901
PerkinElmer UV WinLab 6.0.4.0738 / 1.61.00 Lambda 900

0
0
3350/servo 860.8/2
0
0
UV/VIS
1
1
1
CommonBeamDepol,150mm sphere / downward view
0
0
0
0
Program
Program
3350/servo 860.8/2
3350/0.2 860.8/0.2
3350/0.2 860.8/0.2
0
1
 
 
 
0
 
860.8
319.2
860.8
Front
100
on
 
 
0
0
0
 
0
 
 
 
0
 
 
0
0
0
0
0
 
 
 
 
0
0


0
0
#HDR
-1
-1
#GR
nm
%R
1.0
0.0
2500.000000
-10.000000
226
8
72.826318
16.321733
#DATA
2500.000000	30.227389
2490.000000	33.040909
2480.000000	33.135715
2470.000000	36.129094
2460.000000	36.935444
2450.000000	36.540830
2440.000000	38.638502
2430.000000	36.854431
2420.000000	38.102446
2410.000000	39.299746
2400.000000	37.575694
2390.000000	38.176186
2380.000000	38.728889
2370.000000	38.764949
2360.000000	38.721418
2350.000000	37.940425
2340.000000	39.706670
2330.000000	38.864955
2320.000000	37.082511
2310.000000	35.805491
2300.000000	34.526203
2290.000000	36.229194
2280.000000	35.384902
2270.000000	39.458038
2260.000000	41.233053
2250.000000	42.739623
2240.000000	42.291426
2230.000000	42.522748
2220.000000	41.168125
2210.000000	40.316138
2200.000000	40.073545
2190.000000	40.287850
2180.000000	40.879659
2170.000000	42.171939
2160.000000	43.639224
2150.000000	45.398886
2140.000000	45.804803
2130.000000	46.308267
2120.000000	46.829283
2110.000000	46.636091
2100.000000	45.949301
2090.000000	44.952131
2080.000000	43.466222
2070.000000	41.475027
2060.000000	41.172865
2050.000000	41.373576
2040.000000	42.455902
2030.000000	42.554119
2020.000000	41.707122
2010.000000	40.347565
2000.000000	39.448563
1990.000000	38.121494
1980.000000	36.734059
1970.000000	35.750526
1960.000000	35.197122
1950.000000	36.242300
1940.000000	38.650639
1930.000000	42.297218
1920.000000	46.929465
1910.000000	52.266748
1900.000000	56.691662
1890.000000	59.802638
1880.000000	61.300301
1870.000000	61.808976
1860.000000	61.926492
1850.000000	61.568598
1840.000000	61.305158
1830.000000	61.015652
1820.000000	60.522545
1810.000000	60.394386
1800.000000	59.902729
1790.000000	59.528044
1780.000000	59.074152
1770.000000	58.601494
1760.000000	58.217720
1750.000000	57.841631
1740.000000	58.243427
1730.000000	59.096636
1720.000000	59.721075
1710.000000	59.848772
1700.000000	60.628702
1690.000000	62.204086
1680.000000	63.444833
1670.000000	63.825904
1660.000000	63.925284
1650.000000	63.642249
1640.000000	63.278465
1630.000000	62.856588
1620.000000	62.145696
1610.000000	61.549671
1600.000000	61.062625
1590.000000	60.579846
1580.000000	60.246973
1570.000000	59.940829
1560.000000	59.692919
1550.000000	58.814795
1540.000000	58.053418
1530.000000	57.642081
1520.000000	57.287282
1510.000000	57.197445
1500.000000	57.460941
1490.000000	57.917575
1480.000000	58.382736
1470.000000	58.892728
1460.000000	59.499237
1450.000000	60.465727
1440.000000	61.515289
1430.000000	63.073449
1420.000000	65.017961
1410.000000	66.771157
1400.000000	67.966011
1390.000000	68.734776
1380.000000	69.125341
1370.000000	69.614995
1360.000000	70.198229
1350.000000	70.676273
1340.000000	70.905600
1330.000000	71.008146
1320.000000	70.998920
1310.000000	70.991953
1300.000000	71.036192
1290.000000	70.947125
1280.000000	71.018866
1270.000000	71.100858
1260.000000	71.115021
1250.000000	71.054779
1240.000000	70.750298
1230.000000	70.607881
1220.000000	70.364421
1210.000000	70.176049
1200.000000	70.067786
1190.000000	70.299686
1180.000000	70.784819
1170.000000	71.222642
1160.000000	71.677140
1150.000000	71.944647
1140.000000	72.062846
1130.000000	72.253010
1120.000000	72.177126
1110.000000	72.287246
1100.000000	72.261319
1090.000000	72.144770
1080.000000	72.116543
1070.000000	72.086664
1060.000000	72.014730
1050.000000	71.949217
1040.000000	71.890361
1030.000000	71.890458
1020.000000	71.885998
1010.000000	71.977048
1000.000000	72.052012
990.000000	72.110311
980.000000	72.143310
970.000000	72.258548
960.000000	72.329998
950.000000	72.481147
940.000000	72.191043
930.000000	72.220835
920.000000	72.389186
910.000000	72.555165
900.000000	72.663876
890.000000	72.587270
880.000000	72.826318
870.000000	72.823649
860.000000	72.728192
850.000000	72.153713
840.000000	72.649475
830.000000	72.108033
820.000000	72.357478
810.000000	72.346038
800.000000	72.334337
790.000000	72.110263
780.000000	72.528840
770.000000	72.351043
760.000000	72.326545
750.000000	72.244562
740.000000	72.412909
730.000000	72.367990
720.000000	72.378620
710.000000	72.528199
700.000000	72.393509
690.000000	72.299373
680.000000	72.390463
670.000000	72.392429
660.000000	72.477920
650.000000	72.339621
640.000000	72.238290
630.000000	72.188756
620.000000	72.133439
610.000000	72.011700
600.000000	72.026980
590.000000	71.982472
580.000000	71.742918
570.000000	71.697064
560.000000	71.621744
550.000000	71.367984
540.000000	71.022212
530.000000	70.907702
520.000000	70.506871
510.000000	70.268100
500.000000	69.884003
490.000000	69.490418
480.000000	68.855696
470.000000	68.234155
460.000000	67.761659
450.000000	66.804367
440.000000	65.846434
430.000000	64.431787
420.000000	62.734938
410.000000	60.807644
400.000000	58.493142
390.000000	56.038372
380.000000	53.396580
370.000000	50.111523
360.000000	46.514270
350.000000	43.677095
340.000000	40.424047
330.000000	35.556357
320.000000	31.893490
310.000000	28.373241
300.000000	25.798944
290.000000	20.036335
280.000000	16.321733
270.000000	16.859755
260.000000	18.067824
250.000000	18.106192
