PE UV       SUBTECH     SPECTRUM    ASCII       PEDS        4.00        
   -1
TTgChevreUK 32.Sample.asc
18/03/06
17:47:38.00
18/03/06
17:47:38.00
Administrator

200.000000
1
Lambda 750
750N8071901
PerkinElmer UV WinLab 6.0.4.0738 / 1.61.00 Lambda 900

0
0
3350/servo 860.8/2
0
0
UV/VIS
1
1
1
CommonBeamDepol,150mm sphere / downward view
0
0
0
0
Program
Program
3350/servo 860.8/2
3350/0.2 860.8/0.2
3350/0.2 860.8/0.2
0
1
 
 
 
0
 
860.8
319.2
860.8
Front
100
on
 
 
0
0
0
 
0
 
 
 
0
 
 
0
0
0
0
0
 
 
 
 
0
0


0
0
#HDR
-1
-1
#GR
nm
%T
1.0
0.0
2350.000000
-1.000000
2151
8
39.317787
0.110887
#DATA
2350.000000	7.741543
2349.000000	7.597584
2348.000000	7.372497
2347.000000	8.182293
2346.000000	7.878627
2345.000000	7.498378
2344.000000	7.345507
2343.000000	7.954414
2342.000000	7.494720
2341.000000	7.903572
2340.000000	7.946760
2339.000000	8.238919
2338.000000	8.482940
2337.000000	8.193308
2336.000000	8.437463
2335.000000	8.800238
2334.000000	8.648474
2333.000000	8.718647
2332.000000	8.656274
2331.000000	8.665963
2330.000000	8.852912
2329.000000	8.456273
2328.000000	8.468216
2327.000000	8.249109
2326.000000	8.471845
2325.000000	8.373771
2324.000000	8.437946
2323.000000	8.267418
2322.000000	8.370615
2321.000000	8.468132
2320.000000	8.146093
2319.000000	8.061893
2318.000000	8.307723
2317.000000	8.186601
2316.000000	8.111617
2315.000000	7.848315
2314.000000	7.868717
2313.000000	7.930719
2312.000000	7.579903
2311.000000	7.678925
2310.000000	7.846012
2309.000000	7.849676
2308.000000	7.672922
2307.000000	7.439764
2306.000000	7.513200
2305.000000	7.511535
2304.000000	7.593907
2303.000000	7.373048
2302.000000	7.437661
2301.000000	7.219765
2300.000000	7.289940
2299.000000	7.133520
2298.000000	7.058472
2297.000000	7.032968
2296.000000	7.114133
2295.000000	6.957035
2294.000000	7.109270
2293.000000	7.148304
2292.000000	7.058766
2291.000000	6.891834
2290.000000	6.924165
2289.000000	6.873318
2288.000000	6.850614
2287.000000	6.875718
2286.000000	6.911580
2285.000000	6.904561
2284.000000	6.920135
2283.000000	6.850033
2282.000000	6.860942
2281.000000	6.741506
2280.000000	6.700790
2279.000000	6.713351
2278.000000	6.763028
2277.000000	6.826513
2276.000000	6.961839
2275.000000	7.026955
2274.000000	7.041116
2273.000000	7.133405
2272.000000	7.071438
2271.000000	6.988712
2270.000000	7.049703
2269.000000	7.038755
2268.000000	7.114691
2267.000000	7.196924
2266.000000	7.247916
2265.000000	7.292065
2264.000000	7.543103
2263.000000	7.523635
2262.000000	7.472029
2261.000000	7.573966
2260.000000	7.667636
2259.000000	7.753702
2258.000000	7.964424
2257.000000	8.190013
2256.000000	8.207635
2255.000000	8.260322
2254.000000	8.367546
2253.000000	8.503563
2252.000000	8.703963
2251.000000	8.812845
2250.000000	8.834187
2249.000000	9.027622
2248.000000	9.270218
2247.000000	9.352795
2246.000000	9.363241
2245.000000	9.480809
2244.000000	9.785967
2243.000000	10.027133
2242.000000	10.099614
2241.000000	10.089562
2240.000000	10.116875
2239.000000	10.211844
2238.000000	10.260104
2237.000000	10.336952
2236.000000	10.463601
2235.000000	10.611147
2234.000000	10.545361
2233.000000	10.550591
2232.000000	10.647588
2231.000000	10.667032
2230.000000	10.644406
2229.000000	10.779005
2228.000000	10.970395
2227.000000	10.955043
2226.000000	10.888197
2225.000000	10.816856
2224.000000	10.755198
2223.000000	10.797205
2222.000000	10.796646
2221.000000	10.773559
2220.000000	10.697574
2219.000000	10.637382
2218.000000	10.584489
2217.000000	10.670941
2216.000000	10.744109
2215.000000	10.648697
2214.000000	10.497652
2213.000000	10.512864
2212.000000	10.430569
2211.000000	10.354778
2210.000000	10.269856
2209.000000	10.274286
2208.000000	10.248443
2207.000000	10.307341
2206.000000	10.235117
2205.000000	10.257819
2204.000000	10.073629
2203.000000	9.892482
2202.000000	9.985703
2201.000000	9.868302
2200.000000	9.732909
2199.000000	9.886769
2198.000000	9.806518
2197.000000	9.755400
2196.000000	9.714493
2195.000000	9.702140
2194.000000	9.510351
2193.000000	9.332849
2192.000000	9.358163
2191.000000	9.344703
2190.000000	9.353422
2189.000000	9.315976
2188.000000	9.286670
2187.000000	9.189558
2186.000000	9.000973
2185.000000	9.116604
2184.000000	9.147979
2183.000000	9.103623
2182.000000	9.133627
2181.000000	9.067385
2180.000000	9.051899
2179.000000	8.913231
2178.000000	8.857978
2177.000000	8.968046
2176.000000	8.999329
2175.000000	9.064670
2174.000000	8.916199
2173.000000	8.975515
2172.000000	8.979671
2171.000000	8.970903
2170.000000	9.157730
2169.000000	9.114275
2168.000000	9.210890
2167.000000	9.287928
2166.000000	9.228404
2165.000000	9.300690
2164.000000	9.478218
2163.000000	9.398305
2162.000000	9.546825
2161.000000	9.558516
2160.000000	9.623132
2159.000000	9.757791
2158.000000	9.839951
2157.000000	9.839790
2156.000000	10.007465
2155.000000	9.996611
2154.000000	10.220389
2153.000000	10.492103
2152.000000	10.459384
2151.000000	10.384477
2150.000000	10.672779
2149.000000	10.699842
2148.000000	10.696006
2147.000000	10.744984
2146.000000	10.942913
2145.000000	11.138411
2144.000000	10.948457
2143.000000	11.213069
2142.000000	11.337142
2141.000000	11.277868
2140.000000	11.411163
2139.000000	11.468881
2138.000000	11.650086
2137.000000	11.746978
2136.000000	11.849464
2135.000000	11.863341
2134.000000	12.056671
2133.000000	11.829431
2132.000000	12.071349
2131.000000	12.369448
2130.000000	12.344995
2129.000000	12.156721
2128.000000	12.233102
2127.000000	12.301561
2126.000000	12.313833
2125.000000	12.468042
2124.000000	12.485337
2123.000000	12.337166
2122.000000	12.573110
2121.000000	12.689475
2120.000000	12.631190
2119.000000	12.782003
2118.000000	12.795834
2117.000000	12.811607
2116.000000	12.771706
2115.000000	12.823864
2114.000000	12.762738
2113.000000	12.754305
2112.000000	12.804983
2111.000000	12.769943
2110.000000	12.790335
2109.000000	12.898169
2108.000000	12.840221
2107.000000	12.889187
2106.000000	12.942065
2105.000000	12.975858
2104.000000	12.973980
2103.000000	12.909810
2102.000000	12.940443
2101.000000	13.051291
2100.000000	12.953176
2099.000000	13.016949
2098.000000	12.957559
2097.000000	12.989075
2096.000000	12.950958
2095.000000	12.922798
2094.000000	12.976818
2093.000000	12.938501
2092.000000	12.981085
2091.000000	12.918931
2090.000000	12.833296
2089.000000	12.900105
2088.000000	12.854075
2087.000000	12.790228
2086.000000	12.850429
2085.000000	12.828221
2084.000000	12.699800
2083.000000	12.673797
2082.000000	12.590839
2081.000000	12.540477
2080.000000	12.505277
2079.000000	12.458774
2078.000000	12.465049
2077.000000	12.435109
2076.000000	12.270433
2075.000000	12.134995
2074.000000	12.170537
2073.000000	12.095383
2072.000000	11.903328
2071.000000	11.851853
2070.000000	11.754738
2069.000000	11.676805
2068.000000	11.577164
2067.000000	11.422851
2066.000000	11.282156
2065.000000	11.133212
2064.000000	11.132982
2063.000000	11.099449
2062.000000	10.951159
2061.000000	10.749195
2060.000000	10.745222
2059.000000	10.676704
2058.000000	10.528887
2057.000000	10.480031
2056.000000	10.392679
2055.000000	10.294360
2054.000000	10.139682
2053.000000	9.999069
2052.000000	9.924575
2051.000000	9.840658
2050.000000	9.751683
2049.000000	9.707583
2048.000000	9.638618
2047.000000	9.662813
2046.000000	9.628462
2045.000000	9.574101
2044.000000	9.573621
2043.000000	9.538762
2042.000000	9.529893
2041.000000	9.548871
2040.000000	9.582416
2039.000000	9.585789
2038.000000	9.577264
2037.000000	9.626169
2036.000000	9.661387
2035.000000	9.755638
2034.000000	9.844824
2033.000000	9.870814
2032.000000	9.952493
2031.000000	10.022144
2030.000000	10.104965
2029.000000	10.232834
2028.000000	10.328368
2027.000000	10.400509
2026.000000	10.496942
2025.000000	10.578369
2024.000000	10.626799
2023.000000	10.654327
2022.000000	10.719639
2021.000000	10.784759
2020.000000	10.792880
2019.000000	10.795349
2018.000000	10.858613
2017.000000	10.877897
2016.000000	10.886911
2015.000000	10.891313
2014.000000	10.894812
2013.000000	10.866146
2012.000000	10.837343
2011.000000	10.850498
2010.000000	10.860289
2009.000000	10.809174
2008.000000	10.720306
2007.000000	10.663286
2006.000000	10.616093
2005.000000	10.591326
2004.000000	10.506995
2003.000000	10.434045
2002.000000	10.397721
2001.000000	10.356280
2000.000000	10.266467
1999.000000	10.213671
1998.000000	10.156494
1997.000000	10.074918
1996.000000	9.998995
1995.000000	9.952928
1994.000000	9.883139
1993.000000	9.809054
1992.000000	9.714352
1991.000000	9.622173
1990.000000	9.577096
1989.000000	9.510226
1988.000000	9.458799
1987.000000	9.384942
1986.000000	9.308184
1985.000000	9.205334
1984.000000	9.171486
1983.000000	9.130095
1982.000000	9.077108
1981.000000	8.994919
1980.000000	8.919653
1979.000000	8.859416
1978.000000	8.803116
1977.000000	8.735374
1976.000000	8.655843
1975.000000	8.592622
1974.000000	8.523712
1973.000000	8.493866
1972.000000	8.442756
1971.000000	8.381147
1970.000000	8.314178
1969.000000	8.227519
1968.000000	8.182576
1967.000000	8.173979
1966.000000	8.150459
1965.000000	8.063240
1964.000000	7.964347
1963.000000	7.885616
1962.000000	7.883598
1961.000000	7.800885
1960.000000	7.765240
1959.000000	7.748090
1958.000000	7.715396
1957.000000	7.666023
1956.000000	7.591753
1955.000000	7.570862
1954.000000	7.576047
1953.000000	7.529611
1952.000000	7.480052
1951.000000	7.498373
1950.000000	7.479014
1949.000000	7.396492
1948.000000	7.400411
1947.000000	7.409365
1946.000000	7.395599
1945.000000	7.396960
1944.000000	7.441665
1943.000000	7.404569
1942.000000	7.463983
1941.000000	7.403081
1940.000000	7.489867
1939.000000	7.519486
1938.000000	7.643607
1937.000000	7.696253
1936.000000	7.711938
1935.000000	7.728429
1934.000000	7.817019
1933.000000	7.903965
1932.000000	8.009911
1931.000000	7.991920
1930.000000	8.230461
1929.000000	8.278943
1928.000000	8.403667
1927.000000	8.573997
1926.000000	8.688659
1925.000000	8.881008
1924.000000	8.940969
1923.000000	9.085012
1922.000000	9.279780
1921.000000	9.518697
1920.000000	9.737401
1919.000000	9.915110
1918.000000	10.078502
1917.000000	10.289520
1916.000000	10.446430
1915.000000	10.769418
1914.000000	10.934606
1913.000000	11.223335
1912.000000	11.571072
1911.000000	11.746779
1910.000000	12.107651
1909.000000	12.337537
1908.000000	12.709118
1907.000000	13.038495
1906.000000	13.325356
1905.000000	13.742592
1904.000000	14.119092
1903.000000	14.442453
1902.000000	14.817508
1901.000000	15.219361
1900.000000	15.650368
1899.000000	16.087549
1898.000000	16.478164
1897.000000	16.864606
1896.000000	17.283115
1895.000000	17.670625
1894.000000	18.043105
1893.000000	18.425842
1892.000000	18.911483
1891.000000	19.266421
1890.000000	19.701358
1889.000000	20.063195
1888.000000	20.421475
1887.000000	20.836639
1886.000000	21.195308
1885.000000	21.548052
1884.000000	21.874668
1883.000000	22.216869
1882.000000	22.550672
1881.000000	22.873340
1880.000000	23.231666
1879.000000	23.535013
1878.000000	23.781142
1877.000000	24.030144
1876.000000	24.261799
1875.000000	24.589207
1874.000000	24.814044
1873.000000	25.011930
1872.000000	25.225592
1871.000000	25.422721
1870.000000	25.597847
1869.000000	25.743344
1868.000000	25.886142
1867.000000	26.012252
1866.000000	26.092052
1865.000000	26.186129
1864.000000	26.266978
1863.000000	26.375761
1862.000000	26.446314
1861.000000	26.509215
1860.000000	26.594631
1859.000000	26.607710
1858.000000	26.664192
1857.000000	26.743825
1856.000000	26.742529
1855.000000	26.769418
1854.000000	26.814118
1853.000000	26.819876
1852.000000	26.817311
1851.000000	26.857348
1850.000000	26.847829
1849.000000	26.851831
1848.000000	26.874359
1847.000000	26.864118
1846.000000	26.843872
1845.000000	26.817859
1844.000000	26.791834
1843.000000	26.747223
1842.000000	26.717855
1841.000000	26.701248
1840.000000	26.659753
1839.000000	26.637069
1838.000000	26.608545
1837.000000	26.551128
1836.000000	26.466360
1835.000000	26.406705
1834.000000	26.365652
1833.000000	26.335878
1832.000000	26.279408
1831.000000	26.212686
1830.000000	26.188661
1829.000000	26.149360
1828.000000	26.097140
1827.000000	26.049304
1826.000000	26.008940
1825.000000	25.968368
1824.000000	25.952017
1823.000000	25.894611
1822.000000	25.846842
1821.000000	25.798138
1820.000000	25.758890
1819.000000	25.709813
1818.000000	25.653274
1817.000000	25.613776
1816.000000	25.564757
1815.000000	25.541801
1814.000000	25.503122
1813.000000	25.467256
1812.000000	25.457084
1811.000000	25.417388
1810.000000	25.373422
1809.000000	25.350290
1808.000000	25.320280
1807.000000	25.280913
1806.000000	25.238644
1805.000000	25.198660
1804.000000	25.150781
1803.000000	25.113291
1802.000000	25.094428
1801.000000	25.064315
1800.000000	25.021022
1799.000000	24.995131
1798.000000	24.977506
1797.000000	24.945022
1796.000000	24.919305
1795.000000	24.894436
1794.000000	24.879441
1793.000000	24.847206
1792.000000	24.817409
1791.000000	24.803248
1790.000000	24.795836
1789.000000	24.768010
1788.000000	24.749585
1787.000000	24.729924
1786.000000	24.704447
1785.000000	24.677864
1784.000000	24.635095
1783.000000	24.595001
1782.000000	24.563450
1781.000000	24.542277
1780.000000	24.522715
1779.000000	24.484607
1778.000000	24.428303
1777.000000	24.383372
1776.000000	24.318759
1775.000000	24.252051
1774.000000	24.179712
1773.000000	24.139635
1772.000000	24.083528
1771.000000	24.021813
1770.000000	23.954873
1769.000000	23.896229
1768.000000	23.825906
1767.000000	23.773810
1766.000000	23.715612
1765.000000	23.639804
1764.000000	23.608637
1763.000000	23.538819
1762.000000	23.470703
1761.000000	23.414100
1760.000000	23.338775
1759.000000	23.295544
1758.000000	23.241230
1757.000000	23.191122
1756.000000	23.140882
1755.000000	23.098117
1754.000000	23.016795
1753.000000	22.964549
1752.000000	22.897611
1751.000000	22.857975
1750.000000	22.801192
1749.000000	22.722971
1748.000000	22.649982
1747.000000	22.601963
1746.000000	22.545227
1745.000000	22.454685
1744.000000	22.394116
1743.000000	22.341354
1742.000000	22.264841
1741.000000	22.192198
1740.000000	22.152049
1739.000000	22.098127
1738.000000	22.060430
1737.000000	22.012013
1736.000000	21.991493
1735.000000	21.960818
1734.000000	21.911554
1733.000000	21.891054
1732.000000	21.899938
1731.000000	21.883465
1730.000000	21.871854
1729.000000	21.903437
1728.000000	21.955812
1727.000000	21.995172
1726.000000	22.059304
1725.000000	22.109587
1724.000000	22.141986
1723.000000	22.251601
1722.000000	22.334115
1721.000000	22.435172
1720.000000	22.516553
1719.000000	22.601572
1718.000000	22.673778
1717.000000	22.764118
1716.000000	22.863754
1715.000000	22.928196
1714.000000	23.019982
1713.000000	23.114136
1712.000000	23.181937
1711.000000	23.271184
1710.000000	23.293667
1709.000000	23.405125
1708.000000	23.445894
1707.000000	23.475178
1706.000000	23.522563
1705.000000	23.561639
1704.000000	23.596250
1703.000000	23.633387
1702.000000	23.650188
1701.000000	23.663491
1700.000000	23.694013
1699.000000	23.686004
1698.000000	23.724185
1697.000000	23.758549
1696.000000	23.817398
1695.000000	23.851809
1694.000000	23.884040
1693.000000	23.943913
1692.000000	23.994894
1691.000000	24.089457
1690.000000	24.161047
1689.000000	24.251083
1688.000000	24.367849
1687.000000	24.469754
1686.000000	24.599860
1685.000000	24.739582
1684.000000	24.878268
1683.000000	25.027683
1682.000000	25.197840
1681.000000	25.353982
1680.000000	25.555207
1679.000000	25.728254
1678.000000	25.894996
1677.000000	26.092015
1676.000000	26.291437
1675.000000	26.470657
1674.000000	26.646147
1673.000000	26.841181
1672.000000	26.997273
1671.000000	27.167605
1670.000000	27.336440
1669.000000	27.522955
1668.000000	27.665304
1667.000000	27.826220
1666.000000	27.911367
1665.000000	28.023932
1664.000000	28.129736
1663.000000	28.224466
1662.000000	28.314419
1661.000000	28.393187
1660.000000	28.472859
1659.000000	28.558695
1658.000000	28.615513
1657.000000	28.663884
1656.000000	28.694142
1655.000000	28.725698
1654.000000	28.764648
1653.000000	28.775574
1652.000000	28.796504
1651.000000	28.799323
1650.000000	28.811268
1649.000000	28.810406
1648.000000	28.791142
1647.000000	28.795394
1646.000000	28.768980
1645.000000	28.749729
1644.000000	28.753729
1643.000000	28.712505
1642.000000	28.681825
1641.000000	28.642594
1640.000000	28.613015
1639.000000	28.578165
1638.000000	28.555422
1637.000000	28.520783
1636.000000	28.458617
1635.000000	28.406124
1634.000000	28.372890
1633.000000	28.332247
1632.000000	28.286531
1631.000000	28.250635
1630.000000	28.203235
1629.000000	28.158861
1628.000000	28.096587
1627.000000	28.046691
1626.000000	27.988014
1625.000000	27.946725
1624.000000	27.893677
1623.000000	27.842495
1622.000000	27.792114
1621.000000	27.734651
1620.000000	27.684217
1619.000000	27.622367
1618.000000	27.568573
1617.000000	27.503234
1616.000000	27.435033
1615.000000	27.380864
1614.000000	27.319545
1613.000000	27.259091
1612.000000	27.198602
1611.000000	27.137586
1610.000000	27.070977
1609.000000	27.005159
1608.000000	26.933262
1607.000000	26.865136
1606.000000	26.794903
1605.000000	26.722516
1604.000000	26.648857
1603.000000	26.595009
1602.000000	26.530267
1601.000000	26.453794
1600.000000	26.388072
1599.000000	26.322183
1598.000000	26.254501
1597.000000	26.186962
1596.000000	26.122239
1595.000000	26.065282
1594.000000	26.003466
1593.000000	25.951310
1592.000000	25.898966
1591.000000	25.829837
1590.000000	25.768678
1589.000000	25.705620
1588.000000	25.647787
1587.000000	25.597556
1586.000000	25.545272
1585.000000	25.499633
1584.000000	25.446389
1583.000000	25.402049
1582.000000	25.348931
1581.000000	25.290908
1580.000000	25.240899
1579.000000	25.192032
1578.000000	25.146833
1577.000000	25.093298
1576.000000	25.037134
1575.000000	24.990291
1574.000000	24.946569
1573.000000	24.890281
1572.000000	24.843269
1571.000000	24.789188
1570.000000	24.732542
1569.000000	24.699416
1568.000000	24.672000
1567.000000	24.617254
1566.000000	24.584738
1565.000000	24.556535
1564.000000	24.520101
1563.000000	24.476658
1562.000000	24.432721
1561.000000	24.397323
1560.000000	24.373269
1559.000000	24.339484
1558.000000	24.314774
1557.000000	24.278879
1556.000000	24.245244
1555.000000	24.212601
1554.000000	24.187442
1553.000000	24.161312
1552.000000	24.123530
1551.000000	24.089376
1550.000000	24.046245
1549.000000	24.005347
1548.000000	23.970363
1547.000000	23.897891
1546.000000	23.838973
1545.000000	23.780819
1544.000000	23.689962
1543.000000	23.623958
1542.000000	23.553528
1541.000000	23.464154
1540.000000	23.377185
1539.000000	23.309200
1538.000000	23.217071
1537.000000	23.121662
1536.000000	23.034116
1535.000000	22.954883
1534.000000	22.869308
1533.000000	22.768146
1532.000000	22.671847
1531.000000	22.592233
1530.000000	22.527124
1529.000000	22.474193
1528.000000	22.447573
1527.000000	22.420583
1526.000000	22.368636
1525.000000	22.268032
1524.000000	22.168883
1523.000000	22.079449
1522.000000	22.035894
1521.000000	21.996933
1520.000000	21.929635
1519.000000	21.869568
1518.000000	21.834774
1517.000000	21.802586
1516.000000	21.763158
1515.000000	21.720333
1514.000000	21.676599
1513.000000	21.654276
1512.000000	21.606297
1511.000000	21.569106
1510.000000	21.538614
1509.000000	21.531902
1508.000000	21.512142
1507.000000	21.469721
1506.000000	21.444691
1505.000000	21.414375
1504.000000	21.405395
1503.000000	21.370557
1502.000000	21.358998
1501.000000	21.347050
1500.000000	21.345392
1499.000000	21.327102
1498.000000	21.339610
1497.000000	21.351072
1496.000000	21.357180
1495.000000	21.379192
1494.000000	21.389652
1493.000000	21.393725
1492.000000	21.420264
1491.000000	21.454097
1490.000000	21.493312
1489.000000	21.513421
1488.000000	21.548006
1487.000000	21.588424
1486.000000	21.641151
1485.000000	21.673401
1484.000000	21.740474
1483.000000	21.793602
1482.000000	21.821447
1481.000000	21.875832
1480.000000	21.924748
1479.000000	21.986234
1478.000000	22.038388
1477.000000	22.103289
1476.000000	22.171082
1475.000000	22.195267
1474.000000	22.246542
1473.000000	22.295652
1472.000000	22.332199
1471.000000	22.363544
1470.000000	22.400220
1469.000000	22.448727
1468.000000	22.493090
1467.000000	22.571733
1466.000000	22.634853
1465.000000	22.646210
1464.000000	22.685291
1463.000000	22.722941
1462.000000	22.763859
1461.000000	22.832060
1460.000000	22.871033
1459.000000	22.893487
1458.000000	22.945121
1457.000000	23.006862
1456.000000	23.065215
1455.000000	23.096813
1454.000000	23.152255
1453.000000	23.206182
1452.000000	23.281584
1451.000000	23.343663
1450.000000	23.407466
1449.000000	23.437097
1448.000000	23.506820
1447.000000	23.579475
1446.000000	23.684091
1445.000000	23.744517
1444.000000	23.819030
1443.000000	23.876678
1442.000000	23.946474
1441.000000	24.021313
1440.000000	24.109592
1439.000000	24.192284
1438.000000	24.279228
1437.000000	24.402075
1436.000000	24.496767
1435.000000	24.586809
1434.000000	24.674066
1433.000000	24.784436
1432.000000	24.903223
1431.000000	24.993880
1430.000000	25.117046
1429.000000	25.248559
1428.000000	25.363883
1427.000000	25.500026
1426.000000	25.647171
1425.000000	25.789738
1424.000000	25.940400
1423.000000	26.080386
1422.000000	26.245546
1421.000000	26.410330
1420.000000	26.584479
1419.000000	26.767737
1418.000000	26.952375
1417.000000	27.127367
1416.000000	27.327151
1415.000000	27.524610
1414.000000	27.722418
1413.000000	27.911106
1412.000000	28.120014
1411.000000	28.349650
1410.000000	28.550065
1409.000000	28.748801
1408.000000	28.950259
1407.000000	29.170995
1406.000000	29.390246
1405.000000	29.589016
1404.000000	29.797951
1403.000000	30.010677
1402.000000	30.212166
1401.000000	30.413395
1400.000000	30.616017
1399.000000	30.820905
1398.000000	31.001764
1397.000000	31.177422
1396.000000	31.356227
1395.000000	31.537376
1394.000000	31.720501
1393.000000	31.903591
1392.000000	32.073042
1391.000000	32.245938
1390.000000	32.412183
1389.000000	32.559996
1388.000000	32.708394
1387.000000	32.835725
1386.000000	32.973504
1385.000000	33.136956
1384.000000	33.285785
1383.000000	33.398149
1382.000000	33.513335
1381.000000	33.632609
1380.000000	33.734288
1379.000000	33.828948
1378.000000	33.929988
1377.000000	34.010889
1376.000000	34.075032
1375.000000	34.142031
1374.000000	34.219340
1373.000000	34.310728
1372.000000	34.370926
1371.000000	34.421932
1370.000000	34.489495
1369.000000	34.555678
1368.000000	34.620461
1367.000000	34.679723
1366.000000	34.741970
1365.000000	34.811061
1364.000000	34.874179
1363.000000	34.943366
1362.000000	35.031705
1361.000000	35.119703
1360.000000	35.197995
1359.000000	35.239940
1358.000000	35.283361
1357.000000	35.364117
1356.000000	35.446878
1355.000000	35.529596
1354.000000	35.586407
1353.000000	35.648846
1352.000000	35.717155
1351.000000	35.788665
1350.000000	35.871444
1349.000000	35.936659
1348.000000	36.007530
1347.000000	36.063828
1346.000000	36.129558
1345.000000	36.206531
1344.000000	36.266606
1343.000000	36.316497
1342.000000	36.381134
1341.000000	36.458072
1340.000000	36.513170
1339.000000	36.566451
1338.000000	36.615243
1337.000000	36.677625
1336.000000	36.758044
1335.000000	36.808510
1334.000000	36.842472
1333.000000	36.885594
1332.000000	36.916070
1331.000000	36.962630
1330.000000	37.011036
1329.000000	37.065340
1328.000000	37.100079
1327.000000	37.108743
1326.000000	37.152166
1325.000000	37.204542
1324.000000	37.217449
1323.000000	37.229769
1322.000000	37.274931
1321.000000	37.277129
1320.000000	37.279571
1319.000000	37.329551
1318.000000	37.339870
1317.000000	37.364547
1316.000000	37.387923
1315.000000	37.389292
1314.000000	37.413797
1313.000000	37.424759
1312.000000	37.437324
1311.000000	37.436823
1310.000000	37.459049
1309.000000	37.484681
1308.000000	37.491969
1307.000000	37.496123
1306.000000	37.513629
1305.000000	37.518793
1304.000000	37.525863
1303.000000	37.537589
1302.000000	37.558526
1301.000000	37.558173
1300.000000	37.550917
1299.000000	37.553375
1298.000000	37.547380
1297.000000	37.547304
1296.000000	37.538302
1295.000000	37.559219
1294.000000	37.533882
1293.000000	37.528542
1292.000000	37.537443
1291.000000	37.529121
1290.000000	37.499141
1289.000000	37.519114
1288.000000	37.496301
1287.000000	37.473491
1286.000000	37.470842
1285.000000	37.458230
1284.000000	37.413190
1283.000000	37.419087
1282.000000	37.419317
1281.000000	37.419556
1280.000000	37.394014
1279.000000	37.408114
1278.000000	37.406841
1277.000000	37.408978
1276.000000	37.414294
1275.000000	37.407170
1274.000000	37.403231
1273.000000	37.411229
1272.000000	37.406737
1271.000000	37.393142
1270.000000	37.397452
1269.000000	37.395987
1268.000000	37.396246
1267.000000	37.409436
1266.000000	37.421708
1265.000000	37.401361
1264.000000	37.423872
1263.000000	37.489858
1262.000000	37.464165
1261.000000	37.452575
1260.000000	37.471855
1259.000000	37.461995
1258.000000	37.485992
1257.000000	37.522448
1256.000000	37.505409
1255.000000	37.492624
1254.000000	37.480697
1253.000000	37.483458
1252.000000	37.487278
1251.000000	37.491894
1250.000000	37.463604
1249.000000	37.453472
1248.000000	37.454061
1247.000000	37.440642
1246.000000	37.424515
1245.000000	37.428050
1244.000000	37.389838
1243.000000	37.378496
1242.000000	37.356788
1241.000000	37.323549
1240.000000	37.260017
1239.000000	37.252496
1238.000000	37.212577
1237.000000	37.188941
1236.000000	37.123623
1235.000000	37.100649
1234.000000	37.072629
1233.000000	37.047487
1232.000000	36.987116
1231.000000	36.957917
1230.000000	36.939472
1229.000000	36.925935
1228.000000	36.900299
1227.000000	36.818830
1226.000000	36.776289
1225.000000	36.753464
1224.000000	36.745533
1223.000000	36.724636
1222.000000	36.698157
1221.000000	36.646518
1220.000000	36.605866
1219.000000	36.571869
1218.000000	36.536751
1217.000000	36.491655
1216.000000	36.458278
1215.000000	36.408617
1214.000000	36.356694
1213.000000	36.328015
1212.000000	36.308183
1211.000000	36.273100
1210.000000	36.225692
1209.000000	36.202489
1208.000000	36.147224
1207.000000	36.090046
1206.000000	36.022252
1205.000000	35.998584
1204.000000	35.948086
1203.000000	35.899956
1202.000000	35.869102
1201.000000	35.827442
1200.000000	35.760774
1199.000000	35.709789
1198.000000	35.675961
1197.000000	35.644163
1196.000000	35.595825
1195.000000	35.554134
1194.000000	35.520454
1193.000000	35.489577
1192.000000	35.452457
1191.000000	35.411738
1190.000000	35.376439
1189.000000	35.319137
1188.000000	35.306292
1187.000000	35.318863
1186.000000	35.320015
1185.000000	35.313175
1184.000000	35.313332
1183.000000	35.333650
1182.000000	35.371123
1181.000000	35.388960
1180.000000	35.428963
1179.000000	35.465099
1178.000000	35.502127
1177.000000	35.544314
1176.000000	35.596733
1175.000000	35.654402
1174.000000	35.727236
1173.000000	35.797686
1172.000000	35.859409
1171.000000	35.946488
1170.000000	36.033494
1169.000000	36.099480
1168.000000	36.179355
1167.000000	36.281491
1166.000000	36.364786
1165.000000	36.456003
1164.000000	36.557833
1163.000000	36.643951
1162.000000	36.732214
1161.000000	36.825609
1160.000000	36.924600
1159.000000	37.018337
1158.000000	37.101543
1157.000000	37.182147
1156.000000	37.263003
1155.000000	37.350200
1154.000000	37.416575
1153.000000	37.481719
1152.000000	37.543593
1151.000000	37.599543
1150.000000	37.669119
1149.000000	37.733193
1148.000000	37.798964
1147.000000	37.858729
1146.000000	37.917174
1145.000000	37.981555
1144.000000	38.033391
1143.000000	38.090499
1142.000000	38.149497
1141.000000	38.201549
1140.000000	38.258214
1139.000000	38.321037
1138.000000	38.372840
1137.000000	38.423265
1136.000000	38.483484
1135.000000	38.503447
1134.000000	38.533934
1133.000000	38.570886
1132.000000	38.628629
1131.000000	38.691058
1130.000000	38.737945
1129.000000	38.784239
1128.000000	38.813271
1127.000000	38.832762
1126.000000	38.869126
1125.000000	38.894702
1124.000000	38.901760
1123.000000	38.926579
1122.000000	38.934050
1121.000000	38.959427
1120.000000	38.979914
1119.000000	38.958717
1118.000000	38.953591
1117.000000	38.967307
1116.000000	38.982252
1115.000000	38.991494
1114.000000	39.008379
1113.000000	39.008243
1112.000000	39.000200
1111.000000	39.004902
1110.000000	39.009340
1109.000000	39.017351
1108.000000	39.028595
1107.000000	39.036132
1106.000000	39.029345
1105.000000	39.038828
1104.000000	39.043686
1103.000000	39.029262
1102.000000	39.033775
1101.000000	39.032673
1100.000000	39.049398
1099.000000	39.040769
1098.000000	39.006686
1097.000000	39.004506
1096.000000	39.007266
1095.000000	39.010682
1094.000000	39.024565
1093.000000	39.022213
1092.000000	39.028194
1091.000000	39.022187
1090.000000	38.988651
1089.000000	38.974079
1088.000000	38.969468
1087.000000	38.979938
1086.000000	38.970517
1085.000000	38.981007
1084.000000	38.990392
1083.000000	38.951943
1082.000000	38.948837
1081.000000	38.955025
1080.000000	38.946839
1079.000000	38.938043
1078.000000	38.928941
1077.000000	38.899367
1076.000000	38.883992
1075.000000	38.889418
1074.000000	38.870102
1073.000000	38.873147
1072.000000	38.873249
1071.000000	38.872012
1070.000000	38.856033
1069.000000	38.819759
1068.000000	38.819708
1067.000000	38.808932
1066.000000	38.797501
1065.000000	38.790075
1064.000000	38.781965
1063.000000	38.768042
1062.000000	38.738515
1061.000000	38.728144
1060.000000	38.718135
1059.000000	38.717121
1058.000000	38.711824
1057.000000	38.702675
1056.000000	38.642792
1055.000000	38.650224
1054.000000	38.663626
1053.000000	38.628296
1052.000000	38.637234
1051.000000	38.626106
1050.000000	38.588160
1049.000000	38.586218
1048.000000	38.564859
1047.000000	38.560504
1046.000000	38.567426
1045.000000	38.529738
1044.000000	38.528574
1043.000000	38.492663
1042.000000	38.523464
1041.000000	38.491272
1040.000000	38.488404
1039.000000	38.482656
1038.000000	38.487550
1037.000000	38.483920
1036.000000	38.461062
1035.000000	38.443461
1034.000000	38.452290
1033.000000	38.443721
1032.000000	38.431777
1031.000000	38.412325
1030.000000	38.412108
1029.000000	38.411678
1028.000000	38.389130
1027.000000	38.391187
1026.000000	38.405666
1025.000000	38.367029
1024.000000	38.390143
1023.000000	38.393959
1022.000000	38.412583
1021.000000	38.376330
1020.000000	38.385375
1019.000000	38.388502
1018.000000	38.370542
1017.000000	38.386130
1016.000000	38.405774
1015.000000	38.409352
1014.000000	38.391014
1013.000000	38.399190
1012.000000	38.410923
1011.000000	38.396632
1010.000000	38.417266
1009.000000	38.420046
1008.000000	38.413204
1007.000000	38.425405
1006.000000	38.432758
1005.000000	38.437362
1004.000000	38.459784
1003.000000	38.444455
1002.000000	38.448912
1001.000000	38.459600
1000.000000	38.463574
999.000000	38.462369
998.000000	38.466167
997.000000	38.478779
996.000000	38.494872
995.000000	38.507030
994.000000	38.505362
993.000000	38.517205
992.000000	38.511231
991.000000	38.526654
990.000000	38.525234
989.000000	38.529863
988.000000	38.518107
987.000000	38.531692
986.000000	38.536323
985.000000	38.544623
984.000000	38.571994
983.000000	38.567215
982.000000	38.592828
981.000000	38.612414
980.000000	38.639682
979.000000	38.656136
978.000000	38.647622
977.000000	38.667226
976.000000	38.677771
975.000000	38.683906
974.000000	38.693238
973.000000	38.694551
972.000000	38.720553
971.000000	38.730673
970.000000	38.729297
969.000000	38.732648
968.000000	38.746223
967.000000	38.750002
966.000000	38.751477
965.000000	38.779485
964.000000	38.787946
963.000000	38.797833
962.000000	38.803815
961.000000	38.803420
960.000000	38.803111
959.000000	38.818139
958.000000	38.835306
957.000000	38.839779
956.000000	38.838550
955.000000	38.830076
954.000000	38.839864
953.000000	38.848758
952.000000	38.850036
951.000000	38.862809
950.000000	38.881564
949.000000	38.877070
948.000000	38.869437
947.000000	38.883983
946.000000	38.886558
945.000000	38.882365
944.000000	38.893939
943.000000	38.887973
942.000000	38.876919
941.000000	38.882604
940.000000	38.883784
939.000000	38.881363
938.000000	38.859637
937.000000	38.841717
936.000000	38.865139
935.000000	38.875269
934.000000	38.860872
933.000000	38.861312
932.000000	38.842875
931.000000	38.831647
930.000000	38.831718
929.000000	38.804597
928.000000	38.796379
927.000000	38.795111
926.000000	38.791208
925.000000	38.786259
924.000000	38.785998
923.000000	38.794217
922.000000	38.772108
921.000000	38.776102
920.000000	38.785348
919.000000	38.755555
918.000000	38.751717
917.000000	38.754788
916.000000	38.763675
915.000000	38.759260
914.000000	38.737888
913.000000	38.716533
912.000000	38.710508
911.000000	38.711218
910.000000	38.724388
909.000000	38.690963
908.000000	38.681850
907.000000	38.689027
906.000000	38.704688
905.000000	38.719485
904.000000	38.729821
903.000000	38.707789
902.000000	38.713535
901.000000	38.718619
900.000000	38.694768
899.000000	38.714256
898.000000	38.740366
897.000000	38.775699
896.000000	38.784595
895.000000	38.756737
894.000000	38.729291
893.000000	38.717976
892.000000	38.723269
891.000000	38.774825
890.000000	38.820077
889.000000	38.795684
888.000000	38.801590
887.000000	38.764905
886.000000	38.809567
885.000000	38.788639
884.000000	38.760061
883.000000	38.778952
882.000000	38.799131
881.000000	38.753049
880.000000	38.751315
879.000000	38.796643
878.000000	38.757324
877.000000	38.768446
876.000000	38.800369
875.000000	38.823228
874.000000	38.773589
873.000000	38.832000
872.000000	38.771374
871.000000	38.731614
870.000000	38.765915
869.000000	38.748941
868.000000	38.784796
867.000000	38.806237
866.000000	38.722584
865.000000	38.723386
864.000000	38.678886
863.000000	38.691981
862.000000	38.749858
861.000000	38.745820
860.000000	38.713514
859.000000	38.977906
858.000000	39.268124
857.000000	39.049082
856.000000	39.067094
855.000000	39.317787
854.000000	39.014767
853.000000	38.959022
852.000000	39.022228
851.000000	38.939447
850.000000	39.135068
849.000000	38.874605
848.000000	39.010116
847.000000	39.072286
846.000000	38.986851
845.000000	38.804786
844.000000	39.004276
843.000000	38.917686
842.000000	38.926161
841.000000	38.876057
840.000000	38.939414
839.000000	38.790262
838.000000	38.898930
837.000000	38.749106
836.000000	38.859355
835.000000	38.795432
834.000000	38.771898
833.000000	38.686556
832.000000	38.671887
831.000000	38.764132
830.000000	38.872694
829.000000	38.680598
828.000000	38.729014
827.000000	38.547827
826.000000	38.687507
825.000000	38.563284
824.000000	38.664961
823.000000	38.691000
822.000000	38.687026
821.000000	38.702549
820.000000	38.605719
819.000000	38.680273
818.000000	38.664689
817.000000	38.596118
816.000000	38.620284
815.000000	38.581326
814.000000	38.584479
813.000000	38.437306
812.000000	38.543525
811.000000	38.486671
810.000000	38.482303
809.000000	38.526466
808.000000	38.459987
807.000000	38.501050
806.000000	38.491334
805.000000	38.454150
804.000000	38.400543
803.000000	38.463980
802.000000	38.456709
801.000000	38.445737
800.000000	38.383843
799.000000	38.392266
798.000000	38.414148
797.000000	38.376265
796.000000	38.431477
795.000000	38.358451
794.000000	38.250328
793.000000	38.340834
792.000000	38.366478
791.000000	38.266268
790.000000	38.211147
789.000000	38.220242
788.000000	38.188267
787.000000	38.180843
786.000000	38.222322
785.000000	38.175068
784.000000	38.214147
783.000000	38.210835
782.000000	38.166124
781.000000	38.151893
780.000000	38.135671
779.000000	38.076095
778.000000	38.120715
777.000000	38.119990
776.000000	38.069539
775.000000	38.081051
774.000000	38.010080
773.000000	37.983285
772.000000	38.011641
771.000000	37.959500
770.000000	37.982888
769.000000	37.935236
768.000000	37.918971
767.000000	37.932235
766.000000	37.916858
765.000000	37.923454
764.000000	37.884083
763.000000	37.852120
762.000000	37.876331
761.000000	37.845644
760.000000	37.779993
759.000000	37.760172
758.000000	37.761159
757.000000	37.747463
756.000000	37.721942
755.000000	37.713285
754.000000	37.694613
753.000000	37.635360
752.000000	37.650864
751.000000	37.580346
750.000000	37.559458
749.000000	37.625175
748.000000	37.568769
747.000000	37.553762
746.000000	37.533770
745.000000	37.521776
744.000000	37.513132
743.000000	37.409635
742.000000	37.377057
741.000000	37.436500
740.000000	37.384289
739.000000	37.332131
738.000000	37.361446
737.000000	37.359713
736.000000	37.318166
735.000000	37.232050
734.000000	37.290971
733.000000	37.289600
732.000000	37.246219
731.000000	37.213471
730.000000	37.201351
729.000000	37.187357
728.000000	37.169175
727.000000	37.149762
726.000000	37.066629
725.000000	37.035639
724.000000	37.068046
723.000000	37.040905
722.000000	36.966741
721.000000	36.994858
720.000000	36.997035
719.000000	36.965194
718.000000	36.928765
717.000000	36.898183
716.000000	36.898762
715.000000	36.848882
714.000000	36.816182
713.000000	36.778996
712.000000	36.772912
711.000000	36.789351
710.000000	36.749144
709.000000	36.695826
708.000000	36.654904
707.000000	36.662122
706.000000	36.640171
705.000000	36.572605
704.000000	36.549429
703.000000	36.567499
702.000000	36.562405
701.000000	36.495350
700.000000	36.457233
699.000000	36.442324
698.000000	36.372457
697.000000	36.367932
696.000000	36.326026
695.000000	36.277657
694.000000	36.280073
693.000000	36.237064
692.000000	36.208537
691.000000	36.191143
690.000000	36.156197
689.000000	36.078150
688.000000	36.013891
687.000000	35.996336
686.000000	35.986835
685.000000	35.942713
684.000000	35.885942
683.000000	35.901436
682.000000	35.860563
681.000000	35.813403
680.000000	35.780247
679.000000	35.771821
678.000000	35.739733
677.000000	35.671508
676.000000	35.625382
675.000000	35.601815
674.000000	35.575355
673.000000	35.547435
672.000000	35.529800
671.000000	35.490095
670.000000	35.424912
669.000000	35.378958
668.000000	35.371998
667.000000	35.346312
666.000000	35.274933
665.000000	35.276256
664.000000	35.256547
663.000000	35.194796
662.000000	35.152463
661.000000	35.125757
660.000000	35.071417
659.000000	35.032893
658.000000	35.003743
657.000000	34.999889
656.000000	34.928234
655.000000	34.919751
654.000000	34.911803
653.000000	34.864078
652.000000	34.810850
651.000000	34.763183
650.000000	34.725525
649.000000	34.702392
648.000000	34.656258
647.000000	34.650103
646.000000	34.600108
645.000000	34.550059
644.000000	34.496465
643.000000	34.481910
642.000000	34.427026
641.000000	34.374222
640.000000	34.334177
639.000000	34.326414
638.000000	34.301809
637.000000	34.224002
636.000000	34.185800
635.000000	34.141582
634.000000	34.109120
633.000000	34.106354
632.000000	34.037533
631.000000	33.988492
630.000000	33.933292
629.000000	33.917322
628.000000	33.853432
627.000000	33.868616
626.000000	33.793501
625.000000	33.735027
624.000000	33.722448
623.000000	33.670349
622.000000	33.604374
621.000000	33.544257
620.000000	33.487915
619.000000	33.456338
618.000000	33.442356
617.000000	33.399635
616.000000	33.325940
615.000000	33.263912
614.000000	33.218702
613.000000	33.243680
612.000000	33.147267
611.000000	33.126072
610.000000	33.083325
609.000000	33.004091
608.000000	32.941283
607.000000	32.930097
606.000000	32.882457
605.000000	32.814655
604.000000	32.783794
603.000000	32.766205
602.000000	32.702799
601.000000	32.686705
600.000000	32.591800
599.000000	32.526165
598.000000	32.490041
597.000000	32.450713
596.000000	32.370510
595.000000	32.329171
594.000000	32.298381
593.000000	32.268699
592.000000	32.196712
591.000000	32.151964
590.000000	32.093578
589.000000	32.050467
588.000000	32.006808
587.000000	31.932347
586.000000	31.907501
585.000000	31.872650
584.000000	31.786671
583.000000	31.716628
582.000000	31.679302
581.000000	31.603179
580.000000	31.565467
579.000000	31.528788
578.000000	31.492187
577.000000	31.391647
576.000000	31.365324
575.000000	31.316516
574.000000	31.258140
573.000000	31.193599
572.000000	31.114092
571.000000	31.046711
570.000000	31.007001
569.000000	30.945814
568.000000	30.886939
567.000000	30.847411
566.000000	30.795022
565.000000	30.738938
564.000000	30.662224
563.000000	30.610871
562.000000	30.557159
561.000000	30.528442
560.000000	30.439680
559.000000	30.394974
558.000000	30.356159
557.000000	30.277564
556.000000	30.237922
555.000000	30.168271
554.000000	30.109561
553.000000	30.065319
552.000000	29.986649
551.000000	29.929173
550.000000	29.869601
549.000000	29.784093
548.000000	29.707566
547.000000	29.660663
546.000000	29.588327
545.000000	29.514009
544.000000	29.465229
543.000000	29.378441
542.000000	29.302048
541.000000	29.218448
540.000000	29.169079
539.000000	29.112722
538.000000	29.023488
537.000000	28.960477
536.000000	28.876200
535.000000	28.822012
534.000000	28.763707
533.000000	28.703484
532.000000	28.626494
531.000000	28.546409
530.000000	28.446778
529.000000	28.385192
528.000000	28.296295
527.000000	28.229726
526.000000	28.169845
525.000000	28.089412
524.000000	28.000531
523.000000	27.952098
522.000000	27.865065
521.000000	27.802083
520.000000	27.703606
519.000000	27.634534
518.000000	27.559883
517.000000	27.478885
516.000000	27.380832
515.000000	27.315223
514.000000	27.259734
513.000000	27.174629
512.000000	27.076797
511.000000	27.010753
510.000000	26.921331
509.000000	26.825888
508.000000	26.742239
507.000000	26.657025
506.000000	26.575930
505.000000	26.507230
504.000000	26.420009
503.000000	26.340387
502.000000	26.207254
501.000000	26.114863
500.000000	26.011756
499.000000	25.902362
498.000000	25.829849
497.000000	25.739108
496.000000	25.643212
495.000000	25.546225
494.000000	25.419452
493.000000	25.318276
492.000000	25.252112
491.000000	25.146168
490.000000	25.036365
489.000000	24.932482
488.000000	24.830307
487.000000	24.731532
486.000000	24.613981
485.000000	24.503695
484.000000	24.371754
483.000000	24.315994
482.000000	24.250231
481.000000	24.111356
480.000000	23.998054
479.000000	23.873653
478.000000	23.758025
477.000000	23.640078
476.000000	23.525050
475.000000	23.433426
474.000000	23.331493
473.000000	23.188802
472.000000	23.049080
471.000000	22.950128
470.000000	22.852284
469.000000	22.724869
468.000000	22.605391
467.000000	22.468706
466.000000	22.338612
465.000000	22.225845
464.000000	22.103774
463.000000	21.984165
462.000000	21.859830
461.000000	21.723000
460.000000	21.585491
459.000000	21.465471
458.000000	21.321998
457.000000	21.196060
456.000000	21.062991
455.000000	20.931913
454.000000	20.806640
453.000000	20.660222
452.000000	20.503217
451.000000	20.347924
450.000000	20.234329
449.000000	20.091970
448.000000	19.943234
447.000000	19.829617
446.000000	19.692116
445.000000	19.515966
444.000000	19.388530
443.000000	19.249151
442.000000	19.070468
441.000000	18.924692
440.000000	18.781383
439.000000	18.619910
438.000000	18.478172
437.000000	18.333340
436.000000	18.187169
435.000000	18.035206
434.000000	17.877078
433.000000	17.735834
432.000000	17.568702
431.000000	17.409065
430.000000	17.267498
429.000000	17.112629
428.000000	16.938121
427.000000	16.759861
426.000000	16.606622
425.000000	16.453657
424.000000	16.294198
423.000000	16.123528
422.000000	15.961926
421.000000	15.814114
420.000000	15.656773
419.000000	15.505002
418.000000	15.381672
417.000000	15.227438
416.000000	15.092462
415.000000	14.956638
414.000000	14.820544
413.000000	14.697466
412.000000	14.560599
411.000000	14.433660
410.000000	14.323029
409.000000	14.224796
408.000000	14.110455
407.000000	13.999805
406.000000	13.890513
405.000000	13.787881
404.000000	13.681663
403.000000	13.581995
402.000000	13.447917
401.000000	13.329523
400.000000	13.224404
399.000000	13.116859
398.000000	12.979018
397.000000	12.883740
396.000000	12.763575
395.000000	12.638676
394.000000	12.498212
393.000000	12.372656
392.000000	12.267265
391.000000	12.121017
390.000000	11.984315
389.000000	11.863872
388.000000	11.724897
387.000000	11.592243
386.000000	11.446761
385.000000	11.307858
384.000000	11.183503
383.000000	11.039367
382.000000	10.880260
381.000000	10.735798
380.000000	10.602397
379.000000	10.455112
378.000000	10.267024
377.000000	10.228135
376.000000	10.056417
375.000000	9.955661
374.000000	9.767149
373.000000	9.634578
372.000000	9.491038
371.000000	9.364256
370.000000	9.228704
369.000000	9.116549
368.000000	8.989432
367.000000	8.830829
366.000000	8.665475
365.000000	8.567338
364.000000	8.442331
363.000000	8.317816
362.000000	8.187580
361.000000	8.105411
360.000000	7.952281
359.000000	7.807269
358.000000	7.730087
357.000000	7.617401
356.000000	7.517483
355.000000	7.377689
354.000000	7.234934
353.000000	7.154494
352.000000	7.016939
351.000000	6.888214
350.000000	6.797943
349.000000	6.689401
348.000000	6.593324
347.000000	6.509217
346.000000	6.336438
345.000000	6.259274
344.000000	6.132759
343.000000	5.991146
342.000000	5.935940
341.000000	5.819161
340.000000	5.660094
339.000000	5.623503
338.000000	5.459036
337.000000	5.372144
336.000000	5.279495
335.000000	5.151129
334.000000	5.029987
333.000000	4.905358
332.000000	4.830270
331.000000	4.775726
330.000000	4.632976
329.000000	4.561557
328.000000	4.443745
327.000000	4.399612
326.000000	4.254585
325.000000	4.172136
324.000000	4.131389
323.000000	4.015772
322.000000	3.918125
321.000000	3.837743
320.000000	3.783504
319.000000	3.660051
318.000000	3.622121
317.000000	3.545928
316.000000	3.480314
315.000000	3.393561
314.000000	3.327397
313.000000	3.227803
312.000000	3.154874
311.000000	3.074954
310.000000	2.963476
309.000000	2.884789
308.000000	2.800890
307.000000	2.691187
306.000000	2.571514
305.000000	2.473665
304.000000	2.388697
303.000000	2.277243
302.000000	2.189364
301.000000	2.084185
300.000000	2.003098
299.000000	1.906914
298.000000	1.822695
297.000000	1.751131
296.000000	1.676855
295.000000	1.599204
294.000000	1.552628
293.000000	1.486688
292.000000	1.443508
291.000000	1.364322
290.000000	1.311110
289.000000	1.260671
288.000000	1.205929
287.000000	1.176733
286.000000	1.162941
285.000000	1.166241
284.000000	1.160475
283.000000	1.180174
282.000000	1.187213
281.000000	1.216365
280.000000	1.230327
279.000000	1.249949
278.000000	1.268833
277.000000	1.287133
276.000000	1.319918
275.000000	1.375015
274.000000	1.428409
273.000000	1.472975
272.000000	1.496569
271.000000	1.518701
270.000000	1.547612
269.000000	1.587435
268.000000	1.618336
267.000000	1.673053
266.000000	1.713173
265.000000	1.764227
264.000000	1.805278
263.000000	1.865072
262.000000	1.908411
261.000000	1.952768
260.000000	1.999645
259.000000	2.030199
258.000000	2.036251
257.000000	2.074885
256.000000	2.135242
255.000000	2.152703
254.000000	2.142345
253.000000	2.121275
252.000000	2.098777
251.000000	2.044241
250.000000	1.996615
249.000000	1.912500
248.000000	1.836338
247.000000	1.724780
246.000000	1.604295
245.000000	1.462641
244.000000	1.326074
243.000000	1.199496
242.000000	1.069191
241.000000	0.956446
240.000000	0.871412
239.000000	0.798263
238.000000	0.744991
237.000000	0.696569
236.000000	0.666168
235.000000	0.624698
234.000000	0.580736
233.000000	0.545173
232.000000	0.522259
231.000000	0.482152
230.000000	0.440351
229.000000	0.393990
228.000000	0.352697
227.000000	0.322868
226.000000	0.294880
225.000000	0.262685
224.000000	0.253612
223.000000	0.237687
222.000000	0.207770
221.000000	0.190906
220.000000	0.185533
219.000000	0.190851
218.000000	0.174960
217.000000	0.170770
216.000000	0.164691
215.000000	0.152454
214.000000	0.145170
213.000000	0.142618
212.000000	0.150823
211.000000	0.143734
210.000000	0.119305
209.000000	0.148020
208.000000	0.145712
207.000000	0.110887
206.000000	0.129613
205.000000	0.141603
204.000000	0.159196
203.000000	0.175561
202.000000	0.162788
201.000000	0.151913
200.000000	0.199133
