PE UV       SUBTECH     SPECTRUM    ASCII       PEDS        4.00        
   -1
RTChevreUK 32.Sample.asc
18/03/02
10:37:15.00
18/03/02
10:37:15.00
Administrator

200.000000
1
Lambda 750
750N8071901
PerkinElmer UV WinLab 6.0.4.0738 / 1.61.00 Lambda 900

0
0
3350/servo 860.8/2
0
0
UV/VIS
1
1
1
CommonBeamDepol,150mm sphere / downward view
0
0
0
0
Program
Program
3350/servo 860.8/2
3350/0.2 860.8/0.2
3350/0.2 860.8/0.2
0
1
 
 
 
0
 
860.8
319.2
860.8
Front
100
on
 
 
0
0
0
 
0
 
 
 
0
 
 
0
0
0
0
0
 
 
 
 
0
0


0
0
#HDR
-1
-1
#GR
nm
%R
1.0
0.0
2350.000000
-1.000000
2151
8
59.239355
10.172370
#DATA
2350.000000	12.249103
2349.000000	12.300493
2348.000000	12.145674
2347.000000	13.022147
2346.000000	12.577358
2345.000000	12.577528
2344.000000	12.274085
2343.000000	12.318369
2342.000000	12.087556
2341.000000	12.458522
2340.000000	12.307202
2339.000000	12.420957
2338.000000	12.782647
2337.000000	12.921100
2336.000000	12.880319
2335.000000	13.366762
2334.000000	13.491591
2333.000000	13.368319
2332.000000	13.325482
2331.000000	13.202854
2330.000000	13.214957
2329.000000	13.450539
2328.000000	12.918346
2327.000000	13.292859
2326.000000	13.007803
2325.000000	13.025389
2324.000000	12.946867
2323.000000	12.763916
2322.000000	12.838007
2321.000000	12.592497
2320.000000	12.603457
2319.000000	12.726358
2318.000000	12.714147
2317.000000	12.783724
2316.000000	12.378464
2315.000000	12.276821
2314.000000	12.274754
2313.000000	12.376864
2312.000000	12.111299
2311.000000	12.296554
2310.000000	12.447699
2309.000000	12.235456
2308.000000	12.042452
2307.000000	12.204354
2306.000000	11.955980
2305.000000	11.916042
2304.000000	11.956904
2303.000000	11.980046
2302.000000	12.187144
2301.000000	11.945433
2300.000000	11.972342
2299.000000	11.717212
2298.000000	11.615871
2297.000000	11.558259
2296.000000	11.683008
2295.000000	11.762330
2294.000000	11.692190
2293.000000	11.575205
2292.000000	11.526339
2291.000000	11.689197
2290.000000	11.632519
2289.000000	11.469748
2288.000000	11.521628
2287.000000	11.473507
2286.000000	11.433015
2285.000000	11.652032
2284.000000	11.625511
2283.000000	11.239019
2282.000000	11.162226
2281.000000	11.370171
2280.000000	11.464780
2279.000000	11.620841
2278.000000	11.517587
2277.000000	11.624898
2276.000000	11.601584
2275.000000	11.511018
2274.000000	11.601907
2273.000000	11.667103
2272.000000	11.614014
2271.000000	11.658885
2270.000000	11.726340
2269.000000	11.833631
2268.000000	11.867873
2267.000000	11.948192
2266.000000	12.117525
2265.000000	12.217343
2264.000000	12.230081
2263.000000	12.269755
2262.000000	12.345726
2261.000000	12.578703
2260.000000	12.679277
2259.000000	12.810356
2258.000000	12.939972
2257.000000	12.947644
2256.000000	13.126749
2255.000000	13.363481
2254.000000	13.469221
2253.000000	13.384073
2252.000000	13.463386
2251.000000	13.786062
2250.000000	13.975308
2249.000000	14.111590
2248.000000	14.201878
2247.000000	14.205928
2246.000000	14.407786
2245.000000	14.786785
2244.000000	14.939419
2243.000000	15.124043
2242.000000	15.289507
2241.000000	15.325608
2240.000000	15.376992
2239.000000	15.345392
2238.000000	15.368435
2237.000000	15.529362
2236.000000	15.771134
2235.000000	15.892844
2234.000000	15.868025
2233.000000	15.869075
2232.000000	15.986929
2231.000000	16.049738
2230.000000	16.101997
2229.000000	16.091976
2228.000000	16.176900
2227.000000	16.152420
2226.000000	16.007682
2225.000000	15.955588
2224.000000	16.091721
2223.000000	16.135770
2222.000000	15.936430
2221.000000	15.955446
2220.000000	15.996801
2219.000000	16.000032
2218.000000	15.836624
2217.000000	15.792578
2216.000000	15.836663
2215.000000	15.787772
2214.000000	15.653079
2213.000000	15.732865
2212.000000	15.729978
2211.000000	15.697406
2210.000000	15.588433
2209.000000	15.521606
2208.000000	15.451201
2207.000000	15.266677
2206.000000	15.284560
2205.000000	15.416828
2204.000000	15.337146
2203.000000	15.174735
2202.000000	15.126742
2201.000000	15.047797
2200.000000	15.099328
2199.000000	15.073119
2198.000000	15.039627
2197.000000	14.932992
2196.000000	14.762360
2195.000000	14.701819
2194.000000	14.701215
2193.000000	14.469993
2192.000000	14.513663
2191.000000	14.443125
2190.000000	14.423594
2189.000000	14.286551
2188.000000	14.245595
2187.000000	14.265907
2186.000000	14.395479
2185.000000	14.309712
2184.000000	14.242168
2183.000000	14.340290
2182.000000	14.289338
2181.000000	14.049770
2180.000000	14.093875
2179.000000	14.149488
2178.000000	13.955843
2177.000000	14.028803
2176.000000	14.046489
2175.000000	14.115791
2174.000000	14.083115
2173.000000	14.018395
2172.000000	14.277010
2171.000000	14.374275
2170.000000	14.275892
2169.000000	14.348370
2168.000000	14.394079
2167.000000	14.307608
2166.000000	14.503195
2165.000000	14.652232
2164.000000	14.584010
2163.000000	14.540760
2162.000000	14.530516
2161.000000	14.712870
2160.000000	14.991445
2159.000000	15.044332
2158.000000	15.182803
2157.000000	15.354938
2156.000000	15.354857
2155.000000	15.446699
2154.000000	15.584806
2153.000000	15.772992
2152.000000	15.972109
2151.000000	16.067579
2150.000000	16.028938
2149.000000	16.086431
2148.000000	16.225682
2147.000000	16.375794
2146.000000	16.516832
2145.000000	16.655025
2144.000000	16.858198
2143.000000	16.895416
2142.000000	16.972005
2141.000000	17.159885
2140.000000	17.315114
2139.000000	17.359031
2138.000000	17.528815
2137.000000	17.531817
2136.000000	17.801652
2135.000000	17.687636
2134.000000	17.894643
2133.000000	17.912823
2132.000000	18.126530
2131.000000	18.327795
2130.000000	18.491896
2129.000000	18.374722
2128.000000	18.361159
2127.000000	18.351114
2126.000000	18.433765
2125.000000	18.624500
2124.000000	18.659431
2123.000000	18.673749
2122.000000	18.762871
2121.000000	18.742059
2120.000000	18.835992
2119.000000	19.016127
2118.000000	19.052552
2117.000000	18.978687
2116.000000	19.061101
2115.000000	19.050140
2114.000000	19.059434
2113.000000	19.153002
2112.000000	19.254496
2111.000000	19.243361
2110.000000	19.211966
2109.000000	19.299799
2108.000000	19.416560
2107.000000	19.365087
2106.000000	19.415409
2105.000000	19.280656
2104.000000	19.368833
2103.000000	19.424206
2102.000000	19.350574
2101.000000	19.438181
2100.000000	19.400539
2099.000000	19.439615
2098.000000	19.399866
2097.000000	19.428771
2096.000000	19.308259
2095.000000	19.459285
2094.000000	19.503619
2093.000000	19.483277
2092.000000	19.503978
2091.000000	19.458733
2090.000000	19.415115
2089.000000	19.353187
2088.000000	19.387306
2087.000000	19.349643
2086.000000	19.310992
2085.000000	19.381581
2084.000000	19.252505
2083.000000	19.117414
2082.000000	19.064448
2081.000000	19.074366
2080.000000	18.954764
2079.000000	18.867027
2078.000000	18.731322
2077.000000	18.779033
2076.000000	18.671481
2075.000000	18.505338
2074.000000	18.410741
2073.000000	18.380848
2072.000000	18.243518
2071.000000	18.149647
2070.000000	17.990871
2069.000000	17.907953
2068.000000	17.816109
2067.000000	17.694599
2066.000000	17.560602
2065.000000	17.393649
2064.000000	17.245874
2063.000000	17.153324
2062.000000	17.106833
2061.000000	16.978696
2060.000000	16.825154
2059.000000	16.715589
2058.000000	16.578410
2057.000000	16.412251
2056.000000	16.375063
2055.000000	16.295717
2054.000000	16.135303
2053.000000	16.034283
2052.000000	15.893218
2051.000000	15.808030
2050.000000	15.827740
2049.000000	15.761878
2048.000000	15.692142
2047.000000	15.656742
2046.000000	15.612868
2045.000000	15.574521
2044.000000	15.560336
2043.000000	15.591142
2042.000000	15.618849
2041.000000	15.635681
2040.000000	15.654010
2039.000000	15.666717
2038.000000	15.708786
2037.000000	15.756027
2036.000000	15.819241
2035.000000	15.950997
2034.000000	16.026974
2033.000000	16.054798
2032.000000	16.164709
2031.000000	16.293442
2030.000000	16.382017
2029.000000	16.555692
2028.000000	16.706843
2027.000000	16.756831
2026.000000	16.872963
2025.000000	16.986227
2024.000000	17.036642
2023.000000	17.140094
2022.000000	17.246452
2021.000000	17.285315
2020.000000	17.370622
2019.000000	17.466314
2018.000000	17.560207
2017.000000	17.574853
2016.000000	17.533248
2015.000000	17.573648
2014.000000	17.644752
2013.000000	17.680386
2012.000000	17.662172
2011.000000	17.640231
2010.000000	17.589094
2009.000000	17.519843
2008.000000	17.496650
2007.000000	17.457643
2006.000000	17.397761
2005.000000	17.364292
2004.000000	17.312617
2003.000000	17.271153
2002.000000	17.210243
2001.000000	17.141322
2000.000000	17.096861
1999.000000	17.045879
1998.000000	16.960938
1997.000000	16.899971
1996.000000	16.838070
1995.000000	16.782299
1994.000000	16.720687
1993.000000	16.597217
1992.000000	16.518609
1991.000000	16.474801
1990.000000	16.430878
1989.000000	16.322200
1988.000000	16.255027
1987.000000	16.201539
1986.000000	16.106624
1985.000000	16.027037
1984.000000	15.942408
1983.000000	15.879976
1982.000000	15.815326
1981.000000	15.747314
1980.000000	15.711290
1979.000000	15.688233
1978.000000	15.605538
1977.000000	15.499456
1976.000000	15.408743
1975.000000	15.363913
1974.000000	15.336313
1973.000000	15.291096
1972.000000	15.237889
1971.000000	15.140864
1970.000000	15.052753
1969.000000	15.004095
1968.000000	14.973922
1967.000000	14.902625
1966.000000	14.874807
1965.000000	14.825231
1964.000000	14.748383
1963.000000	14.739507
1962.000000	14.668490
1961.000000	14.576972
1960.000000	14.527965
1959.000000	14.477300
1958.000000	14.451010
1957.000000	14.372807
1956.000000	14.396117
1955.000000	14.360148
1954.000000	14.306260
1953.000000	14.281846
1952.000000	14.188749
1951.000000	14.237998
1950.000000	14.211339
1949.000000	14.187448
1948.000000	14.155600
1947.000000	14.185264
1946.000000	14.118358
1945.000000	14.109062
1944.000000	14.238993
1943.000000	14.246436
1942.000000	14.217557
1941.000000	14.261620
1940.000000	14.267989
1939.000000	14.341790
1938.000000	14.358093
1937.000000	14.419437
1936.000000	14.521385
1935.000000	14.645777
1934.000000	14.693675
1933.000000	14.852061
1932.000000	15.038652
1931.000000	15.046990
1930.000000	15.096263
1929.000000	15.305859
1928.000000	15.452028
1927.000000	15.648284
1926.000000	15.800280
1925.000000	15.956726
1924.000000	16.158172
1923.000000	16.359388
1922.000000	16.616697
1921.000000	16.929118
1920.000000	17.165286
1919.000000	17.338085
1918.000000	17.543565
1917.000000	17.884952
1916.000000	18.101997
1915.000000	18.491655
1914.000000	18.919934
1913.000000	19.280584
1912.000000	19.527752
1911.000000	19.810454
1910.000000	20.153761
1909.000000	20.525466
1908.000000	21.009237
1907.000000	21.407944
1906.000000	21.840438
1905.000000	22.349451
1904.000000	22.765653
1903.000000	23.267183
1902.000000	23.806098
1901.000000	24.268413
1900.000000	24.827306
1899.000000	25.264828
1898.000000	25.796862
1897.000000	26.265976
1896.000000	26.822837
1895.000000	27.318733
1894.000000	27.800853
1893.000000	28.367453
1892.000000	28.916985
1891.000000	29.454253
1890.000000	29.926992
1889.000000	30.458704
1888.000000	30.947019
1887.000000	31.394868
1886.000000	31.851245
1885.000000	32.316411
1884.000000	32.780737
1883.000000	33.222630
1882.000000	33.557128
1881.000000	33.964401
1880.000000	34.368185
1879.000000	34.700838
1878.000000	34.999296
1877.000000	35.384788
1876.000000	35.716991
1875.000000	35.995218
1874.000000	36.273640
1873.000000	36.477195
1872.000000	36.736574
1871.000000	36.947178
1870.000000	37.140859
1869.000000	37.321180
1868.000000	37.490381
1867.000000	37.634849
1866.000000	37.752169
1865.000000	37.877984
1864.000000	37.939028
1863.000000	38.031597
1862.000000	38.141063
1861.000000	38.196098
1860.000000	38.290517
1859.000000	38.331593
1858.000000	38.369090
1857.000000	38.429883
1856.000000	38.443243
1855.000000	38.494470
1854.000000	38.519680
1853.000000	38.551094
1852.000000	38.577469
1851.000000	38.555418
1850.000000	38.513429
1849.000000	38.539454
1848.000000	38.541499
1847.000000	38.505333
1846.000000	38.463532
1845.000000	38.426067
1844.000000	38.413975
1843.000000	38.381419
1842.000000	38.316923
1841.000000	38.259824
1840.000000	38.204728
1839.000000	38.159206
1838.000000	38.119900
1837.000000	38.043213
1836.000000	37.996693
1835.000000	37.972739
1834.000000	37.907507
1833.000000	37.814835
1832.000000	37.767468
1831.000000	37.718417
1830.000000	37.660537
1829.000000	37.587351
1828.000000	37.497872
1827.000000	37.481656
1826.000000	37.429133
1825.000000	37.375421
1824.000000	37.323379
1823.000000	37.250627
1822.000000	37.206752
1821.000000	37.181670
1820.000000	37.129757
1819.000000	37.063392
1818.000000	37.030899
1817.000000	36.982428
1816.000000	36.904576
1815.000000	36.857810
1814.000000	36.820962
1813.000000	36.786486
1812.000000	36.732899
1811.000000	36.686456
1810.000000	36.644746
1809.000000	36.605634
1808.000000	36.559011
1807.000000	36.491832
1806.000000	36.460790
1805.000000	36.434840
1804.000000	36.377823
1803.000000	36.332899
1802.000000	36.295630
1801.000000	36.260027
1800.000000	36.229836
1799.000000	36.174191
1798.000000	36.128588
1797.000000	36.126146
1796.000000	36.094350
1795.000000	36.049619
1794.000000	36.014144
1793.000000	35.982284
1792.000000	35.962858
1791.000000	35.928149
1790.000000	35.881453
1789.000000	35.834050
1788.000000	35.794545
1787.000000	35.774459
1786.000000	35.732279
1785.000000	35.683131
1784.000000	35.633055
1783.000000	35.590417
1782.000000	35.520819
1781.000000	35.462028
1780.000000	35.423254
1779.000000	35.377433
1778.000000	35.261845
1777.000000	35.178675
1776.000000	35.108848
1775.000000	34.996438
1774.000000	34.901555
1773.000000	34.833012
1772.000000	34.736904
1771.000000	34.627366
1770.000000	34.541254
1769.000000	34.429519
1768.000000	34.321710
1767.000000	34.233680
1766.000000	34.163286
1765.000000	34.043197
1764.000000	33.970959
1763.000000	33.860740
1762.000000	33.781239
1761.000000	33.681380
1760.000000	33.606753
1759.000000	33.508209
1758.000000	33.432114
1757.000000	33.345207
1756.000000	33.251722
1755.000000	33.171260
1754.000000	33.053523
1753.000000	32.994089
1752.000000	32.928731
1751.000000	32.801350
1750.000000	32.710191
1749.000000	32.663305
1748.000000	32.522926
1747.000000	32.424381
1746.000000	32.322842
1745.000000	32.226325
1744.000000	32.141738
1743.000000	32.044263
1742.000000	31.952518
1741.000000	31.843408
1740.000000	31.764829
1739.000000	31.701067
1738.000000	31.594564
1737.000000	31.557979
1736.000000	31.519084
1735.000000	31.478967
1734.000000	31.433866
1733.000000	31.415348
1732.000000	31.410593
1731.000000	31.420694
1730.000000	31.428583
1729.000000	31.476182
1728.000000	31.550319
1727.000000	31.585649
1726.000000	31.678563
1725.000000	31.765566
1724.000000	31.861682
1723.000000	32.001059
1722.000000	32.124558
1721.000000	32.253369
1720.000000	32.371842
1719.000000	32.539187
1718.000000	32.622776
1717.000000	32.789277
1716.000000	32.937340
1715.000000	33.058185
1714.000000	33.158542
1713.000000	33.295145
1712.000000	33.387670
1711.000000	33.488095
1710.000000	33.570869
1709.000000	33.664480
1708.000000	33.722833
1707.000000	33.807325
1706.000000	33.886272
1705.000000	33.923683
1704.000000	33.957894
1703.000000	34.023182
1702.000000	34.029348
1701.000000	34.087354
1700.000000	34.119425
1699.000000	34.158372
1698.000000	34.224007
1697.000000	34.277364
1696.000000	34.366922
1695.000000	34.420481
1694.000000	34.487817
1693.000000	34.614866
1692.000000	34.718099
1691.000000	34.848855
1690.000000	34.979957
1689.000000	35.148257
1688.000000	35.318971
1687.000000	35.501140
1686.000000	35.698705
1685.000000	35.959026
1684.000000	36.179595
1683.000000	36.425156
1682.000000	36.671747
1681.000000	36.967419
1680.000000	37.244419
1679.000000	37.504248
1678.000000	37.804313
1677.000000	38.070275
1676.000000	38.354125
1675.000000	38.643252
1674.000000	38.938915
1673.000000	39.197372
1672.000000	39.452634
1671.000000	39.743438
1670.000000	39.997971
1669.000000	40.249624
1668.000000	40.449390
1667.000000	40.683243
1666.000000	40.847227
1665.000000	41.014087
1664.000000	41.165057
1663.000000	41.331723
1662.000000	41.468229
1661.000000	41.593415
1660.000000	41.703884
1659.000000	41.798891
1658.000000	41.910711
1657.000000	41.975391
1656.000000	42.039243
1655.000000	42.098637
1654.000000	42.146974
1653.000000	42.187113
1652.000000	42.215763
1651.000000	42.208526
1650.000000	42.208375
1649.000000	42.215144
1648.000000	42.204500
1647.000000	42.188414
1646.000000	42.178905
1645.000000	42.179313
1644.000000	42.163514
1643.000000	42.136414
1642.000000	42.099496
1641.000000	42.072888
1640.000000	42.023849
1639.000000	41.977777
1638.000000	41.931156
1637.000000	41.899962
1636.000000	41.833121
1635.000000	41.804476
1634.000000	41.742640
1633.000000	41.664107
1632.000000	41.608271
1631.000000	41.547067
1630.000000	41.495599
1629.000000	41.435216
1628.000000	41.375252
1627.000000	41.305042
1626.000000	41.233053
1625.000000	41.160600
1624.000000	41.088805
1623.000000	41.035704
1622.000000	40.975803
1621.000000	40.896914
1620.000000	40.827114
1619.000000	40.737452
1618.000000	40.676470
1617.000000	40.609645
1616.000000	40.527356
1615.000000	40.429632
1614.000000	40.345723
1613.000000	40.273176
1612.000000	40.198255
1611.000000	40.114324
1610.000000	40.022381
1609.000000	39.933271
1608.000000	39.850769
1607.000000	39.745114
1606.000000	39.639222
1605.000000	39.559678
1604.000000	39.474610
1603.000000	39.376316
1602.000000	39.275974
1601.000000	39.192645
1600.000000	39.111589
1599.000000	39.020934
1598.000000	38.931634
1597.000000	38.840274
1596.000000	38.757527
1595.000000	38.677640
1594.000000	38.599365
1593.000000	38.516580
1592.000000	38.435859
1591.000000	38.361439
1590.000000	38.283184
1589.000000	38.202019
1588.000000	38.130633
1587.000000	38.064877
1586.000000	37.993301
1585.000000	37.922045
1584.000000	37.862209
1583.000000	37.808953
1582.000000	37.739063
1581.000000	37.664811
1580.000000	37.585986
1579.000000	37.524051
1578.000000	37.480531
1577.000000	37.417547
1576.000000	37.351672
1575.000000	37.279111
1574.000000	37.218227
1573.000000	37.166155
1572.000000	37.100315
1571.000000	37.050050
1570.000000	37.002367
1569.000000	36.949093
1568.000000	36.897998
1567.000000	36.840377
1566.000000	36.775068
1565.000000	36.729835
1564.000000	36.696244
1563.000000	36.655260
1562.000000	36.613943
1561.000000	36.580032
1560.000000	36.541182
1559.000000	36.511509
1558.000000	36.478012
1557.000000	36.463876
1556.000000	36.428428
1555.000000	36.373566
1554.000000	36.332919
1553.000000	36.290399
1552.000000	36.256576
1551.000000	36.206834
1550.000000	36.145495
1549.000000	36.066235
1548.000000	36.009082
1547.000000	35.948627
1546.000000	35.864033
1545.000000	35.788173
1544.000000	35.689017
1543.000000	35.589245
1542.000000	35.486061
1541.000000	35.377414
1540.000000	35.269077
1539.000000	35.139138
1538.000000	35.037207
1537.000000	34.923016
1536.000000	34.789048
1535.000000	34.657768
1534.000000	34.534852
1533.000000	34.431143
1532.000000	34.291020
1531.000000	34.170674
1530.000000	34.061258
1529.000000	33.944564
1528.000000	33.845024
1527.000000	33.754998
1526.000000	33.651980
1525.000000	33.560986
1524.000000	33.457034
1523.000000	33.371597
1522.000000	33.305570
1521.000000	33.236112
1520.000000	33.154854
1519.000000	33.092097
1518.000000	33.024965
1517.000000	32.969907
1516.000000	32.912394
1515.000000	32.855121
1514.000000	32.811515
1513.000000	32.778156
1512.000000	32.729556
1511.000000	32.694141
1510.000000	32.655383
1509.000000	32.620065
1508.000000	32.588506
1507.000000	32.582141
1506.000000	32.552014
1505.000000	32.536590
1504.000000	32.548758
1503.000000	32.525105
1502.000000	32.539449
1501.000000	32.564114
1500.000000	32.594726
1499.000000	32.626104
1498.000000	32.638496
1497.000000	32.652683
1496.000000	32.663035
1495.000000	32.695777
1494.000000	32.723617
1493.000000	32.760432
1492.000000	32.817826
1491.000000	32.905407
1490.000000	32.971595
1489.000000	33.028668
1488.000000	33.107378
1487.000000	33.195442
1486.000000	33.295777
1485.000000	33.399502
1484.000000	33.502811
1483.000000	33.612172
1482.000000	33.752443
1481.000000	33.860085
1480.000000	33.949422
1479.000000	34.081849
1478.000000	34.196701
1477.000000	34.296026
1476.000000	34.411556
1475.000000	34.537216
1474.000000	34.638680
1473.000000	34.749868
1472.000000	34.842894
1471.000000	34.964260
1470.000000	35.069620
1469.000000	35.140463
1468.000000	35.237958
1467.000000	35.325414
1466.000000	35.450168
1465.000000	35.530042
1464.000000	35.594434
1463.000000	35.667654
1462.000000	35.739812
1461.000000	35.824735
1460.000000	35.916646
1459.000000	35.998602
1458.000000	36.069493
1457.000000	36.157291
1456.000000	36.262774
1455.000000	36.332982
1454.000000	36.432115
1453.000000	36.511057
1452.000000	36.612632
1451.000000	36.722170
1450.000000	36.799166
1449.000000	36.889605
1448.000000	36.985461
1447.000000	37.088466
1446.000000	37.206252
1445.000000	37.316019
1444.000000	37.416876
1443.000000	37.532838
1442.000000	37.641384
1441.000000	37.771538
1440.000000	37.895527
1439.000000	38.012602
1438.000000	38.141404
1437.000000	38.274833
1436.000000	38.390538
1435.000000	38.537614
1434.000000	38.682013
1433.000000	38.847126
1432.000000	39.003762
1431.000000	39.155002
1430.000000	39.310651
1429.000000	39.492117
1428.000000	39.668623
1427.000000	39.860711
1426.000000	40.053339
1425.000000	40.251826
1424.000000	40.455502
1423.000000	40.663782
1422.000000	40.902813
1421.000000	41.132589
1420.000000	41.357821
1419.000000	41.595616
1418.000000	41.835190
1417.000000	42.073310
1416.000000	42.333006
1415.000000	42.600162
1414.000000	42.853717
1413.000000	43.096522
1412.000000	43.351519
1411.000000	43.638551
1410.000000	43.899266
1409.000000	44.165092
1408.000000	44.434466
1407.000000	44.694413
1406.000000	44.940002
1405.000000	45.182681
1404.000000	45.442737
1403.000000	45.705174
1402.000000	45.961922
1401.000000	46.216378
1400.000000	46.459781
1399.000000	46.690819
1398.000000	46.915874
1397.000000	47.154307
1396.000000	47.395665
1395.000000	47.620674
1394.000000	47.830110
1393.000000	48.045778
1392.000000	48.261672
1391.000000	48.481497
1390.000000	48.703851
1389.000000	48.904344
1388.000000	49.101945
1387.000000	49.296681
1386.000000	49.482048
1385.000000	49.643629
1384.000000	49.819836
1383.000000	49.989140
1382.000000	50.135840
1381.000000	50.300039
1380.000000	50.441828
1379.000000	50.556015
1378.000000	50.676079
1377.000000	50.799618
1376.000000	50.902899
1375.000000	51.008363
1374.000000	51.123518
1373.000000	51.215175
1372.000000	51.314406
1371.000000	51.424859
1370.000000	51.519235
1369.000000	51.594815
1368.000000	51.672740
1367.000000	51.778082
1366.000000	51.889483
1365.000000	51.997548
1364.000000	52.098205
1363.000000	52.204005
1362.000000	52.310196
1361.000000	52.412365
1360.000000	52.528192
1359.000000	52.649548
1358.000000	52.765586
1357.000000	52.877728
1356.000000	52.989390
1355.000000	53.106392
1354.000000	53.227041
1353.000000	53.344532
1352.000000	53.462295
1351.000000	53.578245
1350.000000	53.678333
1349.000000	53.781328
1348.000000	53.928452
1347.000000	54.045048
1346.000000	54.135062
1345.000000	54.235398
1344.000000	54.333558
1343.000000	54.446943
1342.000000	54.525717
1341.000000	54.617870
1340.000000	54.726730
1339.000000	54.835761
1338.000000	54.897762
1337.000000	54.970903
1336.000000	55.050652
1335.000000	55.101824
1334.000000	55.175882
1333.000000	55.238047
1332.000000	55.304411
1331.000000	55.379573
1330.000000	55.434219
1329.000000	55.481140
1328.000000	55.514149
1327.000000	55.552535
1326.000000	55.615640
1325.000000	55.639187
1324.000000	55.669075
1323.000000	55.742565
1322.000000	55.763582
1321.000000	55.775836
1320.000000	55.831870
1319.000000	55.844472
1318.000000	55.852408
1317.000000	55.925697
1316.000000	55.937251
1315.000000	55.929884
1314.000000	55.979467
1313.000000	55.990873
1312.000000	56.007990
1311.000000	56.049806
1310.000000	56.066047
1309.000000	56.080285
1308.000000	56.137042
1307.000000	56.138153
1306.000000	56.135726
1305.000000	56.145195
1304.000000	56.161225
1303.000000	56.217122
1302.000000	56.225375
1301.000000	56.208492
1300.000000	56.215594
1299.000000	56.210959
1298.000000	56.228033
1297.000000	56.224752
1296.000000	56.221236
1295.000000	56.216054
1294.000000	56.213570
1293.000000	56.206199
1292.000000	56.202418
1291.000000	56.188083
1290.000000	56.168977
1289.000000	56.177290
1288.000000	56.172066
1287.000000	56.148967
1286.000000	56.140979
1285.000000	56.129041
1284.000000	56.088691
1283.000000	56.087238
1282.000000	56.069541
1281.000000	56.069207
1280.000000	56.086083
1279.000000	56.079903
1278.000000	56.077640
1277.000000	56.081728
1276.000000	56.086855
1275.000000	56.102583
1274.000000	56.081678
1273.000000	56.077768
1272.000000	56.069922
1271.000000	56.093668
1270.000000	56.089624
1269.000000	56.105585
1268.000000	56.099591
1267.000000	56.133182
1266.000000	56.142831
1265.000000	56.129940
1264.000000	56.144380
1263.000000	56.215146
1262.000000	56.231019
1261.000000	56.238913
1260.000000	56.252688
1259.000000	56.257226
1258.000000	56.266128
1257.000000	56.293261
1256.000000	56.327503
1255.000000	56.313102
1254.000000	56.303938
1253.000000	56.302099
1252.000000	56.309205
1251.000000	56.300068
1250.000000	56.295164
1249.000000	56.292213
1248.000000	56.278479
1247.000000	56.254303
1246.000000	56.227657
1245.000000	56.215054
1244.000000	56.200391
1243.000000	56.164043
1242.000000	56.124646
1241.000000	56.101227
1240.000000	56.009354
1239.000000	55.980114
1238.000000	55.951130
1237.000000	55.912802
1236.000000	55.820346
1235.000000	55.767721
1234.000000	55.734168
1233.000000	55.686843
1232.000000	55.609794
1231.000000	55.568824
1230.000000	55.545930
1229.000000	55.470252
1228.000000	55.398278
1227.000000	55.362652
1226.000000	55.322132
1225.000000	55.257996
1224.000000	55.222003
1223.000000	55.180260
1222.000000	55.132715
1221.000000	55.088206
1220.000000	55.018226
1219.000000	54.947555
1218.000000	54.906164
1217.000000	54.842615
1216.000000	54.780333
1215.000000	54.720389
1214.000000	54.668878
1213.000000	54.609179
1212.000000	54.574221
1211.000000	54.485437
1210.000000	54.427359
1209.000000	54.372177
1208.000000	54.342800
1207.000000	54.277760
1206.000000	54.214163
1205.000000	54.138563
1204.000000	54.059001
1203.000000	53.994231
1202.000000	53.942420
1201.000000	53.877284
1200.000000	53.808833
1199.000000	53.746315
1198.000000	53.717264
1197.000000	53.661802
1196.000000	53.608111
1195.000000	53.551289
1194.000000	53.514346
1193.000000	53.458356
1192.000000	53.432606
1191.000000	53.412780
1190.000000	53.368469
1189.000000	53.323312
1188.000000	53.318238
1187.000000	53.321850
1186.000000	53.332280
1185.000000	53.350714
1184.000000	53.358710
1183.000000	53.385834
1182.000000	53.438203
1181.000000	53.489690
1180.000000	53.551779
1179.000000	53.624770
1178.000000	53.702938
1177.000000	53.783009
1176.000000	53.872955
1175.000000	53.976978
1174.000000	54.085221
1173.000000	54.191514
1172.000000	54.300624
1171.000000	54.423150
1170.000000	54.550637
1169.000000	54.682855
1168.000000	54.819973
1167.000000	54.947216
1166.000000	55.087523
1165.000000	55.228171
1164.000000	55.372824
1163.000000	55.523636
1162.000000	55.654633
1161.000000	55.791416
1160.000000	55.926561
1159.000000	56.042609
1158.000000	56.180299
1157.000000	56.310255
1156.000000	56.423720
1155.000000	56.554540
1154.000000	56.666954
1153.000000	56.764014
1152.000000	56.857243
1151.000000	56.960430
1150.000000	57.064467
1149.000000	57.148762
1148.000000	57.229770
1147.000000	57.319185
1146.000000	57.394046
1145.000000	57.481967
1144.000000	57.569586
1143.000000	57.628903
1142.000000	57.701253
1141.000000	57.788967
1140.000000	57.864174
1139.000000	57.946276
1138.000000	58.030753
1137.000000	58.105087
1136.000000	58.184352
1135.000000	58.264170
1134.000000	58.341664
1133.000000	58.413821
1132.000000	58.483088
1131.000000	58.544441
1130.000000	58.600481
1129.000000	58.658324
1128.000000	58.711310
1127.000000	58.758691
1126.000000	58.795090
1125.000000	58.823212
1124.000000	58.840084
1123.000000	58.866667
1122.000000	58.901810
1121.000000	58.938047
1120.000000	58.975054
1119.000000	58.997365
1118.000000	59.010986
1117.000000	59.028058
1116.000000	59.039136
1115.000000	59.057614
1114.000000	59.067410
1113.000000	59.067515
1112.000000	59.091826
1111.000000	59.088866
1110.000000	59.112435
1109.000000	59.118798
1108.000000	59.092865
1107.000000	59.083576
1106.000000	59.103500
1105.000000	59.113015
1104.000000	59.133943
1103.000000	59.146301
1102.000000	59.144643
1101.000000	59.149114
1100.000000	59.149318
1099.000000	59.146186
1098.000000	59.129791
1097.000000	59.144068
1096.000000	59.146571
1095.000000	59.154941
1094.000000	59.164094
1093.000000	59.156150
1092.000000	59.147429
1091.000000	59.153134
1090.000000	59.138602
1089.000000	59.120283
1088.000000	59.119452
1087.000000	59.141946
1086.000000	59.126747
1085.000000	59.135582
1084.000000	59.142186
1083.000000	59.098405
1082.000000	59.077227
1081.000000	59.086624
1080.000000	59.091989
1079.000000	59.093286
1078.000000	59.071429
1077.000000	59.035188
1076.000000	59.021333
1075.000000	59.027598
1074.000000	59.020030
1073.000000	59.019941
1072.000000	59.020586
1071.000000	58.986013
1070.000000	58.978557
1069.000000	58.944361
1068.000000	58.931795
1067.000000	58.942681
1066.000000	58.907359
1065.000000	58.914370
1064.000000	58.899917
1063.000000	58.891662
1062.000000	58.842355
1061.000000	58.822871
1060.000000	58.819738
1059.000000	58.824659
1058.000000	58.825987
1057.000000	58.792099
1056.000000	58.747333
1055.000000	58.757527
1054.000000	58.737985
1053.000000	58.728478
1052.000000	58.719739
1051.000000	58.672212
1050.000000	58.652933
1049.000000	58.665981
1048.000000	58.671269
1047.000000	58.652618
1046.000000	58.601596
1045.000000	58.610734
1044.000000	58.595939
1043.000000	58.585556
1042.000000	58.579886
1041.000000	58.557607
1040.000000	58.551913
1039.000000	58.567728
1038.000000	58.533909
1037.000000	58.519757
1036.000000	58.528320
1035.000000	58.539102
1034.000000	58.534224
1033.000000	58.510736
1032.000000	58.512339
1031.000000	58.497838
1030.000000	58.476915
1029.000000	58.476402
1028.000000	58.491986
1027.000000	58.488622
1026.000000	58.497138
1025.000000	58.496551
1024.000000	58.506281
1023.000000	58.493245
1022.000000	58.474659
1021.000000	58.487916
1020.000000	58.510504
1019.000000	58.498863
1018.000000	58.510545
1017.000000	58.495775
1016.000000	58.509628
1015.000000	58.527564
1014.000000	58.554813
1013.000000	58.557230
1012.000000	58.561829
1011.000000	58.576070
1010.000000	58.566487
1009.000000	58.583962
1008.000000	58.618896
1007.000000	58.626452
1006.000000	58.628835
1005.000000	58.632372
1004.000000	58.656035
1003.000000	58.685489
1002.000000	58.674886
1001.000000	58.687438
1000.000000	58.710175
999.000000	58.719836
998.000000	58.734078
997.000000	58.740525
996.000000	58.760983
995.000000	58.774846
994.000000	58.781230
993.000000	58.794993
992.000000	58.802788
991.000000	58.813201
990.000000	58.818662
989.000000	58.839612
988.000000	58.828087
987.000000	58.842464
986.000000	58.866157
985.000000	58.878384
984.000000	58.893099
983.000000	58.892044
982.000000	58.902999
981.000000	58.907167
980.000000	58.916659
979.000000	58.930632
978.000000	58.951932
977.000000	58.970235
976.000000	58.970608
975.000000	58.979781
974.000000	58.998590
973.000000	59.002146
972.000000	59.014697
971.000000	59.031909
970.000000	59.042035
969.000000	59.037964
968.000000	59.029868
967.000000	59.067594
966.000000	59.090752
965.000000	59.096016
964.000000	59.095940
963.000000	59.111271
962.000000	59.124055
961.000000	59.126101
960.000000	59.133043
959.000000	59.133234
958.000000	59.139873
957.000000	59.151360
956.000000	59.173549
955.000000	59.165268
954.000000	59.163382
953.000000	59.173378
952.000000	59.179545
951.000000	59.181198
950.000000	59.191233
949.000000	59.208978
948.000000	59.205048
947.000000	59.202774
946.000000	59.209518
945.000000	59.206649
944.000000	59.202786
943.000000	59.186698
942.000000	59.182132
941.000000	59.198520
940.000000	59.195380
939.000000	59.177875
938.000000	59.172712
937.000000	59.174233
936.000000	59.151944
935.000000	59.137436
934.000000	59.147410
933.000000	59.140128
932.000000	59.131196
931.000000	59.117595
930.000000	59.100416
929.000000	59.077244
928.000000	59.067214
927.000000	59.092357
926.000000	59.085290
925.000000	59.055143
924.000000	59.034572
923.000000	59.042599
922.000000	59.059522
921.000000	59.026863
920.000000	59.041111
919.000000	59.051555
918.000000	59.018003
917.000000	58.996449
916.000000	58.997041
915.000000	59.019943
914.000000	59.010780
913.000000	58.968659
912.000000	58.954730
911.000000	58.975138
910.000000	58.930575
909.000000	58.909346
908.000000	58.924336
907.000000	58.959317
906.000000	58.959378
905.000000	58.954665
904.000000	58.954139
903.000000	58.934115
902.000000	58.957739
901.000000	58.996727
900.000000	58.992800
899.000000	58.949196
898.000000	58.937918
897.000000	58.998311
896.000000	59.016262
895.000000	59.033904
894.000000	59.011249
893.000000	59.003859
892.000000	59.052012
891.000000	59.039264
890.000000	59.091041
889.000000	59.082442
888.000000	59.043960
887.000000	59.018321
886.000000	59.070716
885.000000	59.098552
884.000000	59.061802
883.000000	59.048183
882.000000	59.127161
881.000000	59.082346
880.000000	59.079361
879.000000	59.029298
878.000000	59.092795
877.000000	59.061695
876.000000	59.048931
875.000000	59.044436
874.000000	59.079852
873.000000	59.089154
872.000000	59.077947
871.000000	59.005679
870.000000	59.071683
869.000000	59.075128
868.000000	59.079079
867.000000	59.036840
866.000000	59.130543
865.000000	59.057348
864.000000	58.977055
863.000000	58.824019
862.000000	58.854291
861.000000	58.933657
860.000000	58.997715
859.000000	58.994697
858.000000	58.734131
857.000000	58.650032
856.000000	59.109677
855.000000	59.239355
854.000000	59.151432
853.000000	58.810347
852.000000	58.831034
851.000000	58.741915
850.000000	58.651970
849.000000	58.879462
848.000000	58.718100
847.000000	58.621333
846.000000	58.662414
845.000000	58.759856
844.000000	58.813809
843.000000	58.763084
842.000000	58.681655
841.000000	58.585332
840.000000	58.533364
839.000000	58.539301
838.000000	58.584461
837.000000	58.619049
836.000000	58.647549
835.000000	58.656672
834.000000	58.466888
833.000000	58.601282
832.000000	58.598757
831.000000	58.484988
830.000000	58.350436
829.000000	58.509400
828.000000	58.511483
827.000000	58.661268
826.000000	58.432716
825.000000	58.298608
824.000000	58.335219
823.000000	58.329720
822.000000	58.379224
821.000000	58.243967
820.000000	58.259927
819.000000	58.362815
818.000000	58.264804
817.000000	58.384589
816.000000	58.337825
815.000000	58.389766
814.000000	58.176800
813.000000	58.128388
812.000000	58.083403
811.000000	58.090922
810.000000	58.269688
809.000000	58.149075
808.000000	58.245398
807.000000	58.129442
806.000000	58.192223
805.000000	57.962206
804.000000	58.065778
803.000000	58.011498
802.000000	58.050636
801.000000	58.063542
800.000000	57.913926
799.000000	58.043325
798.000000	58.126528
797.000000	57.900991
796.000000	58.031369
795.000000	57.976736
794.000000	58.086278
793.000000	58.087867
792.000000	57.918971
791.000000	57.881665
790.000000	57.898789
789.000000	57.844595
788.000000	57.922701
787.000000	57.876329
786.000000	57.876825
785.000000	57.784683
784.000000	57.725990
783.000000	57.826100
782.000000	57.822581
781.000000	57.641203
780.000000	57.617747
779.000000	57.656024
778.000000	57.654279
777.000000	57.714511
776.000000	57.635693
775.000000	57.629377
774.000000	57.616674
773.000000	57.552993
772.000000	57.407825
771.000000	57.489252
770.000000	57.458468
769.000000	57.458122
768.000000	57.432225
767.000000	57.423839
766.000000	57.368385
765.000000	57.317232
764.000000	57.282835
763.000000	57.239010
762.000000	57.224360
761.000000	57.223807
760.000000	57.252961
759.000000	57.184925
758.000000	57.127493
757.000000	57.119111
756.000000	57.127428
755.000000	57.077774
754.000000	57.053880
753.000000	57.003223
752.000000	57.038724
751.000000	57.053110
750.000000	56.900708
749.000000	56.869838
748.000000	56.847637
747.000000	56.831351
746.000000	56.823263
745.000000	56.800566
744.000000	56.781690
743.000000	56.745342
742.000000	56.659784
741.000000	56.664915
740.000000	56.623977
739.000000	56.593672
738.000000	56.568729
737.000000	56.590234
736.000000	56.546457
735.000000	56.473245
734.000000	56.438470
733.000000	56.423899
732.000000	56.369269
731.000000	56.355719
730.000000	56.326373
729.000000	56.279612
728.000000	56.292044
727.000000	56.299511
726.000000	56.215902
725.000000	56.148627
724.000000	56.089611
723.000000	56.057740
722.000000	56.069645
721.000000	56.062314
720.000000	55.998431
719.000000	55.933749
718.000000	55.923088
717.000000	55.906202
716.000000	55.812306
715.000000	55.791133
714.000000	55.780286
713.000000	55.740780
712.000000	55.701466
711.000000	55.671893
710.000000	55.671096
709.000000	55.623880
708.000000	55.583350
707.000000	55.547663
706.000000	55.474173
705.000000	55.415039
704.000000	55.394887
703.000000	55.375491
702.000000	55.347113
701.000000	55.301430
700.000000	55.221501
699.000000	55.159010
698.000000	55.156199
697.000000	55.135645
696.000000	55.095809
695.000000	55.056297
694.000000	54.973814
693.000000	54.901359
692.000000	54.893952
691.000000	54.885309
690.000000	54.880405
689.000000	54.780185
688.000000	54.683902
687.000000	54.623794
686.000000	54.585324
685.000000	54.556418
684.000000	54.513472
683.000000	54.463320
682.000000	54.423512
681.000000	54.411620
680.000000	54.387937
679.000000	54.339479
678.000000	54.275849
677.000000	54.247013
676.000000	54.200504
675.000000	54.058338
674.000000	54.040724
673.000000	54.031991
672.000000	53.982992
671.000000	53.928959
670.000000	53.849277
669.000000	53.831952
668.000000	53.753729
667.000000	53.712573
666.000000	53.703062
665.000000	53.666848
664.000000	53.618062
663.000000	53.589477
662.000000	53.515869
661.000000	53.407047
660.000000	53.358211
659.000000	53.351244
658.000000	53.274641
657.000000	53.273273
656.000000	53.190811
655.000000	53.125955
654.000000	53.121733
653.000000	53.100903
652.000000	52.972805
651.000000	52.939218
650.000000	52.859893
649.000000	52.856786
648.000000	52.811575
647.000000	52.766502
646.000000	52.704152
645.000000	52.662304
644.000000	52.549315
643.000000	52.531477
642.000000	52.470181
641.000000	52.424777
640.000000	52.338524
639.000000	52.270776
638.000000	52.230477
637.000000	52.173592
636.000000	52.131299
635.000000	52.058383
634.000000	52.064431
633.000000	51.984803
632.000000	51.928826
631.000000	51.856325
630.000000	51.745844
629.000000	51.706750
628.000000	51.698039
627.000000	51.608798
626.000000	51.532004
625.000000	51.524930
624.000000	51.476208
623.000000	51.396378
622.000000	51.276963
621.000000	51.251404
620.000000	51.170749
619.000000	51.126298
618.000000	51.113359
617.000000	51.017397
616.000000	50.968678
615.000000	50.916707
614.000000	50.824777
613.000000	50.761207
612.000000	50.721134
611.000000	50.641991
610.000000	50.563769
609.000000	50.524194
608.000000	50.422941
607.000000	50.370467
606.000000	50.302457
605.000000	50.224482
604.000000	50.148098
603.000000	50.117127
602.000000	49.997448
601.000000	49.979806
600.000000	49.912253
599.000000	49.810464
598.000000	49.715609
597.000000	49.706837
596.000000	49.595304
595.000000	49.578118
594.000000	49.470523
593.000000	49.463094
592.000000	49.309228
591.000000	49.279354
590.000000	49.202097
589.000000	49.141866
588.000000	49.071192
587.000000	49.008598
586.000000	48.911802
585.000000	48.864620
584.000000	48.785836
583.000000	48.681817
582.000000	48.641858
581.000000	48.524481
580.000000	48.439565
579.000000	48.375358
578.000000	48.308241
577.000000	48.235693
576.000000	48.183849
575.000000	48.123855
574.000000	47.972631
573.000000	47.935620
572.000000	47.809917
571.000000	47.791997
570.000000	47.692685
569.000000	47.593935
568.000000	47.491895
567.000000	47.425721
566.000000	47.358486
565.000000	47.277573
564.000000	47.180199
563.000000	47.099997
562.000000	47.003986
561.000000	46.952232
560.000000	46.873897
559.000000	46.779698
558.000000	46.692174
557.000000	46.604439
556.000000	46.542321
555.000000	46.491356
554.000000	46.377269
553.000000	46.332835
552.000000	46.216260
551.000000	46.112384
550.000000	46.059134
549.000000	45.978365
548.000000	45.841003
547.000000	45.783883
546.000000	45.681579
545.000000	45.585962
544.000000	45.496825
543.000000	45.395855
542.000000	45.316958
541.000000	45.204254
540.000000	45.107599
539.000000	45.008807
538.000000	44.896249
537.000000	44.802021
536.000000	44.688912
535.000000	44.601424
534.000000	44.501558
533.000000	44.381771
532.000000	44.274994
531.000000	44.206073
530.000000	44.096440
529.000000	43.974412
528.000000	43.870815
527.000000	43.771232
526.000000	43.655663
525.000000	43.553136
524.000000	43.455478
523.000000	43.343775
522.000000	43.220333
521.000000	43.147769
520.000000	43.044343
519.000000	42.915363
518.000000	42.803292
517.000000	42.700680
516.000000	42.565415
515.000000	42.482093
514.000000	42.384290
513.000000	42.262551
512.000000	42.130546
511.000000	42.030770
510.000000	41.881791
509.000000	41.779674
508.000000	41.633144
507.000000	41.481797
506.000000	41.367002
505.000000	41.264863
504.000000	41.131415
503.000000	41.032236
502.000000	40.885765
501.000000	40.739590
500.000000	40.622684
499.000000	40.554795
498.000000	40.402284
497.000000	40.240720
496.000000	40.088728
495.000000	39.932472
494.000000	39.787386
493.000000	39.654833
492.000000	39.544272
491.000000	39.375990
490.000000	39.228684
489.000000	39.099528
488.000000	38.925387
487.000000	38.766549
486.000000	38.606907
485.000000	38.473278
484.000000	38.364314
483.000000	38.209771
482.000000	37.980278
481.000000	37.842071
480.000000	37.690255
479.000000	37.553336
478.000000	37.389872
477.000000	37.212817
476.000000	37.030447
475.000000	36.857300
474.000000	36.698720
473.000000	36.545756
472.000000	36.397951
471.000000	36.231384
470.000000	36.066059
469.000000	35.897205
468.000000	35.714741
467.000000	35.548956
466.000000	35.394545
465.000000	35.217691
464.000000	35.003469
463.000000	34.812451
462.000000	34.654226
461.000000	34.470801
460.000000	34.288418
459.000000	34.089095
458.000000	33.881972
457.000000	33.688305
456.000000	33.501733
455.000000	33.305187
454.000000	33.107273
453.000000	32.919415
452.000000	32.700127
451.000000	32.489927
450.000000	32.262012
449.000000	32.057597
448.000000	31.857665
447.000000	31.629604
446.000000	31.439532
445.000000	31.254356
444.000000	31.013605
443.000000	30.797945
442.000000	30.610983
441.000000	30.391050
440.000000	30.189651
439.000000	29.981815
438.000000	29.762042
437.000000	29.546487
436.000000	29.323560
435.000000	29.050170
434.000000	28.833378
433.000000	28.617235
432.000000	28.389944
431.000000	28.157117
430.000000	27.933987
429.000000	27.729136
428.000000	27.484689
427.000000	27.237707
426.000000	27.001609
425.000000	26.765718
424.000000	26.544734
423.000000	26.319913
422.000000	26.100546
421.000000	25.867353
420.000000	25.651836
419.000000	25.448442
418.000000	25.245077
417.000000	25.070513
416.000000	24.882274
415.000000	24.716308
414.000000	24.548797
413.000000	24.397940
412.000000	24.236459
411.000000	24.097932
410.000000	23.956783
409.000000	23.808415
408.000000	23.722143
407.000000	23.639809
406.000000	23.476964
405.000000	23.342830
404.000000	23.237031
403.000000	23.105960
402.000000	22.977581
401.000000	22.896995
400.000000	22.763843
399.000000	22.650260
398.000000	22.509618
397.000000	22.360872
396.000000	22.243384
395.000000	22.099374
394.000000	21.964693
393.000000	21.803599
392.000000	21.660432
391.000000	21.527143
390.000000	21.385117
389.000000	21.224706
388.000000	21.089238
387.000000	20.910257
386.000000	20.763444
385.000000	20.604992
384.000000	20.425126
383.000000	20.266811
382.000000	20.164770
381.000000	20.019193
380.000000	19.813176
379.000000	19.597836
378.000000	19.434219
377.000000	19.237549
376.000000	19.158923
375.000000	19.038006
374.000000	18.814449
373.000000	18.684991
372.000000	18.523820
371.000000	18.397385
370.000000	18.204748
369.000000	18.044982
368.000000	17.957357
367.000000	17.816556
366.000000	17.708913
365.000000	17.523729
364.000000	17.385284
363.000000	17.256538
362.000000	17.119285
361.000000	17.031353
360.000000	16.869778
359.000000	16.731399
358.000000	16.569369
357.000000	16.407335
356.000000	16.284384
355.000000	16.220921
354.000000	16.043423
353.000000	15.956767
352.000000	15.864763
351.000000	15.695666
350.000000	15.589414
349.000000	15.461154
348.000000	15.345065
347.000000	15.255635
346.000000	15.124779
345.000000	14.956745
344.000000	14.759137
343.000000	14.782495
342.000000	14.614294
341.000000	14.459732
340.000000	14.335301
339.000000	14.195660
338.000000	14.157401
337.000000	14.015656
336.000000	13.949265
335.000000	13.703665
334.000000	13.588994
333.000000	13.447106
332.000000	13.337782
331.000000	13.130029
330.000000	13.161756
329.000000	12.963355
328.000000	12.920761
327.000000	12.680484
326.000000	12.710209
325.000000	12.662128
324.000000	12.536989
323.000000	12.404455
322.000000	12.402078
321.000000	12.270549
320.000000	12.120967
319.000000	12.077936
318.000000	11.931564
317.000000	11.876221
316.000000	11.794254
315.000000	11.699361
314.000000	11.590117
313.000000	11.520692
312.000000	11.491380
311.000000	11.332162
310.000000	11.266153
309.000000	11.219676
308.000000	11.070365
307.000000	10.948022
306.000000	10.856948
305.000000	10.784698
304.000000	10.690686
303.000000	10.540638
302.000000	10.523215
301.000000	10.365158
300.000000	10.324343
299.000000	10.222541
298.000000	10.229807
297.000000	10.197954
296.000000	10.188264
295.000000	10.184488
294.000000	10.172370
293.000000	10.230157
292.000000	10.259611
291.000000	10.270276
290.000000	10.301660
289.000000	10.315541
288.000000	10.234585
287.000000	10.323273
286.000000	10.443161
285.000000	10.471553
284.000000	10.573435
283.000000	10.622816
282.000000	10.664112
281.000000	10.742378
280.000000	10.818744
279.000000	10.892296
278.000000	10.884071
277.000000	10.952611
276.000000	11.040325
275.000000	11.144606
274.000000	11.173348
273.000000	11.197828
272.000000	11.269620
271.000000	11.338911
270.000000	11.352476
269.000000	11.428779
268.000000	11.486997
267.000000	11.485818
266.000000	11.604169
265.000000	11.674041
264.000000	11.707060
263.000000	11.773191
262.000000	11.793557
261.000000	11.879821
260.000000	12.017088
259.000000	12.103703
258.000000	12.117248
257.000000	12.189138
256.000000	12.260262
255.000000	12.357489
254.000000	12.426973
253.000000	12.534086
252.000000	12.632363
251.000000	12.680472
250.000000	12.745199
249.000000	12.873664
248.000000	12.970611
247.000000	13.064245
246.000000	13.152402
245.000000	13.258722
244.000000	13.366514
243.000000	13.495748
242.000000	13.650177
241.000000	13.831019
240.000000	14.049359
239.000000	14.305282
238.000000	14.501645
237.000000	14.813038
236.000000	15.122136
235.000000	15.533036
234.000000	15.875229
233.000000	16.122553
232.000000	16.410781
231.000000	16.560479
230.000000	16.725885
229.000000	16.872653
228.000000	16.923838
227.000000	17.017500
226.000000	17.057916
225.000000	17.115502
224.000000	17.240456
223.000000	17.401531
222.000000	17.491799
221.000000	17.569948
220.000000	17.698824
219.000000	17.815542
218.000000	18.061516
217.000000	18.359777
216.000000	18.531590
215.000000	18.791361
214.000000	19.146480
213.000000	19.395717
212.000000	19.713870
211.000000	20.226403
210.000000	20.655809
209.000000	20.813364
208.000000	21.145739
207.000000	21.778875
206.000000	22.400119
205.000000	22.991845
204.000000	23.720411
203.000000	24.418898
202.000000	25.065767
201.000000	25.892642
200.000000	26.744132
