PE UV       SUBTECH     SPECTRUM    ASCII       PEDS        4.00        
   -1
RTVeauUK 42.Sample.asc
18/03/02
11:55:53.00
18/03/02
11:55:53.00
Administrator

200.000000
1
Lambda 750
750N8071901
PerkinElmer UV WinLab 6.0.4.0738 / 1.61.00 Lambda 900

0
0
3350/servo 860.8/2
0
0
UV/VIS
1
1
1
CommonBeamDepol,150mm sphere / downward view
0
0
0
0
Program
Program
3350/servo 860.8/2
3350/0.2 860.8/0.2
3350/0.2 860.8/0.2
0
1
 
 
 
0
 
860.8
319.2
860.8
Front
100
on
 
 
0
0
0
 
0
 
 
 
0
 
 
0
0
0
0
0
 
 
 
 
0
0


0
0
#HDR
-1
-1
#GR
nm
%R
1.0
0.0
2350.000000
-1.000000
2151
8
44.490699
7.445102
#DATA
2350.000000	8.429071
2349.000000	8.013117
2348.000000	8.093755
2347.000000	8.675262
2346.000000	8.391000
2345.000000	8.212203
2344.000000	7.987943
2343.000000	8.090393
2342.000000	8.196996
2341.000000	8.523226
2340.000000	8.295150
2339.000000	8.454669
2338.000000	8.951423
2337.000000	9.005166
2336.000000	9.009728
2335.000000	8.961663
2334.000000	9.136679
2333.000000	8.877644
2332.000000	8.861366
2331.000000	9.048842
2330.000000	9.303913
2329.000000	8.987543
2328.000000	8.962990
2327.000000	9.075612
2326.000000	8.896396
2325.000000	9.016465
2324.000000	9.131724
2323.000000	8.956004
2322.000000	8.528098
2321.000000	8.847530
2320.000000	8.732027
2319.000000	8.624891
2318.000000	8.817764
2317.000000	8.952032
2316.000000	8.800076
2315.000000	8.723260
2314.000000	8.612984
2313.000000	8.537456
2312.000000	8.354328
2311.000000	8.557050
2310.000000	8.598650
2309.000000	8.576729
2308.000000	8.175795
2307.000000	8.208186
2306.000000	8.167715
2305.000000	8.139813
2304.000000	8.329930
2303.000000	8.374104
2302.000000	8.328880
2301.000000	8.268942
2300.000000	8.214071
2299.000000	8.075132
2298.000000	7.962406
2297.000000	7.974693
2296.000000	7.876759
2295.000000	7.760788
2294.000000	8.008037
2293.000000	7.818555
2292.000000	7.911453
2291.000000	7.829254
2290.000000	8.012786
2289.000000	7.753662
2288.000000	7.847173
2287.000000	7.868139
2286.000000	7.648758
2285.000000	7.445102
2284.000000	7.624294
2283.000000	7.699095
2282.000000	7.687312
2281.000000	7.887139
2280.000000	7.692697
2279.000000	7.608792
2278.000000	7.549213
2277.000000	7.690583
2276.000000	7.808085
2275.000000	7.658061
2274.000000	7.622894
2273.000000	7.750987
2272.000000	7.727498
2271.000000	7.680325
2270.000000	7.834721
2269.000000	7.804729
2268.000000	7.784757
2267.000000	7.859705
2266.000000	7.959092
2265.000000	7.948570
2264.000000	8.135487
2263.000000	8.192676
2262.000000	8.045513
2261.000000	8.076985
2260.000000	8.276168
2259.000000	8.553279
2258.000000	8.544702
2257.000000	8.565832
2256.000000	8.578019
2255.000000	8.636449
2254.000000	8.778485
2253.000000	8.754392
2252.000000	8.788799
2251.000000	9.068221
2250.000000	9.265400
2249.000000	9.389755
2248.000000	9.514143
2247.000000	9.494770
2246.000000	9.545518
2245.000000	9.776181
2244.000000	9.793734
2243.000000	9.846341
2242.000000	10.053672
2241.000000	10.060568
2240.000000	10.171151
2239.000000	10.169183
2238.000000	10.246803
2237.000000	10.306224
2236.000000	10.237573
2235.000000	10.330389
2234.000000	10.358056
2233.000000	10.380146
2232.000000	10.374265
2231.000000	10.422077
2230.000000	10.669673
2229.000000	10.688649
2228.000000	10.703183
2227.000000	10.673714
2226.000000	10.607032
2225.000000	10.700413
2224.000000	10.735206
2223.000000	10.700322
2222.000000	10.747281
2221.000000	10.713132
2220.000000	10.621204
2219.000000	10.538170
2218.000000	10.452910
2217.000000	10.521641
2216.000000	10.663292
2215.000000	10.645544
2214.000000	10.625234
2213.000000	10.484092
2212.000000	10.435856
2211.000000	10.391085
2210.000000	10.475619
2209.000000	10.277373
2208.000000	10.152708
2207.000000	10.208304
2206.000000	10.274783
2205.000000	10.168196
2204.000000	10.137817
2203.000000	10.044164
2202.000000	10.059786
2201.000000	10.014000
2200.000000	9.939450
2199.000000	10.021629
2198.000000	10.068337
2197.000000	9.926423
2196.000000	9.763295
2195.000000	9.776298
2194.000000	9.546744
2193.000000	9.495671
2192.000000	9.679952
2191.000000	9.669407
2190.000000	9.565962
2189.000000	9.525883
2188.000000	9.452950
2187.000000	9.387440
2186.000000	9.481888
2185.000000	9.536948
2184.000000	9.471739
2183.000000	9.473055
2182.000000	9.251534
2181.000000	9.125129
2180.000000	9.294448
2179.000000	9.387011
2178.000000	9.271047
2177.000000	9.248542
2176.000000	9.468355
2175.000000	9.404010
2174.000000	9.376846
2173.000000	9.359812
2172.000000	9.264909
2171.000000	9.452811
2170.000000	9.549543
2169.000000	9.561014
2168.000000	9.580841
2167.000000	9.570894
2166.000000	9.596903
2165.000000	9.681556
2164.000000	9.668401
2163.000000	9.674582
2162.000000	9.811759
2161.000000	9.849620
2160.000000	10.004776
2159.000000	10.209161
2158.000000	10.250639
2157.000000	10.046824
2156.000000	10.216851
2155.000000	10.404016
2154.000000	10.408807
2153.000000	10.590824
2152.000000	10.671946
2151.000000	10.685394
2150.000000	10.780917
2149.000000	10.706709
2148.000000	10.785346
2147.000000	10.864740
2146.000000	11.079517
2145.000000	11.085335
2144.000000	11.162837
2143.000000	11.213896
2142.000000	11.396064
2141.000000	11.230410
2140.000000	11.645717
2139.000000	11.766220
2138.000000	11.748031
2137.000000	11.763423
2136.000000	11.592896
2135.000000	11.772445
2134.000000	12.063398
2133.000000	11.851790
2132.000000	12.017719
2131.000000	12.165558
2130.000000	12.425738
2129.000000	12.244652
2128.000000	12.344926
2127.000000	12.288031
2126.000000	12.284013
2125.000000	12.262048
2124.000000	12.226103
2123.000000	12.204745
2122.000000	12.405458
2121.000000	12.473128
2120.000000	12.507359
2119.000000	12.502377
2118.000000	12.650556
2117.000000	12.584878
2116.000000	12.874238
2115.000000	12.739214
2114.000000	12.786041
2113.000000	12.715650
2112.000000	12.717871
2111.000000	12.650425
2110.000000	12.737113
2109.000000	12.802067
2108.000000	12.863149
2107.000000	12.817317
2106.000000	12.707442
2105.000000	12.674659
2104.000000	12.767546
2103.000000	12.857680
2102.000000	12.896419
2101.000000	13.077262
2100.000000	13.071078
2099.000000	12.966205
2098.000000	12.979894
2097.000000	12.882659
2096.000000	12.859278
2095.000000	12.985604
2094.000000	12.943104
2093.000000	12.872260
2092.000000	12.904332
2091.000000	12.945654
2090.000000	13.034208
2089.000000	12.978658
2088.000000	12.970162
2087.000000	12.902215
2086.000000	12.891685
2085.000000	12.856492
2084.000000	12.798034
2083.000000	12.837175
2082.000000	12.755542
2081.000000	12.740245
2080.000000	12.695761
2079.000000	12.644736
2078.000000	12.490645
2077.000000	12.485701
2076.000000	12.395241
2075.000000	12.350244
2074.000000	12.317387
2073.000000	12.280062
2072.000000	12.192366
2071.000000	12.212914
2070.000000	12.123646
2069.000000	11.996130
2068.000000	11.848464
2067.000000	11.841523
2066.000000	11.729493
2065.000000	11.565638
2064.000000	11.539550
2063.000000	11.410628
2062.000000	11.211625
2061.000000	11.160752
2060.000000	11.122832
2059.000000	11.019384
2058.000000	10.930738
2057.000000	10.907664
2056.000000	10.864042
2055.000000	10.717669
2054.000000	10.612648
2053.000000	10.549857
2052.000000	10.508144
2051.000000	10.453544
2050.000000	10.289891
2049.000000	10.214147
2048.000000	10.167054
2047.000000	10.181596
2046.000000	10.113235
2045.000000	10.086599
2044.000000	10.096419
2043.000000	10.048096
2042.000000	10.038747
2041.000000	10.051314
2040.000000	10.127447
2039.000000	10.172413
2038.000000	10.123152
2037.000000	10.146134
2036.000000	10.202079
2035.000000	10.260737
2034.000000	10.364474
2033.000000	10.439742
2032.000000	10.513483
2031.000000	10.583012
2030.000000	10.642798
2029.000000	10.688439
2028.000000	10.733061
2027.000000	10.852039
2026.000000	10.973625
2025.000000	11.020396
2024.000000	11.066065
2023.000000	11.124703
2022.000000	11.214239
2021.000000	11.293893
2020.000000	11.347034
2019.000000	11.376495
2018.000000	11.375297
2017.000000	11.361525
2016.000000	11.387642
2015.000000	11.418307
2014.000000	11.490968
2013.000000	11.531290
2012.000000	11.478643
2011.000000	11.449515
2010.000000	11.441683
2009.000000	11.384250
2008.000000	11.342178
2007.000000	11.366323
2006.000000	11.336811
2005.000000	11.261261
2004.000000	11.232609
2003.000000	11.217064
2002.000000	11.155378
2001.000000	11.081727
2000.000000	11.066474
1999.000000	11.041570
1998.000000	10.985169
1997.000000	10.940934
1996.000000	10.896056
1995.000000	10.839156
1994.000000	10.763281
1993.000000	10.695968
1992.000000	10.675748
1991.000000	10.657785
1990.000000	10.599119
1989.000000	10.492568
1988.000000	10.428479
1987.000000	10.402969
1986.000000	10.355664
1985.000000	10.310882
1984.000000	10.236895
1983.000000	10.225644
1982.000000	10.184139
1981.000000	10.154484
1980.000000	10.123915
1979.000000	10.030953
1978.000000	9.974219
1977.000000	9.939706
1976.000000	9.894871
1975.000000	9.837280
1974.000000	9.816686
1973.000000	9.755053
1972.000000	9.695648
1971.000000	9.657714
1970.000000	9.638535
1969.000000	9.598448
1968.000000	9.583882
1967.000000	9.573427
1966.000000	9.504048
1965.000000	9.451639
1964.000000	9.393065
1963.000000	9.359170
1962.000000	9.359440
1961.000000	9.319431
1960.000000	9.325838
1959.000000	9.218092
1958.000000	9.187862
1957.000000	9.165836
1956.000000	9.136040
1955.000000	9.122133
1954.000000	9.062169
1953.000000	9.051463
1952.000000	9.019101
1951.000000	9.061420
1950.000000	9.074951
1949.000000	9.035153
1948.000000	9.020016
1947.000000	9.035276
1946.000000	8.973820
1945.000000	9.009806
1944.000000	9.028606
1943.000000	9.031191
1942.000000	9.045877
1941.000000	9.113502
1940.000000	9.121716
1939.000000	9.177817
1938.000000	9.126874
1937.000000	9.216763
1936.000000	9.294027
1935.000000	9.403740
1934.000000	9.335393
1933.000000	9.494265
1932.000000	9.573788
1931.000000	9.598285
1930.000000	9.681532
1929.000000	9.798363
1928.000000	9.863257
1927.000000	10.047016
1926.000000	10.136141
1925.000000	10.280983
1924.000000	10.470265
1923.000000	10.603076
1922.000000	10.732850
1921.000000	10.899957
1920.000000	11.063669
1919.000000	11.242041
1918.000000	11.448644
1917.000000	11.628858
1916.000000	11.734735
1915.000000	12.042420
1914.000000	12.280444
1913.000000	12.564856
1912.000000	12.783201
1911.000000	13.025393
1910.000000	13.252039
1909.000000	13.533153
1908.000000	13.920614
1907.000000	14.166855
1906.000000	14.475362
1905.000000	14.907100
1904.000000	15.170517
1903.000000	15.433878
1902.000000	15.847694
1901.000000	16.250089
1900.000000	16.637753
1899.000000	17.019922
1898.000000	17.387481
1897.000000	17.810287
1896.000000	18.176037
1895.000000	18.636386
1894.000000	19.007472
1893.000000	19.332364
1892.000000	19.744070
1891.000000	20.145415
1890.000000	20.529634
1889.000000	20.877160
1888.000000	21.279726
1887.000000	21.654733
1886.000000	22.015460
1885.000000	22.357420
1884.000000	22.726964
1883.000000	23.018379
1882.000000	23.320908
1881.000000	23.660226
1880.000000	23.977599
1879.000000	24.226829
1878.000000	24.448681
1877.000000	24.770192
1876.000000	24.960915
1875.000000	25.245537
1874.000000	25.456506
1873.000000	25.643808
1872.000000	25.898078
1871.000000	26.016685
1870.000000	26.189327
1869.000000	26.354509
1868.000000	26.518824
1867.000000	26.599390
1866.000000	26.655456
1865.000000	26.799778
1864.000000	26.858198
1863.000000	26.942225
1862.000000	26.974684
1861.000000	27.036042
1860.000000	27.156098
1859.000000	27.181772
1858.000000	27.217514
1857.000000	27.246077
1856.000000	27.265060
1855.000000	27.303487
1854.000000	27.386788
1853.000000	27.422135
1852.000000	27.388938
1851.000000	27.429642
1850.000000	27.408551
1849.000000	27.366208
1848.000000	27.358644
1847.000000	27.347191
1846.000000	27.307309
1845.000000	27.317161
1844.000000	27.325191
1843.000000	27.261240
1842.000000	27.239210
1841.000000	27.242089
1840.000000	27.200066
1839.000000	27.163930
1838.000000	27.134806
1837.000000	27.079453
1836.000000	27.021724
1835.000000	27.001875
1834.000000	26.919823
1833.000000	26.879181
1832.000000	26.833998
1831.000000	26.783642
1830.000000	26.765278
1829.000000	26.729690
1828.000000	26.687472
1827.000000	26.627729
1826.000000	26.587757
1825.000000	26.553136
1824.000000	26.505630
1823.000000	26.465881
1822.000000	26.436200
1821.000000	26.414859
1820.000000	26.361476
1819.000000	26.325391
1818.000000	26.286667
1817.000000	26.248532
1816.000000	26.209099
1815.000000	26.171835
1814.000000	26.138102
1813.000000	26.095332
1812.000000	26.056319
1811.000000	26.023674
1810.000000	26.002274
1809.000000	25.970328
1808.000000	25.911404
1807.000000	25.863159
1806.000000	25.826706
1805.000000	25.810683
1804.000000	25.770626
1803.000000	25.726654
1802.000000	25.707122
1801.000000	25.692721
1800.000000	25.672646
1799.000000	25.649189
1798.000000	25.628707
1797.000000	25.602725
1796.000000	25.585780
1795.000000	25.552816
1794.000000	25.531500
1793.000000	25.499614
1792.000000	25.477776
1791.000000	25.454704
1790.000000	25.428768
1789.000000	25.418263
1788.000000	25.385395
1787.000000	25.349914
1786.000000	25.324679
1785.000000	25.286272
1784.000000	25.259187
1783.000000	25.241432
1782.000000	25.190093
1781.000000	25.154828
1780.000000	25.130193
1779.000000	25.095703
1778.000000	25.044299
1777.000000	24.975797
1776.000000	24.922230
1775.000000	24.852817
1774.000000	24.789184
1773.000000	24.738094
1772.000000	24.669588
1771.000000	24.621875
1770.000000	24.552461
1769.000000	24.472618
1768.000000	24.404326
1767.000000	24.356449
1766.000000	24.318643
1765.000000	24.248605
1764.000000	24.213000
1763.000000	24.130130
1762.000000	24.045821
1761.000000	23.958397
1760.000000	23.905924
1759.000000	23.843484
1758.000000	23.795528
1757.000000	23.715898
1756.000000	23.659143
1755.000000	23.582914
1754.000000	23.509869
1753.000000	23.478902
1752.000000	23.414041
1751.000000	23.347065
1750.000000	23.307050
1749.000000	23.243130
1748.000000	23.155456
1747.000000	23.066621
1746.000000	23.023662
1745.000000	22.970341
1744.000000	22.889597
1743.000000	22.838457
1742.000000	22.746620
1741.000000	22.689209
1740.000000	22.642044
1739.000000	22.587184
1738.000000	22.559097
1737.000000	22.521688
1736.000000	22.509689
1735.000000	22.491196
1734.000000	22.462996
1733.000000	22.466158
1732.000000	22.454397
1731.000000	22.436556
1730.000000	22.468032
1729.000000	22.539333
1728.000000	22.577919
1727.000000	22.600849
1726.000000	22.672805
1725.000000	22.734024
1724.000000	22.828260
1723.000000	22.900965
1722.000000	22.998199
1721.000000	23.099233
1720.000000	23.185156
1719.000000	23.292581
1718.000000	23.380425
1717.000000	23.474508
1716.000000	23.561950
1715.000000	23.645654
1714.000000	23.743660
1713.000000	23.837666
1712.000000	23.876057
1711.000000	23.988481
1710.000000	24.027064
1709.000000	24.061491
1708.000000	24.139753
1707.000000	24.174293
1706.000000	24.206683
1705.000000	24.205793
1704.000000	24.257233
1703.000000	24.270475
1702.000000	24.268469
1701.000000	24.293701
1700.000000	24.310521
1699.000000	24.309230
1698.000000	24.350449
1697.000000	24.398107
1696.000000	24.467362
1695.000000	24.460829
1694.000000	24.508094
1693.000000	24.580767
1692.000000	24.619209
1691.000000	24.693425
1690.000000	24.828481
1689.000000	24.931237
1688.000000	25.035243
1687.000000	25.158736
1686.000000	25.317741
1685.000000	25.512077
1684.000000	25.660672
1683.000000	25.843835
1682.000000	26.015372
1681.000000	26.229884
1680.000000	26.427898
1679.000000	26.638289
1678.000000	26.834601
1677.000000	27.037045
1676.000000	27.257876
1675.000000	27.458728
1674.000000	27.688829
1673.000000	27.889502
1672.000000	28.088682
1671.000000	28.278768
1670.000000	28.488875
1669.000000	28.702509
1668.000000	28.840646
1667.000000	29.021469
1666.000000	29.146944
1665.000000	29.257827
1664.000000	29.364553
1663.000000	29.483470
1662.000000	29.577406
1661.000000	29.684424
1660.000000	29.766169
1659.000000	29.852078
1658.000000	29.926549
1657.000000	29.973620
1656.000000	30.036676
1655.000000	30.079303
1654.000000	30.112078
1653.000000	30.147658
1652.000000	30.166848
1651.000000	30.168990
1650.000000	30.168039
1649.000000	30.178728
1648.000000	30.151763
1647.000000	30.130831
1646.000000	30.127471
1645.000000	30.121563
1644.000000	30.115159
1643.000000	30.089255
1642.000000	30.060049
1641.000000	30.028820
1640.000000	30.012763
1639.000000	29.967881
1638.000000	29.915095
1637.000000	29.891606
1636.000000	29.840922
1635.000000	29.810015
1634.000000	29.764411
1633.000000	29.727711
1632.000000	29.680849
1631.000000	29.625654
1630.000000	29.572286
1629.000000	29.516073
1628.000000	29.469249
1627.000000	29.410119
1626.000000	29.366749
1625.000000	29.308215
1624.000000	29.264950
1623.000000	29.220789
1622.000000	29.174856
1621.000000	29.116193
1620.000000	29.062223
1619.000000	28.994463
1618.000000	28.934500
1617.000000	28.856102
1616.000000	28.774672
1615.000000	28.707659
1614.000000	28.646572
1613.000000	28.593729
1612.000000	28.539556
1611.000000	28.482919
1610.000000	28.400838
1609.000000	28.335686
1608.000000	28.263650
1607.000000	28.189193
1606.000000	28.117709
1605.000000	28.044798
1604.000000	27.970878
1603.000000	27.894703
1602.000000	27.830101
1601.000000	27.757343
1600.000000	27.685204
1599.000000	27.616029
1598.000000	27.547590
1597.000000	27.485318
1596.000000	27.413104
1595.000000	27.348642
1594.000000	27.294509
1593.000000	27.241032
1592.000000	27.183865
1591.000000	27.117473
1590.000000	27.059107
1589.000000	27.000524
1588.000000	26.945369
1587.000000	26.890594
1586.000000	26.843804
1585.000000	26.781810
1584.000000	26.733134
1583.000000	26.687087
1582.000000	26.631882
1581.000000	26.596171
1580.000000	26.547085
1579.000000	26.491994
1578.000000	26.449340
1577.000000	26.397304
1576.000000	26.350910
1575.000000	26.294577
1574.000000	26.246468
1573.000000	26.198741
1572.000000	26.149219
1571.000000	26.093769
1570.000000	26.044112
1569.000000	25.993989
1568.000000	25.945782
1567.000000	25.907151
1566.000000	25.869189
1565.000000	25.841375
1564.000000	25.829936
1563.000000	25.812224
1562.000000	25.777181
1561.000000	25.749314
1560.000000	25.710209
1559.000000	25.685880
1558.000000	25.651100
1557.000000	25.635848
1556.000000	25.621353
1555.000000	25.606147
1554.000000	25.563872
1553.000000	25.532529
1552.000000	25.508371
1551.000000	25.483183
1550.000000	25.451278
1549.000000	25.413005
1548.000000	25.365628
1547.000000	25.308266
1546.000000	25.251648
1545.000000	25.186367
1544.000000	25.094975
1543.000000	25.035586
1542.000000	24.976190
1541.000000	24.906584
1540.000000	24.807086
1539.000000	24.703946
1538.000000	24.608937
1537.000000	24.531660
1536.000000	24.427946
1535.000000	24.339598
1534.000000	24.245991
1533.000000	24.171375
1532.000000	24.066939
1531.000000	23.965488
1530.000000	23.890843
1529.000000	23.805578
1528.000000	23.723298
1527.000000	23.646807
1526.000000	23.547095
1525.000000	23.488070
1524.000000	23.416581
1523.000000	23.362590
1522.000000	23.302125
1521.000000	23.246399
1520.000000	23.188871
1519.000000	23.150729
1518.000000	23.122481
1517.000000	23.063969
1516.000000	23.013195
1515.000000	22.984399
1514.000000	22.931151
1513.000000	22.921177
1512.000000	22.880419
1511.000000	22.854152
1510.000000	22.831119
1509.000000	22.816495
1508.000000	22.805752
1507.000000	22.789245
1506.000000	22.769821
1505.000000	22.747069
1504.000000	22.741500
1503.000000	22.733225
1502.000000	22.733427
1501.000000	22.737490
1500.000000	22.729378
1499.000000	22.739885
1498.000000	22.745402
1497.000000	22.760952
1496.000000	22.781429
1495.000000	22.815944
1494.000000	22.823156
1493.000000	22.861856
1492.000000	22.908822
1491.000000	22.948763
1490.000000	22.999159
1489.000000	23.071490
1488.000000	23.139544
1487.000000	23.185865
1486.000000	23.244174
1485.000000	23.308072
1484.000000	23.378418
1483.000000	23.469132
1482.000000	23.511120
1481.000000	23.643947
1480.000000	23.705448
1479.000000	23.776300
1478.000000	23.854927
1477.000000	23.907272
1476.000000	23.992249
1475.000000	24.073541
1474.000000	24.154579
1473.000000	24.235057
1472.000000	24.322394
1471.000000	24.409205
1470.000000	24.473421
1469.000000	24.533021
1468.000000	24.617620
1467.000000	24.680965
1466.000000	24.749614
1465.000000	24.798219
1464.000000	24.869306
1463.000000	24.936276
1462.000000	24.995138
1461.000000	25.045024
1460.000000	25.087903
1459.000000	25.166830
1458.000000	25.252434
1457.000000	25.284143
1456.000000	25.356489
1455.000000	25.444017
1454.000000	25.516573
1453.000000	25.570583
1452.000000	25.629562
1451.000000	25.698692
1450.000000	25.795103
1449.000000	25.887067
1448.000000	25.936403
1447.000000	26.011858
1446.000000	26.094680
1445.000000	26.198224
1444.000000	26.286452
1443.000000	26.366061
1442.000000	26.446760
1441.000000	26.520131
1440.000000	26.619285
1439.000000	26.706545
1438.000000	26.816170
1437.000000	26.947712
1436.000000	27.066446
1435.000000	27.162488
1434.000000	27.268906
1433.000000	27.395076
1432.000000	27.500218
1431.000000	27.625829
1430.000000	27.753639
1429.000000	27.888902
1428.000000	28.033656
1427.000000	28.189868
1426.000000	28.338217
1425.000000	28.479501
1424.000000	28.646100
1423.000000	28.822257
1422.000000	29.004044
1421.000000	29.190324
1420.000000	29.369580
1419.000000	29.564059
1418.000000	29.736709
1417.000000	29.925321
1416.000000	30.135611
1415.000000	30.339442
1414.000000	30.550108
1413.000000	30.756608
1412.000000	30.957827
1411.000000	31.175452
1410.000000	31.388063
1409.000000	31.605640
1408.000000	31.839051
1407.000000	32.046064
1406.000000	32.235894
1405.000000	32.449174
1404.000000	32.667584
1403.000000	32.869821
1402.000000	33.082322
1401.000000	33.292534
1400.000000	33.490128
1399.000000	33.687035
1398.000000	33.880268
1397.000000	34.075164
1396.000000	34.273656
1395.000000	34.454284
1394.000000	34.635106
1393.000000	34.817396
1392.000000	34.996460
1391.000000	35.165777
1390.000000	35.344830
1389.000000	35.538181
1388.000000	35.710735
1387.000000	35.856245
1386.000000	36.004783
1385.000000	36.163358
1384.000000	36.304174
1383.000000	36.438886
1382.000000	36.578355
1381.000000	36.699234
1380.000000	36.798798
1379.000000	36.892601
1378.000000	36.992865
1377.000000	37.103613
1376.000000	37.193727
1375.000000	37.267907
1374.000000	37.335584
1373.000000	37.410523
1372.000000	37.488471
1371.000000	37.571475
1370.000000	37.665496
1369.000000	37.743393
1368.000000	37.806664
1367.000000	37.872887
1366.000000	37.948030
1365.000000	38.032795
1364.000000	38.113504
1363.000000	38.191207
1362.000000	38.280040
1361.000000	38.363105
1360.000000	38.436009
1359.000000	38.524451
1358.000000	38.637183
1357.000000	38.746189
1356.000000	38.839689
1355.000000	38.931469
1354.000000	39.016196
1353.000000	39.107464
1352.000000	39.215454
1351.000000	39.312372
1350.000000	39.391608
1349.000000	39.478630
1348.000000	39.590943
1347.000000	39.681748
1346.000000	39.747719
1345.000000	39.826875
1344.000000	39.898442
1343.000000	40.012984
1342.000000	40.123939
1341.000000	40.192865
1340.000000	40.261860
1339.000000	40.333332
1338.000000	40.388994
1337.000000	40.448854
1336.000000	40.512992
1335.000000	40.593114
1334.000000	40.673991
1333.000000	40.725564
1332.000000	40.775792
1331.000000	40.818789
1330.000000	40.865193
1329.000000	40.917132
1328.000000	40.974536
1327.000000	41.008962
1326.000000	41.050636
1325.000000	41.086909
1324.000000	41.108852
1323.000000	41.133216
1322.000000	41.161308
1321.000000	41.194587
1320.000000	41.226743
1319.000000	41.253433
1318.000000	41.274375
1317.000000	41.306447
1316.000000	41.338055
1315.000000	41.350250
1314.000000	41.360117
1313.000000	41.368207
1312.000000	41.405654
1311.000000	41.443897
1310.000000	41.471681
1309.000000	41.473002
1308.000000	41.503176
1307.000000	41.497348
1306.000000	41.518279
1305.000000	41.543778
1304.000000	41.553792
1303.000000	41.566370
1302.000000	41.567862
1301.000000	41.569394
1300.000000	41.586336
1299.000000	41.608038
1298.000000	41.632017
1297.000000	41.635733
1296.000000	41.621169
1295.000000	41.597676
1294.000000	41.595172
1293.000000	41.586391
1292.000000	41.608112
1291.000000	41.592740
1290.000000	41.592273
1289.000000	41.534933
1288.000000	41.520765
1287.000000	41.525383
1286.000000	41.519149
1285.000000	41.510105
1284.000000	41.502496
1283.000000	41.507302
1282.000000	41.496700
1281.000000	41.508749
1280.000000	41.476007
1279.000000	41.467257
1278.000000	41.470203
1277.000000	41.466523
1276.000000	41.474503
1275.000000	41.481562
1274.000000	41.484095
1273.000000	41.504397
1272.000000	41.503584
1271.000000	41.503309
1270.000000	41.504137
1269.000000	41.534782
1268.000000	41.563436
1267.000000	41.595546
1266.000000	41.596045
1265.000000	41.576627
1264.000000	41.603332
1263.000000	41.613801
1262.000000	41.631024
1261.000000	41.664067
1260.000000	41.674457
1259.000000	41.691614
1258.000000	41.681541
1257.000000	41.694026
1256.000000	41.712002
1255.000000	41.716603
1254.000000	41.735824
1253.000000	41.762956
1252.000000	41.766745
1251.000000	41.745740
1250.000000	41.754853
1249.000000	41.742875
1248.000000	41.734895
1247.000000	41.725610
1246.000000	41.711751
1245.000000	41.715382
1244.000000	41.673515
1243.000000	41.626602
1242.000000	41.599688
1241.000000	41.573419
1240.000000	41.547422
1239.000000	41.530934
1238.000000	41.458947
1237.000000	41.443710
1236.000000	41.415336
1235.000000	41.346804
1234.000000	41.331563
1233.000000	41.306087
1232.000000	41.272830
1231.000000	41.265531
1230.000000	41.204645
1229.000000	41.150453
1228.000000	41.146614
1227.000000	41.125660
1226.000000	41.111501
1225.000000	41.086051
1224.000000	41.014196
1223.000000	40.984768
1222.000000	40.957533
1221.000000	40.930639
1220.000000	40.903037
1219.000000	40.868602
1218.000000	40.828474
1217.000000	40.796081
1216.000000	40.780103
1215.000000	40.763168
1214.000000	40.706550
1213.000000	40.650178
1212.000000	40.594749
1211.000000	40.540979
1210.000000	40.514083
1209.000000	40.454081
1208.000000	40.401494
1207.000000	40.359069
1206.000000	40.304127
1205.000000	40.224696
1204.000000	40.185601
1203.000000	40.144275
1202.000000	40.070120
1201.000000	40.000987
1200.000000	39.961589
1199.000000	39.925058
1198.000000	39.862209
1197.000000	39.807912
1196.000000	39.768503
1195.000000	39.730264
1194.000000	39.704218
1193.000000	39.649695
1192.000000	39.614406
1191.000000	39.597974
1190.000000	39.547871
1189.000000	39.484181
1188.000000	39.473419
1187.000000	39.463458
1186.000000	39.453384
1185.000000	39.464188
1184.000000	39.463802
1183.000000	39.477527
1182.000000	39.512721
1181.000000	39.553772
1180.000000	39.606174
1179.000000	39.656513
1178.000000	39.704739
1177.000000	39.768993
1176.000000	39.847033
1175.000000	39.922055
1174.000000	39.994992
1173.000000	40.088094
1172.000000	40.175963
1171.000000	40.262314
1170.000000	40.369851
1169.000000	40.468150
1168.000000	40.571310
1167.000000	40.689404
1166.000000	40.802397
1165.000000	40.921366
1164.000000	41.039331
1163.000000	41.156646
1162.000000	41.261296
1161.000000	41.368277
1160.000000	41.481711
1159.000000	41.591465
1158.000000	41.707665
1157.000000	41.812610
1156.000000	41.909069
1155.000000	42.007426
1154.000000	42.100893
1153.000000	42.188875
1152.000000	42.270059
1151.000000	42.347336
1150.000000	42.430057
1149.000000	42.502882
1148.000000	42.574323
1147.000000	42.627953
1146.000000	42.681474
1145.000000	42.756603
1144.000000	42.830599
1143.000000	42.904965
1142.000000	42.979850
1141.000000	43.047944
1140.000000	43.103595
1139.000000	43.165142
1138.000000	43.237954
1137.000000	43.297101
1136.000000	43.358091
1135.000000	43.435616
1134.000000	43.505216
1133.000000	43.555033
1132.000000	43.603763
1131.000000	43.648849
1130.000000	43.704387
1129.000000	43.722568
1128.000000	43.753059
1127.000000	43.798158
1126.000000	43.835272
1125.000000	43.890037
1124.000000	43.920691
1123.000000	43.937756
1122.000000	43.969099
1121.000000	43.992863
1120.000000	44.020564
1119.000000	44.028835
1118.000000	44.049513
1117.000000	44.059667
1116.000000	44.077015
1115.000000	44.105764
1114.000000	44.095658
1113.000000	44.108575
1112.000000	44.110189
1111.000000	44.128511
1110.000000	44.111122
1109.000000	44.098867
1108.000000	44.101568
1107.000000	44.106777
1106.000000	44.118578
1105.000000	44.151687
1104.000000	44.175032
1103.000000	44.165447
1102.000000	44.174396
1101.000000	44.181283
1100.000000	44.173464
1099.000000	44.143613
1098.000000	44.135164
1097.000000	44.148913
1096.000000	44.167157
1095.000000	44.172788
1094.000000	44.168648
1093.000000	44.176692
1092.000000	44.145910
1091.000000	44.156779
1090.000000	44.162771
1089.000000	44.162849
1088.000000	44.167644
1087.000000	44.168453
1086.000000	44.161440
1085.000000	44.128871
1084.000000	44.126953
1083.000000	44.123480
1082.000000	44.119773
1081.000000	44.115600
1080.000000	44.127230
1079.000000	44.113712
1078.000000	44.085087
1077.000000	44.080973
1076.000000	44.077472
1075.000000	44.064908
1074.000000	44.069138
1073.000000	44.076446
1072.000000	44.069644
1071.000000	44.010499
1070.000000	44.011633
1069.000000	43.996389
1068.000000	43.993105
1067.000000	43.990615
1066.000000	43.999469
1065.000000	43.984972
1064.000000	43.931359
1063.000000	43.922333
1062.000000	43.910508
1061.000000	43.917821
1060.000000	43.917303
1059.000000	43.891999
1058.000000	43.901382
1057.000000	43.842057
1056.000000	43.831781
1055.000000	43.839662
1054.000000	43.827578
1053.000000	43.815752
1052.000000	43.781119
1051.000000	43.773686
1050.000000	43.763417
1049.000000	43.773131
1048.000000	43.711517
1047.000000	43.726294
1046.000000	43.709835
1045.000000	43.703493
1044.000000	43.694904
1043.000000	43.670588
1042.000000	43.652896
1041.000000	43.643597
1040.000000	43.647397
1039.000000	43.629643
1038.000000	43.615316
1037.000000	43.618170
1036.000000	43.637959
1035.000000	43.631850
1034.000000	43.608827
1033.000000	43.596549
1032.000000	43.602381
1031.000000	43.569219
1030.000000	43.564872
1029.000000	43.570084
1028.000000	43.577963
1027.000000	43.547476
1026.000000	43.552942
1025.000000	43.575127
1024.000000	43.578706
1023.000000	43.552799
1022.000000	43.547993
1021.000000	43.566844
1020.000000	43.566441
1019.000000	43.568411
1018.000000	43.565461
1017.000000	43.536524
1016.000000	43.560115
1015.000000	43.564205
1014.000000	43.568891
1013.000000	43.579315
1012.000000	43.598321
1011.000000	43.616449
1010.000000	43.598989
1009.000000	43.582235
1008.000000	43.601910
1007.000000	43.630179
1006.000000	43.658358
1005.000000	43.656043
1004.000000	43.653657
1003.000000	43.655166
1002.000000	43.659273
1001.000000	43.696198
1000.000000	43.713051
999.000000	43.729049
998.000000	43.747940
997.000000	43.758614
996.000000	43.754687
995.000000	43.774346
994.000000	43.784264
993.000000	43.786124
992.000000	43.810044
991.000000	43.797457
990.000000	43.796597
989.000000	43.816534
988.000000	43.834920
987.000000	43.841544
986.000000	43.843898
985.000000	43.843635
984.000000	43.849011
983.000000	43.858854
982.000000	43.872111
981.000000	43.885326
980.000000	43.903346
979.000000	43.901472
978.000000	43.919693
977.000000	43.929581
976.000000	43.925714
975.000000	43.934554
974.000000	43.950872
973.000000	43.943486
972.000000	43.962224
971.000000	43.974384
970.000000	43.983911
969.000000	43.991021
968.000000	43.997992
967.000000	44.007286
966.000000	44.005586
965.000000	44.028504
964.000000	44.042772
963.000000	44.048817
962.000000	44.047194
961.000000	44.058907
960.000000	44.073097
959.000000	44.060538
958.000000	44.060145
957.000000	44.077847
956.000000	44.087082
955.000000	44.094698
954.000000	44.113571
953.000000	44.126401
952.000000	44.127546
951.000000	44.136071
950.000000	44.142820
949.000000	44.152874
948.000000	44.148174
947.000000	44.133255
946.000000	44.136655
945.000000	44.147524
944.000000	44.156774
943.000000	44.152431
942.000000	44.141839
941.000000	44.135037
940.000000	44.135933
939.000000	44.153283
938.000000	44.151861
937.000000	44.145627
936.000000	44.137454
935.000000	44.129094
934.000000	44.142386
933.000000	44.145482
932.000000	44.132178
931.000000	44.128714
930.000000	44.122832
929.000000	44.112358
928.000000	44.106131
927.000000	44.103058
926.000000	44.120567
925.000000	44.110316
924.000000	44.067881
923.000000	44.072681
922.000000	44.062024
921.000000	44.046118
920.000000	44.070756
919.000000	44.081952
918.000000	44.061383
917.000000	44.052099
916.000000	44.040198
915.000000	44.039428
914.000000	44.039121
913.000000	44.022408
912.000000	44.030365
911.000000	44.050660
910.000000	44.023917
909.000000	44.011277
908.000000	44.007715
907.000000	43.997867
906.000000	44.006374
905.000000	44.046482
904.000000	44.063923
903.000000	44.069887
902.000000	44.058259
901.000000	44.027965
900.000000	44.038317
899.000000	44.039089
898.000000	44.088257
897.000000	44.115095
896.000000	44.085187
895.000000	44.085407
894.000000	44.056819
893.000000	44.052461
892.000000	44.076736
891.000000	44.112597
890.000000	44.164914
889.000000	44.186182
888.000000	44.112468
887.000000	44.054789
886.000000	44.131016
885.000000	44.196248
884.000000	44.147481
883.000000	44.167906
882.000000	44.188077
881.000000	44.166017
880.000000	44.206525
879.000000	44.146048
878.000000	44.222542
877.000000	44.139563
876.000000	44.149930
875.000000	44.139792
874.000000	44.125070
873.000000	44.214124
872.000000	44.186781
871.000000	44.184345
870.000000	44.135200
869.000000	44.099933
868.000000	44.158994
867.000000	44.223322
866.000000	44.131520
865.000000	44.144289
864.000000	44.301265
863.000000	44.170785
862.000000	44.129448
861.000000	44.102941
860.000000	44.099142
859.000000	44.043624
858.000000	44.112895
857.000000	43.964003
856.000000	44.210904
855.000000	44.490699
854.000000	44.251255
853.000000	43.890395
852.000000	44.043449
851.000000	43.972207
850.000000	43.944980
849.000000	43.993895
848.000000	44.112816
847.000000	44.003012
846.000000	43.943833
845.000000	43.953753
844.000000	44.059897
843.000000	44.199732
842.000000	44.133433
841.000000	44.044625
840.000000	43.858311
839.000000	43.975979
838.000000	44.032381
837.000000	44.091343
836.000000	44.036228
835.000000	44.064251
834.000000	44.026992
833.000000	44.083925
832.000000	43.806462
831.000000	43.944797
830.000000	43.754104
829.000000	43.884111
828.000000	43.993181
827.000000	44.113612
826.000000	43.914774
825.000000	43.873397
824.000000	43.830337
823.000000	43.810380
822.000000	43.780496
821.000000	43.764835
820.000000	43.794842
819.000000	43.924765
818.000000	43.882337
817.000000	43.955507
816.000000	43.879024
815.000000	43.912616
814.000000	43.753800
813.000000	43.769579
812.000000	43.727391
811.000000	43.787974
810.000000	43.820785
809.000000	43.714404
808.000000	43.800197
807.000000	43.769171
806.000000	43.744280
805.000000	43.783917
804.000000	43.818420
803.000000	43.768474
802.000000	43.781421
801.000000	43.819907
800.000000	43.775532
799.000000	43.787744
798.000000	43.810485
797.000000	43.729001
796.000000	43.753292
795.000000	43.754940
794.000000	43.762873
793.000000	43.789672
792.000000	43.725852
791.000000	43.679824
790.000000	43.639176
789.000000	43.656679
788.000000	43.661061
787.000000	43.674224
786.000000	43.723743
785.000000	43.620646
784.000000	43.620684
783.000000	43.728741
782.000000	43.630417
781.000000	43.568384
780.000000	43.582102
779.000000	43.546958
778.000000	43.580063
777.000000	43.609832
776.000000	43.605393
775.000000	43.539199
774.000000	43.551599
773.000000	43.441137
772.000000	43.464580
771.000000	43.504772
770.000000	43.468242
769.000000	43.482049
768.000000	43.418088
767.000000	43.438544
766.000000	43.480087
765.000000	43.407112
764.000000	43.345148
763.000000	43.320868
762.000000	43.317455
761.000000	43.363078
760.000000	43.366380
759.000000	43.290928
758.000000	43.299031
757.000000	43.276990
756.000000	43.308259
755.000000	43.265506
754.000000	43.240247
753.000000	43.186190
752.000000	43.221614
751.000000	43.175412
750.000000	43.144265
749.000000	43.164192
748.000000	43.093841
747.000000	43.103683
746.000000	43.049760
745.000000	43.030492
744.000000	43.021504
743.000000	42.995213
742.000000	42.958122
741.000000	42.939610
740.000000	42.941775
739.000000	42.955073
738.000000	42.919777
737.000000	42.938065
736.000000	42.881594
735.000000	42.812282
734.000000	42.831121
733.000000	42.795877
732.000000	42.743727
731.000000	42.732191
730.000000	42.718660
729.000000	42.707221
728.000000	42.678806
727.000000	42.685413
726.000000	42.620644
725.000000	42.633915
724.000000	42.600210
723.000000	42.545717
722.000000	42.565151
721.000000	42.580710
720.000000	42.537880
719.000000	42.485144
718.000000	42.485968
717.000000	42.502227
716.000000	42.433004
715.000000	42.409700
714.000000	42.417027
713.000000	42.377986
712.000000	42.350217
711.000000	42.312679
710.000000	42.300922
709.000000	42.291258
708.000000	42.249238
707.000000	42.211669
706.000000	42.180738
705.000000	42.168445
704.000000	42.187473
703.000000	42.169086
702.000000	42.126372
701.000000	42.081091
700.000000	42.067527
699.000000	42.044919
698.000000	42.025021
697.000000	42.000784
696.000000	41.959124
695.000000	41.927912
694.000000	41.902257
693.000000	41.813125
692.000000	41.780280
691.000000	41.827305
690.000000	41.819441
689.000000	41.758096
688.000000	41.691261
687.000000	41.663507
686.000000	41.640342
685.000000	41.597791
684.000000	41.582962
683.000000	41.565007
682.000000	41.515708
681.000000	41.477626
680.000000	41.437292
679.000000	41.418324
678.000000	41.407562
677.000000	41.371750
676.000000	41.335972
675.000000	41.294817
674.000000	41.246038
673.000000	41.243887
672.000000	41.190731
671.000000	41.165000
670.000000	41.126416
669.000000	41.104362
668.000000	41.070143
667.000000	41.018967
666.000000	41.016584
665.000000	40.995339
664.000000	40.974199
663.000000	40.952270
662.000000	40.892988
661.000000	40.805348
660.000000	40.759193
659.000000	40.754753
658.000000	40.702427
657.000000	40.686611
656.000000	40.651079
655.000000	40.564764
654.000000	40.519289
653.000000	40.525790
652.000000	40.465201
651.000000	40.428614
650.000000	40.374969
649.000000	40.372210
648.000000	40.307872
647.000000	40.283416
646.000000	40.232077
645.000000	40.202629
644.000000	40.112587
643.000000	40.076059
642.000000	40.034185
641.000000	39.973964
640.000000	39.945039
639.000000	39.854444
638.000000	39.808690
637.000000	39.772770
636.000000	39.775930
635.000000	39.716492
634.000000	39.672018
633.000000	39.609023
632.000000	39.552750
631.000000	39.508877
630.000000	39.437094
629.000000	39.367012
628.000000	39.361932
627.000000	39.307705
626.000000	39.222221
625.000000	39.213209
624.000000	39.140009
623.000000	39.087574
622.000000	39.028666
621.000000	38.997154
620.000000	38.958159
619.000000	38.905072
618.000000	38.851917
617.000000	38.800856
616.000000	38.751651
615.000000	38.715396
614.000000	38.679875
613.000000	38.590144
612.000000	38.558621
611.000000	38.517815
610.000000	38.470647
609.000000	38.426361
608.000000	38.395079
607.000000	38.361025
606.000000	38.312107
605.000000	38.220310
604.000000	38.203930
603.000000	38.155057
602.000000	38.080467
601.000000	38.096419
600.000000	38.003963
599.000000	37.955593
598.000000	37.913783
597.000000	37.867777
596.000000	37.826895
595.000000	37.774251
594.000000	37.712097
593.000000	37.677834
592.000000	37.631159
591.000000	37.579436
590.000000	37.500325
589.000000	37.490689
588.000000	37.413545
587.000000	37.375006
586.000000	37.307736
585.000000	37.252427
584.000000	37.257388
583.000000	37.157448
582.000000	37.115941
581.000000	37.033056
580.000000	36.995168
579.000000	36.984260
578.000000	36.897033
577.000000	36.851004
576.000000	36.809119
575.000000	36.750626
574.000000	36.676418
573.000000	36.636825
572.000000	36.586071
571.000000	36.548430
570.000000	36.491323
569.000000	36.441235
568.000000	36.390875
567.000000	36.360244
566.000000	36.259976
565.000000	36.243128
564.000000	36.187257
563.000000	36.143436
562.000000	36.075127
561.000000	36.036481
560.000000	35.988974
559.000000	35.941468
558.000000	35.906743
557.000000	35.841787
556.000000	35.785088
555.000000	35.776770
554.000000	35.675410
553.000000	35.648141
552.000000	35.567421
551.000000	35.542733
550.000000	35.505434
549.000000	35.425941
548.000000	35.330793
547.000000	35.326271
546.000000	35.245910
545.000000	35.177231
544.000000	35.124977
543.000000	35.054606
542.000000	35.004668
541.000000	34.911663
540.000000	34.850464
539.000000	34.796299
538.000000	34.727533
537.000000	34.669761
536.000000	34.595873
535.000000	34.554806
534.000000	34.506699
533.000000	34.438821
532.000000	34.356096
531.000000	34.315836
530.000000	34.248512
529.000000	34.181769
528.000000	34.125664
527.000000	34.064787
526.000000	34.002554
525.000000	33.946974
524.000000	33.880951
523.000000	33.828496
522.000000	33.748501
521.000000	33.699310
520.000000	33.631482
519.000000	33.569970
518.000000	33.496512
517.000000	33.438166
516.000000	33.350352
515.000000	33.293940
514.000000	33.238192
513.000000	33.148756
512.000000	33.075542
511.000000	33.023122
510.000000	32.923732
509.000000	32.837615
508.000000	32.741176
507.000000	32.626063
506.000000	32.543879
505.000000	32.490845
504.000000	32.387393
503.000000	32.331973
502.000000	32.238774
501.000000	32.130294
500.000000	32.038238
499.000000	31.961186
498.000000	31.838163
497.000000	31.756050
496.000000	31.631189
495.000000	31.511781
494.000000	31.419714
493.000000	31.309396
492.000000	31.228560
491.000000	31.130339
490.000000	31.007580
489.000000	30.891037
488.000000	30.783855
487.000000	30.649931
486.000000	30.527697
485.000000	30.423282
484.000000	30.310407
483.000000	30.187950
482.000000	30.029681
481.000000	29.903065
480.000000	29.762428
479.000000	29.650689
478.000000	29.517980
477.000000	29.379323
476.000000	29.240189
475.000000	29.108536
474.000000	28.970328
473.000000	28.836691
472.000000	28.708987
471.000000	28.557830
470.000000	28.394444
469.000000	28.243929
468.000000	28.095592
467.000000	27.941866
466.000000	27.803241
465.000000	27.654249
464.000000	27.473557
463.000000	27.290796
462.000000	27.137848
461.000000	26.984377
460.000000	26.817049
459.000000	26.621730
458.000000	26.434607
457.000000	26.262605
456.000000	26.091313
455.000000	25.920974
454.000000	25.732931
453.000000	25.540587
452.000000	25.354588
451.000000	25.178933
450.000000	24.973675
449.000000	24.760887
448.000000	24.588545
447.000000	24.398623
446.000000	24.173097
445.000000	23.991400
444.000000	23.809707
443.000000	23.579438
442.000000	23.387267
441.000000	23.186852
440.000000	22.997776
439.000000	22.808389
438.000000	22.588706
437.000000	22.361529
436.000000	22.171452
435.000000	21.962378
434.000000	21.729215
433.000000	21.520561
432.000000	21.306635
431.000000	21.089846
430.000000	20.884418
429.000000	20.671608
428.000000	20.456732
427.000000	20.247180
426.000000	20.015855
425.000000	19.776442
424.000000	19.553898
423.000000	19.348368
422.000000	19.151413
421.000000	18.939173
420.000000	18.731922
419.000000	18.514765
418.000000	18.314709
417.000000	18.147599
416.000000	17.996871
415.000000	17.828579
414.000000	17.667758
413.000000	17.531878
412.000000	17.404365
411.000000	17.289058
410.000000	17.183364
409.000000	17.080458
408.000000	17.019705
407.000000	16.969057
406.000000	16.896971
405.000000	16.843250
404.000000	16.800238
403.000000	16.764293
402.000000	16.729474
401.000000	16.708370
400.000000	16.671195
399.000000	16.652983
398.000000	16.620468
397.000000	16.576770
396.000000	16.539698
395.000000	16.492912
394.000000	16.482637
393.000000	16.428430
392.000000	16.375916
391.000000	16.303347
390.000000	16.277065
389.000000	16.233882
388.000000	16.158166
387.000000	16.107755
386.000000	16.016793
385.000000	15.921361
384.000000	15.851363
383.000000	15.772353
382.000000	15.698043
381.000000	15.628002
380.000000	15.532205
379.000000	15.377462
378.000000	15.186762
377.000000	15.194607
376.000000	15.156231
375.000000	15.057626
374.000000	14.858299
373.000000	14.756583
372.000000	14.702053
371.000000	14.532580
370.000000	14.442299
369.000000	14.418435
368.000000	14.272349
367.000000	14.129904
366.000000	14.095976
365.000000	13.981805
364.000000	13.849291
363.000000	13.804247
362.000000	13.717690
361.000000	13.609123
360.000000	13.509123
359.000000	13.416281
358.000000	13.340303
357.000000	13.271567
356.000000	13.161137
355.000000	13.108824
354.000000	12.994895
353.000000	12.932218
352.000000	12.859475
351.000000	12.795073
350.000000	12.755636
349.000000	12.608565
348.000000	12.600725
347.000000	12.528398
346.000000	12.517006
345.000000	12.339752
344.000000	12.249592
343.000000	12.266814
342.000000	12.218633
341.000000	12.154318
340.000000	12.133661
339.000000	11.999168
338.000000	12.013540
337.000000	11.940861
336.000000	11.888290
335.000000	11.809279
334.000000	11.736403
333.000000	11.772083
332.000000	11.655158
331.000000	11.578891
330.000000	11.595397
329.000000	11.527130
328.000000	11.435077
327.000000	11.357844
326.000000	11.358206
325.000000	11.281402
324.000000	11.270539
323.000000	11.266194
322.000000	11.209178
321.000000	11.162588
320.000000	11.174237
319.000000	11.108256
318.000000	11.112159
317.000000	11.067703
316.000000	11.049339
315.000000	11.053703
314.000000	10.967797
313.000000	10.938194
312.000000	10.950791
311.000000	10.959477
310.000000	10.833567
309.000000	10.780994
308.000000	10.808398
307.000000	10.711169
306.000000	10.728083
305.000000	10.703959
304.000000	10.719445
303.000000	10.621199
302.000000	10.593677
301.000000	10.573839
300.000000	10.533926
299.000000	10.481087
298.000000	10.442354
297.000000	10.470017
296.000000	10.323659
295.000000	10.305261
294.000000	10.191425
293.000000	10.140920
292.000000	10.111568
291.000000	10.044764
290.000000	10.074475
289.000000	10.035637
288.000000	10.034183
287.000000	10.062059
286.000000	10.149030
285.000000	10.200315
284.000000	10.307678
283.000000	10.392004
282.000000	10.488420
281.000000	10.505597
280.000000	10.606101
279.000000	10.702303
278.000000	10.783033
277.000000	10.846655
276.000000	10.961666
275.000000	11.124815
274.000000	11.196607
273.000000	11.274560
272.000000	11.377105
271.000000	11.531565
270.000000	11.550484
269.000000	11.619147
268.000000	11.750344
267.000000	11.812386
266.000000	11.917764
265.000000	12.069396
264.000000	12.192907
263.000000	12.296494
262.000000	12.435778
261.000000	12.583708
260.000000	12.690959
259.000000	12.769883
258.000000	12.919554
257.000000	13.088585
256.000000	13.195784
255.000000	13.299841
254.000000	13.334117
253.000000	13.418165
252.000000	13.505665
251.000000	13.604897
250.000000	13.643261
249.000000	13.643746
248.000000	13.580985
247.000000	13.526672
246.000000	13.545079
245.000000	13.554215
244.000000	13.533585
243.000000	13.470730
242.000000	13.556197
241.000000	13.680768
240.000000	13.781349
239.000000	13.926280
238.000000	14.077714
237.000000	14.305235
236.000000	14.528646
235.000000	14.736553
234.000000	14.988200
233.000000	15.197202
232.000000	15.399175
231.000000	15.547053
230.000000	15.646066
229.000000	15.849554
228.000000	16.007076
227.000000	16.168950
226.000000	16.365623
225.000000	16.567360
224.000000	16.738941
223.000000	16.850356
222.000000	17.130391
221.000000	17.421415
220.000000	17.668120
219.000000	17.901793
218.000000	18.212411
217.000000	18.533486
216.000000	18.815150
215.000000	19.109590
214.000000	19.334689
213.000000	19.693325
212.000000	20.057213
211.000000	20.487958
210.000000	20.934127
209.000000	21.087149
208.000000	21.339965
207.000000	21.870981
206.000000	22.451416
205.000000	22.954875
204.000000	23.511788
203.000000	24.035658
202.000000	24.479966
201.000000	25.078801
200.000000	25.570498
