PE UV       SUBTECH     SPECTRUM    ASCII       PEDS        4.00        
   -1
RTVeauUK 62.Sample.asc
18/03/02
12:18:14.00
18/03/02
12:18:14.00
Administrator

200.000000
1
Lambda 750
750N8071901
PerkinElmer UV WinLab 6.0.4.0738 / 1.61.00 Lambda 900

0
0
3350/servo 860.8/2
0
0
UV/VIS
1
1
1
CommonBeamDepol,150mm sphere / downward view
0
0
0
0
Program
Program
3350/servo 860.8/2
3350/0.2 860.8/0.2
3350/0.2 860.8/0.2
0
1
 
 
 
0
 
860.8
319.2
860.8
Front
100
on
 
 
0
0
0
 
0
 
 
 
0
 
 
0
0
0
0
0
 
 
 
 
0
0


0
0
#HDR
-1
-1
#GR
nm
%R
1.0
0.0
2350.000000
-1.000000
2151
8
49.901273
8.310366
#DATA
2350.000000	8.916619
2349.000000	9.352280
2348.000000	9.090753
2347.000000	9.710201
2346.000000	9.485575
2345.000000	9.205765
2344.000000	9.029928
2343.000000	8.803851
2342.000000	9.527698
2341.000000	9.170913
2340.000000	9.305020
2339.000000	9.742093
2338.000000	9.534543
2337.000000	9.612479
2336.000000	9.917025
2335.000000	10.028068
2334.000000	10.061058
2333.000000	10.283035
2332.000000	10.034262
2331.000000	10.070369
2330.000000	10.101415
2329.000000	10.026531
2328.000000	9.801197
2327.000000	9.903721
2326.000000	10.118878
2325.000000	9.730674
2324.000000	9.848207
2323.000000	9.866073
2322.000000	9.662711
2321.000000	9.739887
2320.000000	9.865764
2319.000000	9.539297
2318.000000	9.768328
2317.000000	9.692960
2316.000000	9.569527
2315.000000	9.652203
2314.000000	9.543492
2313.000000	9.610253
2312.000000	9.292333
2311.000000	9.302576
2310.000000	9.396043
2309.000000	9.262937
2308.000000	9.390799
2307.000000	9.134992
2306.000000	9.303689
2305.000000	9.330589
2304.000000	9.088869
2303.000000	9.235644
2302.000000	9.291653
2301.000000	9.014925
2300.000000	8.783733
2299.000000	8.733431
2298.000000	8.825330
2297.000000	9.037695
2296.000000	8.979313
2295.000000	8.799234
2294.000000	8.846961
2293.000000	8.688688
2292.000000	8.682001
2291.000000	8.574441
2290.000000	8.350417
2289.000000	8.506804
2288.000000	8.509435
2287.000000	8.624351
2286.000000	8.391236
2285.000000	8.415986
2284.000000	8.528496
2283.000000	8.441847
2282.000000	8.477498
2281.000000	8.448611
2280.000000	8.355262
2279.000000	8.521127
2278.000000	8.402034
2277.000000	8.310366
2276.000000	8.419252
2275.000000	8.704334
2274.000000	8.704716
2273.000000	8.675701
2272.000000	8.604491
2271.000000	8.592331
2270.000000	8.629883
2269.000000	8.805918
2268.000000	8.770385
2267.000000	8.724077
2266.000000	8.772131
2265.000000	8.806272
2264.000000	8.858878
2263.000000	8.794800
2262.000000	8.849448
2261.000000	8.987472
2260.000000	9.102825
2259.000000	9.248756
2258.000000	9.343575
2257.000000	9.520320
2256.000000	9.653190
2255.000000	9.722864
2254.000000	9.725503
2253.000000	9.715125
2252.000000	9.938581
2251.000000	10.209902
2250.000000	10.203433
2249.000000	10.228500
2248.000000	10.388251
2247.000000	10.518003
2246.000000	10.642042
2245.000000	10.662278
2244.000000	10.720329
2243.000000	10.820533
2242.000000	10.935943
2241.000000	11.090706
2240.000000	11.161061
2239.000000	11.254951
2238.000000	11.268702
2237.000000	11.432515
2236.000000	11.502182
2235.000000	11.475106
2234.000000	11.512503
2233.000000	11.555753
2232.000000	11.658338
2231.000000	11.766340
2230.000000	11.864677
2229.000000	11.817385
2228.000000	11.791193
2227.000000	11.817008
2226.000000	11.798864
2225.000000	11.766880
2224.000000	11.856711
2223.000000	11.841460
2222.000000	11.785476
2221.000000	11.673941
2220.000000	11.761055
2219.000000	11.759027
2218.000000	11.711592
2217.000000	11.733863
2216.000000	11.613351
2215.000000	11.597064
2214.000000	11.570058
2213.000000	11.605484
2212.000000	11.634125
2211.000000	11.510595
2210.000000	11.517870
2209.000000	11.445006
2208.000000	11.376494
2207.000000	11.355644
2206.000000	11.188263
2205.000000	11.142258
2204.000000	11.187862
2203.000000	11.088428
2202.000000	11.126338
2201.000000	11.111863
2200.000000	11.103492
2199.000000	11.109967
2198.000000	11.009179
2197.000000	10.931335
2196.000000	10.823540
2195.000000	10.821379
2194.000000	10.829575
2193.000000	10.686106
2192.000000	10.606947
2191.000000	10.718736
2190.000000	10.743398
2189.000000	10.633654
2188.000000	10.551956
2187.000000	10.525109
2186.000000	10.435056
2185.000000	10.440661
2184.000000	10.486810
2183.000000	10.478942
2182.000000	10.410490
2181.000000	10.389719
2180.000000	10.357545
2179.000000	10.342615
2178.000000	10.321305
2177.000000	10.318664
2176.000000	10.277459
2175.000000	10.418307
2174.000000	10.431769
2173.000000	10.437328
2172.000000	10.372274
2171.000000	10.371129
2170.000000	10.553746
2169.000000	10.591920
2168.000000	10.618841
2167.000000	10.679527
2166.000000	10.553017
2165.000000	10.668861
2164.000000	10.757943
2163.000000	10.765081
2162.000000	10.904887
2161.000000	10.682057
2160.000000	11.106241
2159.000000	11.232807
2158.000000	11.081138
2157.000000	11.240284
2156.000000	11.256788
2155.000000	11.244296
2154.000000	11.533635
2153.000000	11.739677
2152.000000	11.689591
2151.000000	11.658549
2150.000000	11.954235
2149.000000	11.947758
2148.000000	11.944848
2147.000000	12.200039
2146.000000	12.142880
2145.000000	12.206016
2144.000000	12.309713
2143.000000	12.469877
2142.000000	12.511857
2141.000000	12.534014
2140.000000	12.789067
2139.000000	12.810775
2138.000000	13.098964
2137.000000	13.136702
2136.000000	12.865032
2135.000000	13.029252
2134.000000	13.198097
2133.000000	13.125670
2132.000000	13.396930
2131.000000	13.455681
2130.000000	13.483974
2129.000000	13.595647
2128.000000	13.420231
2127.000000	13.496279
2126.000000	13.542413
2125.000000	13.557304
2124.000000	13.647406
2123.000000	13.663014
2122.000000	13.670248
2121.000000	13.723869
2120.000000	13.685239
2119.000000	13.762473
2118.000000	13.994746
2117.000000	13.926204
2116.000000	14.115844
2115.000000	13.929086
2114.000000	13.966909
2113.000000	13.918769
2112.000000	13.979175
2111.000000	14.035091
2110.000000	14.093210
2109.000000	14.177034
2108.000000	14.120557
2107.000000	14.351328
2106.000000	14.274659
2105.000000	14.097640
2104.000000	14.261673
2103.000000	14.334899
2102.000000	14.304443
2101.000000	14.363671
2100.000000	14.401699
2099.000000	14.380699
2098.000000	14.313188
2097.000000	14.264089
2096.000000	14.193943
2095.000000	14.227811
2094.000000	14.242288
2093.000000	14.329571
2092.000000	14.337060
2091.000000	14.200412
2090.000000	14.318813
2089.000000	14.298696
2088.000000	14.294605
2087.000000	14.147513
2086.000000	14.208054
2085.000000	14.142272
2084.000000	14.163547
2083.000000	14.062221
2082.000000	13.996724
2081.000000	14.008927
2080.000000	13.971646
2079.000000	13.890932
2078.000000	13.764716
2077.000000	13.800846
2076.000000	13.668797
2075.000000	13.613772
2074.000000	13.579645
2073.000000	13.559940
2072.000000	13.459098
2071.000000	13.466414
2070.000000	13.409819
2069.000000	13.210891
2068.000000	13.116689
2067.000000	13.041254
2066.000000	12.963799
2065.000000	12.807061
2064.000000	12.670751
2063.000000	12.491071
2062.000000	12.474588
2061.000000	12.417954
2060.000000	12.338089
2059.000000	12.214422
2058.000000	12.135456
2057.000000	12.006299
2056.000000	11.958730
2055.000000	11.940454
2054.000000	11.755636
2053.000000	11.689945
2052.000000	11.598496
2051.000000	11.550661
2050.000000	11.476031
2049.000000	11.340739
2048.000000	11.265725
2047.000000	11.278666
2046.000000	11.228202
2045.000000	11.144877
2044.000000	11.128514
2043.000000	11.132056
2042.000000	11.121793
2041.000000	11.119574
2040.000000	11.163892
2039.000000	11.223050
2038.000000	11.242585
2037.000000	11.261659
2036.000000	11.268812
2035.000000	11.321041
2034.000000	11.387720
2033.000000	11.433319
2032.000000	11.557716
2031.000000	11.658827
2030.000000	11.727279
2029.000000	11.832346
2028.000000	11.924500
2027.000000	12.021506
2026.000000	12.129223
2025.000000	12.200163
2024.000000	12.267427
2023.000000	12.315326
2022.000000	12.314107
2021.000000	12.402227
2020.000000	12.502531
2019.000000	12.550006
2018.000000	12.598436
2017.000000	12.590639
2016.000000	12.593383
2015.000000	12.645626
2014.000000	12.656583
2013.000000	12.632090
2012.000000	12.650223
2011.000000	12.649360
2010.000000	12.606769
2009.000000	12.585003
2008.000000	12.542803
2007.000000	12.499519
2006.000000	12.450736
2005.000000	12.432960
2004.000000	12.407305
2003.000000	12.361248
2002.000000	12.330322
2001.000000	12.298270
2000.000000	12.227470
1999.000000	12.167949
1998.000000	12.112565
1997.000000	12.062415
1996.000000	12.028583
1995.000000	11.959814
1994.000000	11.875349
1993.000000	11.790728
1992.000000	11.751459
1991.000000	11.732610
1990.000000	11.682191
1989.000000	11.578555
1988.000000	11.528067
1987.000000	11.477003
1986.000000	11.377557
1985.000000	11.350165
1984.000000	11.326630
1983.000000	11.253169
1982.000000	11.216521
1981.000000	11.187893
1980.000000	11.131730
1979.000000	11.069772
1978.000000	11.018737
1977.000000	11.019044
1976.000000	10.954072
1975.000000	10.903576
1974.000000	10.806675
1973.000000	10.783268
1972.000000	10.747475
1971.000000	10.695774
1970.000000	10.640638
1969.000000	10.607326
1968.000000	10.534875
1967.000000	10.528569
1966.000000	10.483530
1965.000000	10.412565
1964.000000	10.356105
1963.000000	10.317016
1962.000000	10.275511
1961.000000	10.259154
1960.000000	10.223029
1959.000000	10.154284
1958.000000	10.164679
1957.000000	10.119161
1956.000000	10.086210
1955.000000	10.070397
1954.000000	10.071940
1953.000000	10.009319
1952.000000	9.969094
1951.000000	10.008295
1950.000000	9.965106
1949.000000	9.918971
1948.000000	9.945015
1947.000000	9.998509
1946.000000	9.910204
1945.000000	9.970282
1944.000000	9.976696
1943.000000	10.029371
1942.000000	9.992173
1941.000000	9.934898
1940.000000	10.015702
1939.000000	10.111213
1938.000000	10.167931
1937.000000	10.195670
1936.000000	10.260188
1935.000000	10.323634
1934.000000	10.366739
1933.000000	10.459499
1932.000000	10.471977
1931.000000	10.592953
1930.000000	10.705628
1929.000000	10.787652
1928.000000	10.967689
1927.000000	11.131175
1926.000000	11.148976
1925.000000	11.308160
1924.000000	11.401842
1923.000000	11.632196
1922.000000	11.836906
1921.000000	11.998351
1920.000000	12.151380
1919.000000	12.343727
1918.000000	12.525665
1917.000000	12.804976
1916.000000	12.869241
1915.000000	13.163062
1914.000000	13.461295
1913.000000	13.822466
1912.000000	14.048919
1911.000000	14.408947
1910.000000	14.635869
1909.000000	14.881092
1908.000000	15.262523
1907.000000	15.630125
1906.000000	15.957090
1905.000000	16.326394
1904.000000	16.738602
1903.000000	17.170446
1902.000000	17.504352
1901.000000	17.889408
1900.000000	18.322466
1899.000000	18.774358
1898.000000	19.239699
1897.000000	19.634558
1896.000000	20.116976
1895.000000	20.594491
1894.000000	20.973342
1893.000000	21.477701
1892.000000	21.952261
1891.000000	22.433723
1890.000000	22.878188
1889.000000	23.254576
1888.000000	23.683648
1887.000000	24.157500
1886.000000	24.546237
1885.000000	24.911969
1884.000000	25.353275
1883.000000	25.741120
1882.000000	26.109327
1881.000000	26.437579
1880.000000	26.826598
1879.000000	27.175916
1878.000000	27.495426
1877.000000	27.791620
1876.000000	28.057918
1875.000000	28.315689
1874.000000	28.583910
1873.000000	28.827925
1872.000000	29.057842
1871.000000	29.232488
1870.000000	29.458198
1869.000000	29.620275
1868.000000	29.802505
1867.000000	29.899045
1866.000000	30.039614
1865.000000	30.138331
1864.000000	30.252743
1863.000000	30.363867
1862.000000	30.427646
1861.000000	30.457497
1860.000000	30.564044
1859.000000	30.647652
1858.000000	30.677265
1857.000000	30.693721
1856.000000	30.732563
1855.000000	30.792679
1854.000000	30.845771
1853.000000	30.853536
1852.000000	30.843988
1851.000000	30.866172
1850.000000	30.850113
1849.000000	30.862328
1848.000000	30.877177
1847.000000	30.844214
1846.000000	30.809746
1845.000000	30.801851
1844.000000	30.823042
1843.000000	30.775726
1842.000000	30.703797
1841.000000	30.664978
1840.000000	30.631770
1839.000000	30.589351
1838.000000	30.555195
1837.000000	30.485450
1836.000000	30.411760
1835.000000	30.384495
1834.000000	30.325398
1833.000000	30.274706
1832.000000	30.246154
1831.000000	30.179010
1830.000000	30.120729
1829.000000	30.063821
1828.000000	30.009221
1827.000000	29.958083
1826.000000	29.905308
1825.000000	29.852917
1824.000000	29.830223
1823.000000	29.801090
1822.000000	29.718350
1821.000000	29.671552
1820.000000	29.640966
1819.000000	29.588875
1818.000000	29.562105
1817.000000	29.521257
1816.000000	29.449925
1815.000000	29.414341
1814.000000	29.397847
1813.000000	29.364615
1812.000000	29.324718
1811.000000	29.274301
1810.000000	29.233957
1809.000000	29.210265
1808.000000	29.161666
1807.000000	29.102648
1806.000000	29.058354
1805.000000	29.003500
1804.000000	28.957330
1803.000000	28.938909
1802.000000	28.914614
1801.000000	28.880709
1800.000000	28.844632
1799.000000	28.800196
1798.000000	28.752914
1797.000000	28.745831
1796.000000	28.715044
1795.000000	28.673770
1794.000000	28.676151
1793.000000	28.653152
1792.000000	28.606657
1791.000000	28.570472
1790.000000	28.555715
1789.000000	28.524390
1788.000000	28.495251
1787.000000	28.457678
1786.000000	28.416795
1785.000000	28.385455
1784.000000	28.350856
1783.000000	28.322299
1782.000000	28.276230
1781.000000	28.234234
1780.000000	28.173543
1779.000000	28.131406
1778.000000	28.081177
1777.000000	28.013493
1776.000000	27.932055
1775.000000	27.873600
1774.000000	27.800218
1773.000000	27.736537
1772.000000	27.659866
1771.000000	27.569329
1770.000000	27.521740
1769.000000	27.414305
1768.000000	27.332520
1767.000000	27.257184
1766.000000	27.211840
1765.000000	27.150368
1764.000000	27.074043
1763.000000	26.995256
1762.000000	26.911656
1761.000000	26.827296
1760.000000	26.755265
1759.000000	26.670489
1758.000000	26.608034
1757.000000	26.545880
1756.000000	26.450236
1755.000000	26.389539
1754.000000	26.287044
1753.000000	26.225628
1752.000000	26.170448
1751.000000	26.097908
1750.000000	26.019058
1749.000000	25.961300
1748.000000	25.878762
1747.000000	25.805856
1746.000000	25.724867
1745.000000	25.639379
1744.000000	25.573097
1743.000000	25.489084
1742.000000	25.402287
1741.000000	25.330316
1740.000000	25.280049
1739.000000	25.217078
1738.000000	25.169584
1737.000000	25.116442
1736.000000	25.076091
1735.000000	25.069874
1734.000000	25.068650
1733.000000	25.029446
1732.000000	25.008673
1731.000000	25.034972
1730.000000	25.049915
1729.000000	25.112124
1728.000000	25.134388
1727.000000	25.209287
1726.000000	25.283139
1725.000000	25.349798
1724.000000	25.461690
1723.000000	25.521018
1722.000000	25.655164
1721.000000	25.771653
1720.000000	25.853420
1719.000000	25.987483
1718.000000	26.097917
1717.000000	26.189785
1716.000000	26.322032
1715.000000	26.432508
1714.000000	26.545557
1713.000000	26.639262
1712.000000	26.704009
1711.000000	26.804718
1710.000000	26.875870
1709.000000	26.922414
1708.000000	26.976866
1707.000000	27.016215
1706.000000	27.065556
1705.000000	27.092537
1704.000000	27.141561
1703.000000	27.152256
1702.000000	27.159094
1701.000000	27.179450
1700.000000	27.224031
1699.000000	27.193620
1698.000000	27.246253
1697.000000	27.292365
1696.000000	27.360956
1695.000000	27.385319
1694.000000	27.444059
1693.000000	27.515119
1692.000000	27.565948
1691.000000	27.677172
1690.000000	27.785284
1689.000000	27.873553
1688.000000	28.035200
1687.000000	28.192577
1686.000000	28.370160
1685.000000	28.564560
1684.000000	28.754556
1683.000000	28.948876
1682.000000	29.164144
1681.000000	29.394892
1680.000000	29.647831
1679.000000	29.875657
1678.000000	30.125717
1677.000000	30.380995
1676.000000	30.607448
1675.000000	30.879295
1674.000000	31.134677
1673.000000	31.383906
1672.000000	31.596712
1671.000000	31.837108
1670.000000	32.068002
1669.000000	32.329449
1668.000000	32.489054
1667.000000	32.697640
1666.000000	32.838366
1665.000000	32.976094
1664.000000	33.107366
1663.000000	33.234354
1662.000000	33.380547
1661.000000	33.479026
1660.000000	33.586364
1659.000000	33.680063
1658.000000	33.748436
1657.000000	33.817361
1656.000000	33.877567
1655.000000	33.938522
1654.000000	33.989852
1653.000000	34.008022
1652.000000	34.043910
1651.000000	34.032744
1650.000000	34.022828
1649.000000	34.030734
1648.000000	34.042797
1647.000000	34.017542
1646.000000	34.027931
1645.000000	34.006002
1644.000000	33.983944
1643.000000	33.948004
1642.000000	33.928854
1641.000000	33.893919
1640.000000	33.845407
1639.000000	33.801549
1638.000000	33.762995
1637.000000	33.715999
1636.000000	33.658133
1635.000000	33.614173
1634.000000	33.575251
1633.000000	33.517624
1632.000000	33.467778
1631.000000	33.412086
1630.000000	33.358271
1629.000000	33.304744
1628.000000	33.225033
1627.000000	33.164367
1626.000000	33.100714
1625.000000	33.039823
1624.000000	32.985047
1623.000000	32.915186
1622.000000	32.855126
1621.000000	32.788647
1620.000000	32.729431
1619.000000	32.651919
1618.000000	32.567126
1617.000000	32.508923
1616.000000	32.447209
1615.000000	32.352929
1614.000000	32.274470
1613.000000	32.199748
1612.000000	32.116719
1611.000000	32.046958
1610.000000	31.962663
1609.000000	31.870198
1608.000000	31.792742
1607.000000	31.715440
1606.000000	31.629104
1605.000000	31.535310
1604.000000	31.445168
1603.000000	31.359560
1602.000000	31.277231
1601.000000	31.208185
1600.000000	31.129470
1599.000000	31.048480
1598.000000	30.969310
1597.000000	30.880992
1596.000000	30.810189
1595.000000	30.735515
1594.000000	30.667073
1593.000000	30.594244
1592.000000	30.514516
1591.000000	30.441154
1590.000000	30.381531
1589.000000	30.316291
1588.000000	30.236542
1587.000000	30.178543
1586.000000	30.128661
1585.000000	30.058839
1584.000000	29.998855
1583.000000	29.932688
1582.000000	29.870868
1581.000000	29.823624
1580.000000	29.757725
1579.000000	29.693673
1578.000000	29.644684
1577.000000	29.584353
1576.000000	29.523203
1575.000000	29.467920
1574.000000	29.408546
1573.000000	29.344811
1572.000000	29.278291
1571.000000	29.239148
1570.000000	29.190634
1569.000000	29.130244
1568.000000	29.086192
1567.000000	29.045028
1566.000000	28.991422
1565.000000	28.938701
1564.000000	28.914301
1563.000000	28.894122
1562.000000	28.855507
1561.000000	28.816287
1560.000000	28.790891
1559.000000	28.757392
1558.000000	28.734314
1557.000000	28.710289
1556.000000	28.674258
1555.000000	28.646886
1554.000000	28.626848
1553.000000	28.588506
1552.000000	28.549228
1551.000000	28.509842
1550.000000	28.474656
1549.000000	28.425396
1548.000000	28.381329
1547.000000	28.308206
1546.000000	28.244480
1545.000000	28.165811
1544.000000	28.070655
1543.000000	27.993690
1542.000000	27.914703
1541.000000	27.808872
1540.000000	27.707409
1539.000000	27.608064
1538.000000	27.491182
1537.000000	27.384195
1536.000000	27.289129
1535.000000	27.190579
1534.000000	27.073012
1533.000000	26.966399
1532.000000	26.852774
1531.000000	26.741777
1530.000000	26.639020
1529.000000	26.531706
1528.000000	26.444220
1527.000000	26.358563
1526.000000	26.262629
1525.000000	26.182510
1524.000000	26.099101
1523.000000	26.034624
1522.000000	25.959915
1521.000000	25.901262
1520.000000	25.838090
1519.000000	25.767859
1518.000000	25.729294
1517.000000	25.675573
1516.000000	25.633359
1515.000000	25.584965
1514.000000	25.531460
1513.000000	25.518996
1512.000000	25.479257
1511.000000	25.442130
1510.000000	25.408639
1509.000000	25.387566
1508.000000	25.360793
1507.000000	25.361576
1506.000000	25.341992
1505.000000	25.325770
1504.000000	25.318212
1503.000000	25.314095
1502.000000	25.295781
1501.000000	25.280363
1500.000000	25.289354
1499.000000	25.304315
1498.000000	25.304352
1497.000000	25.341770
1496.000000	25.353693
1495.000000	25.389851
1494.000000	25.427597
1493.000000	25.471374
1492.000000	25.536348
1491.000000	25.580260
1490.000000	25.632290
1489.000000	25.693603
1488.000000	25.744801
1487.000000	25.813340
1486.000000	25.889983
1485.000000	25.962101
1484.000000	26.052000
1483.000000	26.148980
1482.000000	26.215356
1481.000000	26.335790
1480.000000	26.414133
1479.000000	26.499910
1478.000000	26.590602
1477.000000	26.666606
1476.000000	26.762405
1475.000000	26.853930
1474.000000	26.945990
1473.000000	27.045334
1472.000000	27.118508
1471.000000	27.207727
1470.000000	27.296191
1469.000000	27.382711
1468.000000	27.475773
1467.000000	27.525797
1466.000000	27.612339
1465.000000	27.671938
1464.000000	27.761633
1463.000000	27.853805
1462.000000	27.913017
1461.000000	27.970184
1460.000000	28.070675
1459.000000	28.163092
1458.000000	28.197761
1457.000000	28.255376
1456.000000	28.336751
1455.000000	28.428910
1454.000000	28.525895
1453.000000	28.584828
1452.000000	28.656989
1451.000000	28.771011
1450.000000	28.858518
1449.000000	28.942044
1448.000000	29.011005
1447.000000	29.095896
1446.000000	29.177891
1445.000000	29.294034
1444.000000	29.408416
1443.000000	29.508243
1442.000000	29.596660
1441.000000	29.688989
1440.000000	29.803964
1439.000000	29.950870
1438.000000	30.076525
1437.000000	30.195999
1436.000000	30.310814
1435.000000	30.437354
1434.000000	30.560733
1433.000000	30.689958
1432.000000	30.839548
1431.000000	30.988559
1430.000000	31.147214
1429.000000	31.307439
1428.000000	31.469582
1427.000000	31.652449
1426.000000	31.824393
1425.000000	31.996220
1424.000000	32.189346
1423.000000	32.400270
1422.000000	32.615133
1421.000000	32.827431
1420.000000	33.027845
1419.000000	33.261692
1418.000000	33.477385
1417.000000	33.689317
1416.000000	33.935329
1415.000000	34.181979
1414.000000	34.420354
1413.000000	34.670307
1412.000000	34.926086
1411.000000	35.165218
1410.000000	35.406530
1409.000000	35.658296
1408.000000	35.924562
1407.000000	36.175525
1406.000000	36.414958
1405.000000	36.646436
1404.000000	36.890118
1403.000000	37.143521
1402.000000	37.385125
1401.000000	37.625278
1400.000000	37.859434
1399.000000	38.079906
1398.000000	38.304956
1397.000000	38.537260
1396.000000	38.768369
1395.000000	38.992781
1394.000000	39.198532
1393.000000	39.408375
1392.000000	39.611799
1391.000000	39.818291
1390.000000	40.040904
1389.000000	40.235364
1388.000000	40.418122
1387.000000	40.597564
1386.000000	40.776085
1385.000000	40.939441
1384.000000	41.099650
1383.000000	41.257583
1382.000000	41.403570
1381.000000	41.535316
1380.000000	41.660522
1379.000000	41.794316
1378.000000	41.923974
1377.000000	42.033270
1376.000000	42.122274
1375.000000	42.215388
1374.000000	42.324809
1373.000000	42.411154
1372.000000	42.490921
1371.000000	42.591216
1370.000000	42.682740
1369.000000	42.761901
1368.000000	42.840941
1367.000000	42.928073
1366.000000	43.016649
1365.000000	43.108885
1364.000000	43.190908
1363.000000	43.289313
1362.000000	43.382328
1361.000000	43.470852
1360.000000	43.572788
1359.000000	43.686882
1358.000000	43.790653
1357.000000	43.887024
1356.000000	43.999952
1355.000000	44.104848
1354.000000	44.203881
1353.000000	44.317393
1352.000000	44.425980
1351.000000	44.525684
1350.000000	44.630398
1349.000000	44.743283
1348.000000	44.862219
1347.000000	44.948457
1346.000000	45.030777
1345.000000	45.139956
1344.000000	45.261585
1343.000000	45.352835
1342.000000	45.435148
1341.000000	45.521566
1340.000000	45.606131
1339.000000	45.691479
1338.000000	45.762357
1337.000000	45.850150
1336.000000	45.947124
1335.000000	46.012854
1334.000000	46.067458
1333.000000	46.121298
1332.000000	46.164755
1331.000000	46.217516
1330.000000	46.289353
1329.000000	46.365519
1328.000000	46.404844
1327.000000	46.427730
1326.000000	46.463920
1325.000000	46.504777
1324.000000	46.548002
1323.000000	46.599412
1322.000000	46.629934
1321.000000	46.643035
1320.000000	46.672955
1319.000000	46.708065
1318.000000	46.714656
1317.000000	46.746217
1316.000000	46.786129
1315.000000	46.804435
1314.000000	46.847075
1313.000000	46.862448
1312.000000	46.884474
1311.000000	46.900902
1310.000000	46.949889
1309.000000	46.953033
1308.000000	46.978182
1307.000000	46.998267
1306.000000	47.027793
1305.000000	47.027272
1304.000000	47.035649
1303.000000	47.049038
1302.000000	47.090281
1301.000000	47.114366
1300.000000	47.129300
1299.000000	47.137352
1298.000000	47.125613
1297.000000	47.138918
1296.000000	47.135190
1295.000000	47.134541
1294.000000	47.117053
1293.000000	47.106989
1292.000000	47.100596
1291.000000	47.106909
1290.000000	47.074133
1289.000000	47.075533
1288.000000	47.068142
1287.000000	47.033735
1286.000000	47.019922
1285.000000	47.017045
1284.000000	47.010765
1283.000000	47.011547
1282.000000	47.001739
1281.000000	46.988716
1280.000000	47.004969
1279.000000	46.992614
1278.000000	47.001302
1277.000000	46.981164
1276.000000	46.994642
1275.000000	46.996574
1274.000000	46.982421
1273.000000	46.996115
1272.000000	46.985742
1271.000000	46.999959
1270.000000	46.994272
1269.000000	47.009451
1268.000000	47.001328
1267.000000	47.010724
1266.000000	47.043504
1265.000000	47.028200
1264.000000	47.039430
1263.000000	47.082730
1262.000000	47.123924
1261.000000	47.134695
1260.000000	47.145130
1259.000000	47.157202
1258.000000	47.168693
1257.000000	47.186079
1256.000000	47.221243
1255.000000	47.257482
1254.000000	47.245712
1253.000000	47.246914
1252.000000	47.248883
1251.000000	47.237307
1250.000000	47.250810
1249.000000	47.250082
1248.000000	47.237796
1247.000000	47.235038
1246.000000	47.213291
1245.000000	47.214196
1244.000000	47.192737
1243.000000	47.163165
1242.000000	47.096977
1241.000000	47.078721
1240.000000	47.056283
1239.000000	47.019606
1238.000000	46.978491
1237.000000	46.919413
1236.000000	46.889486
1235.000000	46.850402
1234.000000	46.788112
1233.000000	46.754303
1232.000000	46.714143
1231.000000	46.696125
1230.000000	46.659351
1229.000000	46.592620
1228.000000	46.559764
1227.000000	46.520976
1226.000000	46.502985
1225.000000	46.467723
1224.000000	46.439028
1223.000000	46.401294
1222.000000	46.361945
1221.000000	46.335570
1220.000000	46.287486
1219.000000	46.229494
1218.000000	46.187374
1217.000000	46.141660
1216.000000	46.083372
1215.000000	46.030958
1214.000000	45.979994
1213.000000	45.940541
1212.000000	45.899113
1211.000000	45.832780
1210.000000	45.771814
1209.000000	45.711006
1208.000000	45.649849
1207.000000	45.602316
1206.000000	45.526759
1205.000000	45.460467
1204.000000	45.409947
1203.000000	45.336548
1202.000000	45.268482
1201.000000	45.210563
1200.000000	45.165050
1199.000000	45.104782
1198.000000	45.048414
1197.000000	44.983011
1196.000000	44.939040
1195.000000	44.896287
1194.000000	44.845666
1193.000000	44.795353
1192.000000	44.758911
1191.000000	44.733025
1190.000000	44.690527
1189.000000	44.613373
1188.000000	44.602200
1187.000000	44.590290
1186.000000	44.572187
1185.000000	44.590994
1184.000000	44.607373
1183.000000	44.607471
1182.000000	44.641297
1181.000000	44.685876
1180.000000	44.735772
1179.000000	44.797847
1178.000000	44.850533
1177.000000	44.905444
1176.000000	44.986331
1175.000000	45.086268
1174.000000	45.177533
1173.000000	45.267652
1172.000000	45.370678
1171.000000	45.484057
1170.000000	45.607221
1169.000000	45.718095
1168.000000	45.845208
1167.000000	45.973269
1166.000000	46.094856
1165.000000	46.232801
1164.000000	46.361204
1163.000000	46.481680
1162.000000	46.607964
1161.000000	46.737877
1160.000000	46.871183
1159.000000	46.990847
1158.000000	47.112834
1157.000000	47.237265
1156.000000	47.357272
1155.000000	47.466998
1154.000000	47.548446
1153.000000	47.621366
1152.000000	47.725927
1151.000000	47.838950
1150.000000	47.936802
1149.000000	48.017976
1148.000000	48.100058
1147.000000	48.195256
1146.000000	48.270761
1145.000000	48.342695
1144.000000	48.415050
1143.000000	48.485569
1142.000000	48.563008
1141.000000	48.642989
1140.000000	48.710761
1139.000000	48.782059
1138.000000	48.860208
1137.000000	48.932904
1136.000000	49.007736
1135.000000	49.077830
1134.000000	49.144727
1133.000000	49.193490
1132.000000	49.246371
1131.000000	49.290612
1130.000000	49.350977
1129.000000	49.410507
1128.000000	49.464822
1127.000000	49.509264
1126.000000	49.539744
1125.000000	49.582977
1124.000000	49.621825
1123.000000	49.657837
1122.000000	49.676409
1121.000000	49.692867
1120.000000	49.716998
1119.000000	49.742592
1118.000000	49.762104
1117.000000	49.775778
1116.000000	49.782944
1115.000000	49.783291
1114.000000	49.787880
1113.000000	49.786332
1112.000000	49.802484
1111.000000	49.809614
1110.000000	49.828239
1109.000000	49.850533
1108.000000	49.850269
1107.000000	49.850051
1106.000000	49.858206
1105.000000	49.877218
1104.000000	49.881869
1103.000000	49.879795
1102.000000	49.887553
1101.000000	49.872050
1100.000000	49.860271
1099.000000	49.864691
1098.000000	49.869398
1097.000000	49.883369
1096.000000	49.894630
1095.000000	49.901273
1094.000000	49.890888
1093.000000	49.851668
1092.000000	49.854319
1091.000000	49.871014
1090.000000	49.867352
1089.000000	49.858777
1088.000000	49.861926
1087.000000	49.879457
1086.000000	49.848555
1085.000000	49.825618
1084.000000	49.819614
1083.000000	49.834887
1082.000000	49.818367
1081.000000	49.830363
1080.000000	49.795934
1079.000000	49.794543
1078.000000	49.771007
1077.000000	49.774032
1076.000000	49.756808
1075.000000	49.764484
1074.000000	49.751830
1073.000000	49.724026
1072.000000	49.707896
1071.000000	49.688550
1070.000000	49.690374
1069.000000	49.685054
1068.000000	49.688290
1067.000000	49.670288
1066.000000	49.646573
1065.000000	49.631201
1064.000000	49.604912
1063.000000	49.591143
1062.000000	49.582643
1061.000000	49.581033
1060.000000	49.563464
1059.000000	49.531022
1058.000000	49.525774
1057.000000	49.512787
1056.000000	49.500075
1055.000000	49.495854
1054.000000	49.491021
1053.000000	49.432753
1052.000000	49.439482
1051.000000	49.425706
1050.000000	49.419647
1049.000000	49.390543
1048.000000	49.372426
1047.000000	49.378839
1046.000000	49.355480
1045.000000	49.372377
1044.000000	49.317147
1043.000000	49.316963
1042.000000	49.318125
1041.000000	49.301750
1040.000000	49.273089
1039.000000	49.290683
1038.000000	49.284035
1037.000000	49.267943
1036.000000	49.277136
1035.000000	49.260140
1034.000000	49.233992
1033.000000	49.242796
1032.000000	49.238061
1031.000000	49.232412
1030.000000	49.234232
1029.000000	49.222656
1028.000000	49.204380
1027.000000	49.199946
1026.000000	49.211647
1025.000000	49.231021
1024.000000	49.205315
1023.000000	49.200971
1022.000000	49.200086
1021.000000	49.187683
1020.000000	49.224723
1019.000000	49.212343
1018.000000	49.195940
1017.000000	49.195252
1016.000000	49.220446
1015.000000	49.236400
1014.000000	49.220432
1013.000000	49.228540
1012.000000	49.234863
1011.000000	49.245531
1010.000000	49.257861
1009.000000	49.265049
1008.000000	49.258154
1007.000000	49.252635
1006.000000	49.288806
1005.000000	49.307616
1004.000000	49.326429
1003.000000	49.325695
1002.000000	49.322964
1001.000000	49.335299
1000.000000	49.362153
999.000000	49.379170
998.000000	49.386060
997.000000	49.397255
996.000000	49.405060
995.000000	49.411721
994.000000	49.429496
993.000000	49.446668
992.000000	49.450293
991.000000	49.451265
990.000000	49.450378
989.000000	49.473053
988.000000	49.482285
987.000000	49.476655
986.000000	49.485629
985.000000	49.489730
984.000000	49.500709
983.000000	49.504757
982.000000	49.525711
981.000000	49.525265
980.000000	49.537658
979.000000	49.553425
978.000000	49.559929
977.000000	49.565114
976.000000	49.579872
975.000000	49.583281
974.000000	49.589061
973.000000	49.601840
972.000000	49.609763
971.000000	49.624273
970.000000	49.627608
969.000000	49.618171
968.000000	49.618554
967.000000	49.644981
966.000000	49.651913
965.000000	49.660234
964.000000	49.686129
963.000000	49.694316
962.000000	49.698001
961.000000	49.703495
960.000000	49.699574
959.000000	49.696134
958.000000	49.698959
957.000000	49.718552
956.000000	49.743207
955.000000	49.736792
954.000000	49.743990
953.000000	49.752012
952.000000	49.753551
951.000000	49.759878
950.000000	49.778259
949.000000	49.784253
948.000000	49.780979
947.000000	49.797604
946.000000	49.790425
945.000000	49.784681
944.000000	49.793249
943.000000	49.795855
942.000000	49.800236
941.000000	49.793657
940.000000	49.784514
939.000000	49.778071
938.000000	49.783182
937.000000	49.790823
936.000000	49.789876
935.000000	49.794293
934.000000	49.799673
933.000000	49.768815
932.000000	49.745257
931.000000	49.740936
930.000000	49.715853
929.000000	49.709921
928.000000	49.702886
927.000000	49.705973
926.000000	49.724402
925.000000	49.713702
924.000000	49.697579
923.000000	49.679101
922.000000	49.681814
921.000000	49.663046
920.000000	49.659178
919.000000	49.663891
918.000000	49.656688
917.000000	49.659195
916.000000	49.627721
915.000000	49.619390
914.000000	49.643552
913.000000	49.612686
912.000000	49.601635
911.000000	49.636577
910.000000	49.633428
909.000000	49.607175
908.000000	49.580015
907.000000	49.585352
906.000000	49.591423
905.000000	49.593998
904.000000	49.633407
903.000000	49.657077
902.000000	49.627547
901.000000	49.621799
900.000000	49.582068
899.000000	49.558227
898.000000	49.582663
897.000000	49.637227
896.000000	49.623639
895.000000	49.693501
894.000000	49.652605
893.000000	49.648125
892.000000	49.654121
891.000000	49.649339
890.000000	49.706855
889.000000	49.743569
888.000000	49.673142
887.000000	49.650351
886.000000	49.737964
885.000000	49.741096
884.000000	49.664833
883.000000	49.682929
882.000000	49.719184
881.000000	49.693560
880.000000	49.654205
879.000000	49.639514
878.000000	49.707243
877.000000	49.712817
876.000000	49.716379
875.000000	49.659168
874.000000	49.691626
873.000000	49.665883
872.000000	49.695056
871.000000	49.643452
870.000000	49.683154
869.000000	49.609886
868.000000	49.705512
867.000000	49.613490
866.000000	49.627388
865.000000	49.668180
864.000000	49.671973
863.000000	49.578364
862.000000	49.633121
861.000000	49.597497
860.000000	49.686030
859.000000	49.160806
858.000000	49.254748
857.000000	49.041538
856.000000	49.329274
855.000000	49.419811
854.000000	49.444179
853.000000	49.239532
852.000000	49.430816
851.000000	49.283065
850.000000	49.351096
849.000000	49.337596
848.000000	49.320932
847.000000	49.360774
846.000000	49.002706
845.000000	49.170152
844.000000	49.249613
843.000000	49.377063
842.000000	49.328520
841.000000	49.168701
840.000000	49.048637
839.000000	49.244119
838.000000	49.200801
837.000000	49.356787
836.000000	49.253360
835.000000	49.155069
834.000000	48.898904
833.000000	49.126098
832.000000	49.130043
831.000000	49.029086
830.000000	49.029702
829.000000	48.968152
828.000000	49.021216
827.000000	49.112355
826.000000	49.091168
825.000000	49.120859
824.000000	49.018463
823.000000	49.078378
822.000000	48.967119
821.000000	48.938689
820.000000	48.808113
819.000000	49.017528
818.000000	49.046095
817.000000	49.010952
816.000000	48.961667
815.000000	49.035730
814.000000	48.935784
813.000000	48.936646
812.000000	48.805230
811.000000	48.868319
810.000000	48.962714
809.000000	48.785596
808.000000	48.882016
807.000000	48.895303
806.000000	48.880271
805.000000	48.808679
804.000000	48.793407
803.000000	48.815799
802.000000	48.820721
801.000000	48.842906
800.000000	48.823305
799.000000	48.739847
798.000000	48.893236
797.000000	48.792910
796.000000	48.711348
795.000000	48.787033
794.000000	48.892745
793.000000	48.885344
792.000000	48.771923
791.000000	48.721422
790.000000	48.777424
789.000000	48.695471
788.000000	48.715599
787.000000	48.703076
786.000000	48.704608
785.000000	48.647435
784.000000	48.630200
783.000000	48.660246
782.000000	48.622067
781.000000	48.548939
780.000000	48.598521
779.000000	48.572580
778.000000	48.591183
777.000000	48.586944
776.000000	48.537184
775.000000	48.503003
774.000000	48.534602
773.000000	48.446233
772.000000	48.455574
771.000000	48.548479
770.000000	48.460686
769.000000	48.379806
768.000000	48.411946
767.000000	48.395930
766.000000	48.345152
765.000000	48.368950
764.000000	48.328508
763.000000	48.235229
762.000000	48.216501
761.000000	48.295358
760.000000	48.267774
759.000000	48.223126
758.000000	48.166727
757.000000	48.138243
756.000000	48.208817
755.000000	48.131933
754.000000	48.077529
753.000000	48.063229
752.000000	48.091854
751.000000	48.109186
750.000000	48.013168
749.000000	47.987090
748.000000	47.881105
747.000000	47.894112
746.000000	47.910874
745.000000	47.884347
744.000000	47.875181
743.000000	47.882253
742.000000	47.855191
741.000000	47.821772
740.000000	47.796916
739.000000	47.789457
738.000000	47.710843
737.000000	47.693536
736.000000	47.706819
735.000000	47.680745
734.000000	47.639163
733.000000	47.562050
732.000000	47.555554
731.000000	47.564952
730.000000	47.519062
729.000000	47.490759
728.000000	47.486169
727.000000	47.474612
726.000000	47.418997
725.000000	47.417215
724.000000	47.357750
723.000000	47.290946
722.000000	47.288865
721.000000	47.289005
720.000000	47.283813
719.000000	47.239569
718.000000	47.239133
717.000000	47.219464
716.000000	47.122433
715.000000	47.114682
714.000000	47.129959
713.000000	47.055912
712.000000	47.015837
711.000000	47.014949
710.000000	46.977189
709.000000	46.956348
708.000000	46.921827
707.000000	46.873245
706.000000	46.794567
705.000000	46.765605
704.000000	46.817680
703.000000	46.793394
702.000000	46.725471
701.000000	46.668605
700.000000	46.622947
699.000000	46.583033
698.000000	46.611432
697.000000	46.603605
696.000000	46.545110
695.000000	46.513830
694.000000	46.474073
693.000000	46.392488
692.000000	46.343714
691.000000	46.352455
690.000000	46.346860
689.000000	46.274624
688.000000	46.189492
687.000000	46.142320
686.000000	46.082653
685.000000	46.079018
684.000000	46.048186
683.000000	45.993871
682.000000	45.944125
681.000000	45.892961
680.000000	45.895857
679.000000	45.858296
678.000000	45.805447
677.000000	45.751059
676.000000	45.723390
675.000000	45.643852
674.000000	45.592200
673.000000	45.600403
672.000000	45.549685
671.000000	45.532623
670.000000	45.456508
669.000000	45.377433
668.000000	45.345567
667.000000	45.313958
666.000000	45.264077
665.000000	45.222211
664.000000	45.183819
663.000000	45.154022
662.000000	45.092330
661.000000	44.991071
660.000000	44.931816
659.000000	44.899383
658.000000	44.799180
657.000000	44.784952
656.000000	44.724516
655.000000	44.694550
654.000000	44.624581
653.000000	44.620341
652.000000	44.515205
651.000000	44.495109
650.000000	44.443512
649.000000	44.424919
648.000000	44.350408
647.000000	44.264675
646.000000	44.185976
645.000000	44.161198
644.000000	44.052122
643.000000	44.002740
642.000000	43.914025
641.000000	43.865166
640.000000	43.783450
639.000000	43.733486
638.000000	43.645979
637.000000	43.614927
636.000000	43.584195
635.000000	43.482918
634.000000	43.411456
633.000000	43.369887
632.000000	43.302025
631.000000	43.242521
630.000000	43.137371
629.000000	43.092024
628.000000	43.040376
627.000000	42.995377
626.000000	42.893978
625.000000	42.825036
624.000000	42.784623
623.000000	42.724802
622.000000	42.636371
621.000000	42.609338
620.000000	42.498556
619.000000	42.414893
618.000000	42.405440
617.000000	42.352157
616.000000	42.266751
615.000000	42.223590
614.000000	42.163925
613.000000	42.096207
612.000000	42.046483
611.000000	41.969800
610.000000	41.916314
609.000000	41.847211
608.000000	41.804485
607.000000	41.711130
606.000000	41.706637
605.000000	41.624320
604.000000	41.543375
603.000000	41.488718
602.000000	41.389956
601.000000	41.372049
600.000000	41.324969
599.000000	41.237509
598.000000	41.156216
597.000000	41.119080
596.000000	41.044969
595.000000	41.018645
594.000000	40.930090
593.000000	40.911630
592.000000	40.794678
591.000000	40.743941
590.000000	40.688223
589.000000	40.602319
588.000000	40.554146
587.000000	40.512649
586.000000	40.404582
585.000000	40.386934
584.000000	40.302721
583.000000	40.214101
582.000000	40.128736
581.000000	40.088058
580.000000	40.015281
579.000000	39.954820
578.000000	39.872819
577.000000	39.849809
576.000000	39.761282
575.000000	39.705617
574.000000	39.585500
573.000000	39.576954
572.000000	39.437674
571.000000	39.422351
570.000000	39.350284
569.000000	39.227783
568.000000	39.198791
567.000000	39.142016
566.000000	39.057979
565.000000	39.001739
564.000000	38.964249
563.000000	38.888579
562.000000	38.795544
561.000000	38.748009
560.000000	38.656655
559.000000	38.576413
558.000000	38.493862
557.000000	38.427023
556.000000	38.374356
555.000000	38.336287
554.000000	38.239699
553.000000	38.209653
552.000000	38.113048
551.000000	38.032674
550.000000	37.971666
549.000000	37.898650
548.000000	37.779092
547.000000	37.735787
546.000000	37.644189
545.000000	37.583684
544.000000	37.514414
543.000000	37.416096
542.000000	37.336746
541.000000	37.239524
540.000000	37.177719
539.000000	37.092102
538.000000	36.996219
537.000000	36.923788
536.000000	36.830780
535.000000	36.757897
534.000000	36.685104
533.000000	36.610369
532.000000	36.538858
531.000000	36.470045
530.000000	36.387609
529.000000	36.315161
528.000000	36.226560
527.000000	36.132817
526.000000	36.054252
525.000000	35.986946
524.000000	35.899181
523.000000	35.814218
522.000000	35.727064
521.000000	35.663690
520.000000	35.567829
519.000000	35.480204
518.000000	35.399671
517.000000	35.332634
516.000000	35.221178
515.000000	35.148691
514.000000	35.062500
513.000000	34.981488
512.000000	34.857673
511.000000	34.787628
510.000000	34.682595
509.000000	34.580080
508.000000	34.463153
507.000000	34.344589
506.000000	34.240924
505.000000	34.163873
504.000000	34.028746
503.000000	33.939689
502.000000	33.817564
501.000000	33.683804
500.000000	33.572545
499.000000	33.488642
498.000000	33.349836
497.000000	33.228007
496.000000	33.071805
495.000000	32.942332
494.000000	32.813050
493.000000	32.666772
492.000000	32.541361
491.000000	32.410362
490.000000	32.263752
489.000000	32.116482
488.000000	31.980911
487.000000	31.814692
486.000000	31.667305
485.000000	31.549344
484.000000	31.391092
483.000000	31.232494
482.000000	31.053737
481.000000	30.918419
480.000000	30.780020
479.000000	30.660575
478.000000	30.491265
477.000000	30.335874
476.000000	30.180722
475.000000	30.006394
474.000000	29.852155
473.000000	29.707375
472.000000	29.534180
471.000000	29.354127
470.000000	29.184662
469.000000	29.030779
468.000000	28.845091
467.000000	28.650927
466.000000	28.476788
465.000000	28.297822
464.000000	28.094220
463.000000	27.898131
462.000000	27.731898
461.000000	27.548139
460.000000	27.347589
459.000000	27.141026
458.000000	26.925165
457.000000	26.734265
456.000000	26.529620
455.000000	26.316150
454.000000	26.101390
453.000000	25.874419
452.000000	25.662819
451.000000	25.451275
450.000000	25.218810
449.000000	25.004271
448.000000	24.771529
447.000000	24.542747
446.000000	24.334304
445.000000	24.109755
444.000000	23.895850
443.000000	23.642545
442.000000	23.435378
441.000000	23.221526
440.000000	22.988939
439.000000	22.753260
438.000000	22.510174
437.000000	22.267669
436.000000	22.049928
435.000000	21.804548
434.000000	21.570180
433.000000	21.334418
432.000000	21.083383
431.000000	20.865445
430.000000	20.633020
429.000000	20.368180
428.000000	20.145422
427.000000	19.907720
426.000000	19.653471
425.000000	19.410527
424.000000	19.165079
423.000000	18.934765
422.000000	18.723955
421.000000	18.506050
420.000000	18.269696
419.000000	18.062391
418.000000	17.838497
417.000000	17.640527
416.000000	17.487959
415.000000	17.306791
414.000000	17.137802
413.000000	16.974933
412.000000	16.858972
411.000000	16.751818
410.000000	16.635984
409.000000	16.524453
408.000000	16.446173
407.000000	16.397260
406.000000	16.340617
405.000000	16.263001
404.000000	16.235729
403.000000	16.219983
402.000000	16.179919
401.000000	16.137485
400.000000	16.077119
399.000000	16.060511
398.000000	16.017429
397.000000	15.955871
396.000000	15.941696
395.000000	15.911474
394.000000	15.835266
393.000000	15.780361
392.000000	15.754081
391.000000	15.662038
390.000000	15.603383
389.000000	15.562025
388.000000	15.470494
387.000000	15.396980
386.000000	15.304318
385.000000	15.246292
384.000000	15.159318
383.000000	15.057531
382.000000	14.968692
381.000000	14.885853
380.000000	14.778420
379.000000	14.648246
378.000000	14.527235
377.000000	14.456148
376.000000	14.432439
375.000000	14.357419
374.000000	14.195840
373.000000	14.081429
372.000000	14.014561
371.000000	13.892708
370.000000	13.668352
369.000000	13.703754
368.000000	13.570070
367.000000	13.394894
366.000000	13.428395
365.000000	13.219371
364.000000	13.145360
363.000000	13.117267
362.000000	13.003318
361.000000	12.915101
360.000000	12.801165
359.000000	12.759086
358.000000	12.625270
357.000000	12.565155
356.000000	12.468381
355.000000	12.412459
354.000000	12.333261
353.000000	12.218717
352.000000	12.133947
351.000000	12.123411
350.000000	12.096131
349.000000	11.930432
348.000000	11.928270
347.000000	11.850435
346.000000	11.794139
345.000000	11.767471
344.000000	11.709578
343.000000	11.576235
342.000000	11.559423
341.000000	11.548231
340.000000	11.442179
339.000000	11.414077
338.000000	11.297373
337.000000	11.316203
336.000000	11.251884
335.000000	11.148273
334.000000	11.099354
333.000000	11.113833
332.000000	11.006431
331.000000	11.035629
330.000000	10.963010
329.000000	10.890030
328.000000	10.864955
327.000000	10.809966
326.000000	10.785726
325.000000	10.731218
324.000000	10.742702
323.000000	10.704451
322.000000	10.696751
321.000000	10.648265
320.000000	10.706098
319.000000	10.651604
318.000000	10.482875
317.000000	10.458910
316.000000	10.497498
315.000000	10.511941
314.000000	10.442938
313.000000	10.419442
312.000000	10.439033
311.000000	10.357334
310.000000	10.380951
309.000000	10.353268
308.000000	10.312384
307.000000	10.277779
306.000000	10.274856
305.000000	10.271694
304.000000	10.217626
303.000000	10.221299
302.000000	10.209464
301.000000	10.130803
300.000000	10.138203
299.000000	10.137888
298.000000	10.140031
297.000000	10.105790
296.000000	10.076000
295.000000	10.017627
294.000000	9.958445
293.000000	9.919517
292.000000	9.900885
291.000000	9.907202
290.000000	9.851427
289.000000	9.838970
288.000000	9.866086
287.000000	9.913826
286.000000	9.962684
285.000000	10.026242
284.000000	10.113655
283.000000	10.206864
282.000000	10.258532
281.000000	10.324623
280.000000	10.418691
279.000000	10.513826
278.000000	10.589133
277.000000	10.689339
276.000000	10.830917
275.000000	10.907592
274.000000	10.966984
273.000000	11.085992
272.000000	11.196423
271.000000	11.249251
270.000000	11.367186
269.000000	11.450125
268.000000	11.514569
267.000000	11.630363
266.000000	11.756129
265.000000	11.871374
264.000000	12.022447
263.000000	12.145623
262.000000	12.211224
261.000000	12.361648
260.000000	12.549092
259.000000	12.652298
258.000000	12.738057
257.000000	12.881781
256.000000	13.087161
255.000000	13.218792
254.000000	13.246510
253.000000	13.346810
252.000000	13.484538
251.000000	13.552579
250.000000	13.611332
249.000000	13.608049
248.000000	13.615726
247.000000	13.605493
246.000000	13.561304
245.000000	13.588318
244.000000	13.609228
243.000000	13.674897
242.000000	13.671073
241.000000	13.773254
240.000000	13.868349
239.000000	13.922781
238.000000	14.098123
237.000000	14.325738
236.000000	14.538561
235.000000	14.718627
234.000000	14.971523
233.000000	15.166715
232.000000	15.352514
231.000000	15.559158
230.000000	15.674264
229.000000	15.839756
228.000000	16.014235
227.000000	16.179725
226.000000	16.402646
225.000000	16.572884
224.000000	16.711221
223.000000	16.928015
222.000000	17.175434
221.000000	17.446474
220.000000	17.644179
219.000000	17.804143
218.000000	18.172935
217.000000	18.551994
216.000000	18.848044
215.000000	19.094592
214.000000	19.494530
213.000000	19.862996
212.000000	20.224020
211.000000	20.530636
210.000000	20.813702
209.000000	21.222017
208.000000	21.645522
207.000000	22.186318
206.000000	22.720951
205.000000	23.215001
204.000000	23.688744
203.000000	24.390787
202.000000	24.838383
201.000000	25.385378
200.000000	26.253704
