PE UV       SUBTECH     SPECTRUM    ASCII       PEDS        4.00        
   -1
TDms1482162.Sample.asc
18/03/22
10:53:18.00
18/03/22
10:53:18.00
Administrator

200.000000
1
Lambda 750
750N8071901
PerkinElmer UV WinLab 6.0.4.0738 / 1.61.00 Lambda 900

0
0
3350/servo 860.8/2
0
0
UV/VIS
1
1
1
CommonBeamDepol,150mm sphere / downward view
0
0
0
0
Program
Program
3350/servo 860.8/2
3350/0.2 860.8/0.2
3350/0.2 860.8/0.2
0
1
 
 
 
0
 
860.8
319.2
860.8
Front
100
on
 
 
0
0
0
 
0
 
 
 
0
 
 
0
0
0
0
0
 
 
 
 
0
0


0
0
#HDR
-1
-1
#GR
nm
%T
1.0
0.0
2350.000000
-1.000000
2151
8
10.709447
-0.051799
#DATA
2350.000000	3.223943
2349.000000	2.949561
2348.000000	2.912355
2347.000000	4.116271
2346.000000	3.534660
2345.000000	2.998655
2344.000000	3.075521
2343.000000	2.947599
2342.000000	3.260149
2341.000000	3.853262
2340.000000	3.466813
2339.000000	3.877146
2338.000000	3.610384
2337.000000	3.380192
2336.000000	3.669102
2335.000000	4.158182
2334.000000	4.496308
2333.000000	4.449260
2332.000000	4.150725
2331.000000	4.014167
2330.000000	3.951064
2329.000000	4.252988
2328.000000	4.103782
2327.000000	3.994693
2326.000000	3.860625
2325.000000	3.943277
2324.000000	3.975896
2323.000000	3.828829
2322.000000	3.808730
2321.000000	3.679281
2320.000000	3.710337
2319.000000	3.753973
2318.000000	3.484209
2317.000000	3.965983
2316.000000	3.833901
2315.000000	3.656888
2314.000000	3.541448
2313.000000	3.589891
2312.000000	3.508452
2311.000000	3.580228
2310.000000	3.610143
2309.000000	3.871319
2308.000000	3.629906
2307.000000	3.544456
2306.000000	3.401884
2305.000000	3.512064
2304.000000	3.604444
2303.000000	3.700489
2302.000000	3.633167
2301.000000	3.406649
2300.000000	3.210299
2299.000000	3.309219
2298.000000	3.513578
2297.000000	3.219823
2296.000000	3.307167
2295.000000	3.375558
2294.000000	3.584202
2293.000000	3.284443
2292.000000	3.076886
2291.000000	3.054664
2290.000000	3.162384
2289.000000	3.196584
2288.000000	3.143728
2287.000000	3.203591
2286.000000	3.195601
2285.000000	3.281692
2284.000000	3.224351
2283.000000	3.160422
2282.000000	3.158592
2281.000000	3.339157
2280.000000	3.315918
2279.000000	3.217415
2278.000000	2.987824
2277.000000	3.221960
2276.000000	3.220197
2275.000000	3.247415
2274.000000	3.326721
2273.000000	3.441932
2272.000000	3.408601
2271.000000	3.299414
2270.000000	3.139318
2269.000000	3.196510
2268.000000	3.269131
2267.000000	3.367568
2266.000000	3.425320
2265.000000	3.416048
2264.000000	3.416741
2263.000000	3.454124
2262.000000	3.473589
2261.000000	3.453984
2260.000000	3.483469
2259.000000	3.524989
2258.000000	3.710535
2257.000000	3.694848
2256.000000	3.753470
2255.000000	3.814780
2254.000000	3.910858
2253.000000	3.892155
2252.000000	3.838969
2251.000000	3.906661
2250.000000	4.047200
2249.000000	4.261557
2248.000000	4.288545
2247.000000	4.133916
2246.000000	4.258839
2245.000000	4.380520
2244.000000	4.324813
2243.000000	4.394562
2242.000000	4.459618
2241.000000	4.454137
2240.000000	4.486793
2239.000000	4.560280
2238.000000	4.554425
2237.000000	4.510692
2236.000000	4.473971
2235.000000	4.491451
2234.000000	4.450215
2233.000000	4.592562
2232.000000	4.731910
2231.000000	4.619400
2230.000000	4.591698
2229.000000	4.750009
2228.000000	4.836413
2227.000000	4.759314
2226.000000	4.644214
2225.000000	4.606529
2224.000000	4.676980
2223.000000	4.699519
2222.000000	4.643450
2221.000000	4.689262
2220.000000	4.562882
2219.000000	4.512049
2218.000000	4.520581
2217.000000	4.577144
2216.000000	4.584295
2215.000000	4.600075
2214.000000	4.586627
2213.000000	4.613659
2212.000000	4.586157
2211.000000	4.428622
2210.000000	4.395736
2209.000000	4.449024
2208.000000	4.381489
2207.000000	4.423211
2206.000000	4.244540
2205.000000	4.266195
2204.000000	4.433368
2203.000000	4.330714
2202.000000	4.185401
2201.000000	4.295455
2200.000000	4.376333
2199.000000	4.275665
2198.000000	4.336279
2197.000000	4.450567
2196.000000	4.187042
2195.000000	4.073842
2194.000000	4.060761
2193.000000	4.086450
2192.000000	4.145330
2191.000000	4.077376
2190.000000	3.982897
2189.000000	4.104567
2188.000000	4.048854
2187.000000	3.861619
2186.000000	3.943225
2185.000000	3.949069
2184.000000	4.031838
2183.000000	4.164374
2182.000000	4.089326
2181.000000	3.936830
2180.000000	3.923879
2179.000000	4.007503
2178.000000	4.054471
2177.000000	3.973100
2176.000000	3.981439
2175.000000	4.186352
2174.000000	4.082872
2173.000000	3.855542
2172.000000	3.863270
2171.000000	3.948903
2170.000000	3.998659
2169.000000	4.080521
2168.000000	4.157039
2167.000000	4.097504
2166.000000	4.078908
2165.000000	3.979547
2164.000000	4.231392
2163.000000	4.171140
2162.000000	4.267912
2161.000000	4.289247
2160.000000	4.454120
2159.000000	4.384348
2158.000000	4.181151
2157.000000	4.347151
2156.000000	4.574992
2155.000000	4.401089
2154.000000	4.648600
2153.000000	4.727598
2152.000000	4.545574
2151.000000	4.527086
2150.000000	4.515325
2149.000000	4.694123
2148.000000	4.573316
2147.000000	4.634701
2146.000000	4.743590
2145.000000	4.643790
2144.000000	4.683297
2143.000000	4.635548
2142.000000	5.006431
2141.000000	4.831460
2140.000000	4.863870
2139.000000	4.936431
2138.000000	4.964275
2137.000000	5.009356
2136.000000	4.952397
2135.000000	5.202399
2134.000000	5.149688
2133.000000	4.845108
2132.000000	4.949441
2131.000000	5.316904
2130.000000	5.278829
2129.000000	5.281492
2128.000000	5.170481
2127.000000	5.078404
2126.000000	5.065816
2125.000000	5.082086
2124.000000	5.066202
2123.000000	5.137230
2122.000000	5.036914
2121.000000	5.121474
2120.000000	5.145089
2119.000000	5.199458
2118.000000	5.196982
2117.000000	5.279236
2116.000000	5.312045
2115.000000	5.325025
2114.000000	5.181130
2113.000000	5.108219
2112.000000	5.159462
2111.000000	5.174270
2110.000000	5.115000
2109.000000	5.164069
2108.000000	5.174644
2107.000000	5.170490
2106.000000	5.238069
2105.000000	5.180445
2104.000000	5.118747
2103.000000	5.179551
2102.000000	5.327856
2101.000000	5.267145
2100.000000	5.304842
2099.000000	5.265593
2098.000000	5.187480
2097.000000	5.171544
2096.000000	5.228496
2095.000000	5.230892
2094.000000	5.181057
2093.000000	5.100418
2092.000000	5.256615
2091.000000	5.178722
2090.000000	5.204738
2089.000000	5.132017
2088.000000	5.172246
2087.000000	5.106962
2086.000000	5.233321
2085.000000	5.260341
2084.000000	5.271331
2083.000000	5.237970
2082.000000	5.167405
2081.000000	5.043145
2080.000000	5.064958
2079.000000	4.990777
2078.000000	5.056548
2077.000000	5.020083
2076.000000	5.011820
2075.000000	4.913763
2074.000000	4.909211
2073.000000	4.908910
2072.000000	4.855035
2071.000000	4.785536
2070.000000	4.853845
2069.000000	4.819687
2068.000000	4.687226
2067.000000	4.612768
2066.000000	4.595818
2065.000000	4.587476
2064.000000	4.566883
2063.000000	4.495927
2062.000000	4.564627
2061.000000	4.500131
2060.000000	4.431985
2059.000000	4.370517
2058.000000	4.295441
2057.000000	4.210790
2056.000000	4.189240
2055.000000	4.175726
2054.000000	4.158082
2053.000000	4.108305
2052.000000	4.056790
2051.000000	4.061352
2050.000000	4.035544
2049.000000	4.012301
2048.000000	4.004676
2047.000000	4.004782
2046.000000	3.955606
2045.000000	3.909204
2044.000000	3.903564
2043.000000	3.892695
2042.000000	3.916752
2041.000000	3.959627
2040.000000	3.955156
2039.000000	3.954528
2038.000000	3.913357
2037.000000	3.958714
2036.000000	4.011331
2035.000000	3.975103
2034.000000	3.957054
2033.000000	3.990174
2032.000000	4.101559
2031.000000	4.118676
2030.000000	4.106215
2029.000000	4.174726
2028.000000	4.196090
2027.000000	4.199378
2026.000000	4.248766
2025.000000	4.317373
2024.000000	4.288160
2023.000000	4.260900
2022.000000	4.278770
2021.000000	4.284000
2020.000000	4.292120
2019.000000	4.281775
2018.000000	4.286966
2017.000000	4.342364
2016.000000	4.312375
2015.000000	4.246964
2014.000000	4.271874
2013.000000	4.254209
2012.000000	4.238865
2011.000000	4.273975
2010.000000	4.245180
2009.000000	4.190639
2008.000000	4.173977
2007.000000	4.142490
2006.000000	4.164325
2005.000000	4.161886
2004.000000	4.101404
2003.000000	4.071250
2002.000000	4.036428
2001.000000	4.012486
2000.000000	4.022586
1999.000000	4.000130
1998.000000	3.936437
1997.000000	3.920313
1996.000000	3.896975
1995.000000	3.883315
1994.000000	3.836972
1993.000000	3.802223
1992.000000	3.792288
1991.000000	3.735227
1990.000000	3.721067
1989.000000	3.680851
1988.000000	3.671421
1987.000000	3.676765
1986.000000	3.643118
1985.000000	3.587461
1984.000000	3.614585
1983.000000	3.615939
1982.000000	3.592300
1981.000000	3.556751
1980.000000	3.521498
1979.000000	3.485368
1978.000000	3.447802
1977.000000	3.463410
1976.000000	3.430056
1975.000000	3.383541
1974.000000	3.392954
1973.000000	3.402244
1972.000000	3.355563
1971.000000	3.387093
1970.000000	3.350868
1969.000000	3.311534
1968.000000	3.263615
1967.000000	3.257580
1966.000000	3.286250
1965.000000	3.237582
1964.000000	3.211960
1963.000000	3.191588
1962.000000	3.146913
1961.000000	3.203042
1960.000000	3.132960
1959.000000	3.108203
1958.000000	3.153927
1957.000000	3.134528
1956.000000	3.122783
1955.000000	3.117114
1954.000000	3.110421
1953.000000	3.065014
1952.000000	3.045309
1951.000000	3.093237
1950.000000	3.087151
1949.000000	3.067835
1948.000000	3.112949
1947.000000	3.039662
1946.000000	3.026011
1945.000000	3.039487
1944.000000	3.021707
1943.000000	3.094469
1942.000000	3.125340
1941.000000	3.155750
1940.000000	3.139703
1939.000000	3.166384
1938.000000	3.120020
1937.000000	3.120721
1936.000000	3.149666
1935.000000	3.183414
1934.000000	3.179945
1933.000000	3.187735
1932.000000	3.227418
1931.000000	3.312815
1930.000000	3.362761
1929.000000	3.380614
1928.000000	3.479205
1927.000000	3.463922
1926.000000	3.500510
1925.000000	3.587247
1924.000000	3.652548
1923.000000	3.727498
1922.000000	3.719636
1921.000000	3.820153
1920.000000	3.822525
1919.000000	3.898379
1918.000000	4.021807
1917.000000	4.086186
1916.000000	4.078837
1915.000000	4.161871
1914.000000	4.311491
1913.000000	4.333480
1912.000000	4.456723
1911.000000	4.610848
1910.000000	4.612173
1909.000000	4.714360
1908.000000	4.838680
1907.000000	5.001803
1906.000000	5.035025
1905.000000	5.220674
1904.000000	5.382137
1903.000000	5.524091
1902.000000	5.608017
1901.000000	5.733005
1900.000000	5.958583
1899.000000	6.005947
1898.000000	6.238088
1897.000000	6.353730
1896.000000	6.499327
1895.000000	6.566986
1894.000000	6.690842
1893.000000	6.864865
1892.000000	6.992670
1891.000000	7.146796
1890.000000	7.242396
1889.000000	7.372611
1888.000000	7.496451
1887.000000	7.639040
1886.000000	7.730109
1885.000000	7.848361
1884.000000	8.005379
1883.000000	8.113152
1882.000000	8.191478
1881.000000	8.299131
1880.000000	8.465274
1879.000000	8.527757
1878.000000	8.600323
1877.000000	8.671255
1876.000000	8.740240
1875.000000	8.834682
1874.000000	8.958317
1873.000000	8.997555
1872.000000	9.025005
1871.000000	9.136386
1870.000000	9.132702
1869.000000	9.187208
1868.000000	9.183215
1867.000000	9.239787
1866.000000	9.249624
1865.000000	9.268805
1864.000000	9.269503
1863.000000	9.295377
1862.000000	9.335606
1861.000000	9.325504
1860.000000	9.368970
1859.000000	9.350752
1858.000000	9.320903
1857.000000	9.336246
1856.000000	9.362867
1855.000000	9.375738
1854.000000	9.354607
1853.000000	9.439383
1852.000000	9.417885
1851.000000	9.376014
1850.000000	9.388588
1849.000000	9.407531
1848.000000	9.423540
1847.000000	9.406437
1846.000000	9.411185
1845.000000	9.408192
1844.000000	9.390040
1843.000000	9.367685
1842.000000	9.385363
1841.000000	9.363031
1840.000000	9.331425
1839.000000	9.309521
1838.000000	9.317252
1837.000000	9.298235
1836.000000	9.231390
1835.000000	9.218561
1834.000000	9.192639
1833.000000	9.164807
1832.000000	9.187847
1831.000000	9.165626
1830.000000	9.168697
1829.000000	9.137782
1828.000000	9.125304
1827.000000	9.111013
1826.000000	9.061253
1825.000000	9.054900
1824.000000	9.062600
1823.000000	9.035113
1822.000000	9.010837
1821.000000	9.017384
1820.000000	9.003357
1819.000000	8.984545
1818.000000	8.970438
1817.000000	8.954576
1816.000000	8.959275
1815.000000	8.951649
1814.000000	8.924952
1813.000000	8.909448
1812.000000	8.888410
1811.000000	8.875512
1810.000000	8.874119
1809.000000	8.862927
1808.000000	8.852311
1807.000000	8.855420
1806.000000	8.839963
1805.000000	8.823948
1804.000000	8.806868
1803.000000	8.803099
1802.000000	8.802355
1801.000000	8.794227
1800.000000	8.774377
1799.000000	8.775345
1798.000000	8.788881
1797.000000	8.788745
1796.000000	8.784933
1795.000000	8.768849
1794.000000	8.759263
1793.000000	8.759037
1792.000000	8.753226
1791.000000	8.749922
1790.000000	8.746932
1789.000000	8.741707
1788.000000	8.745930
1787.000000	8.754513
1786.000000	8.749973
1785.000000	8.723503
1784.000000	8.719059
1783.000000	8.733558
1782.000000	8.736650
1781.000000	8.731501
1780.000000	8.709990
1779.000000	8.701934
1778.000000	8.697077
1777.000000	8.675677
1776.000000	8.653378
1775.000000	8.648871
1774.000000	8.627308
1773.000000	8.616058
1772.000000	8.587046
1771.000000	8.552564
1770.000000	8.540058
1769.000000	8.515478
1768.000000	8.488362
1767.000000	8.484733
1766.000000	8.471177
1765.000000	8.431103
1764.000000	8.403815
1763.000000	8.403809
1762.000000	8.373744
1761.000000	8.362092
1760.000000	8.350085
1759.000000	8.327482
1758.000000	8.296786
1757.000000	8.282446
1756.000000	8.281082
1755.000000	8.275465
1754.000000	8.240522
1753.000000	8.227404
1752.000000	8.203592
1751.000000	8.163643
1750.000000	8.154364
1749.000000	8.181854
1748.000000	8.144721
1747.000000	8.110025
1746.000000	8.092066
1745.000000	8.061556
1744.000000	8.035473
1743.000000	8.022757
1742.000000	8.001554
1741.000000	7.964685
1740.000000	7.960559
1739.000000	7.958073
1738.000000	7.912857
1737.000000	7.926503
1736.000000	7.918918
1735.000000	7.926399
1734.000000	7.911605
1733.000000	7.900434
1732.000000	7.872278
1731.000000	7.875406
1730.000000	7.871265
1729.000000	7.886151
1728.000000	7.868413
1727.000000	7.900882
1726.000000	7.907939
1725.000000	7.940000
1724.000000	7.955966
1723.000000	8.033660
1722.000000	8.016167
1721.000000	8.036448
1720.000000	8.082336
1719.000000	8.134012
1718.000000	8.144694
1717.000000	8.155513
1716.000000	8.166234
1715.000000	8.184368
1714.000000	8.230832
1713.000000	8.258350
1712.000000	8.271198
1711.000000	8.283180
1710.000000	8.291694
1709.000000	8.285604
1708.000000	8.304701
1707.000000	8.328654
1706.000000	8.342649
1705.000000	8.337529
1704.000000	8.376548
1703.000000	8.353590
1702.000000	8.384699
1701.000000	8.377508
1700.000000	8.375846
1699.000000	8.349116
1698.000000	8.400284
1697.000000	8.377274
1696.000000	8.415435
1695.000000	8.405234
1694.000000	8.403102
1693.000000	8.435397
1692.000000	8.442949
1691.000000	8.476077
1690.000000	8.481344
1689.000000	8.511225
1688.000000	8.548250
1687.000000	8.566833
1686.000000	8.608131
1685.000000	8.640763
1684.000000	8.695387
1683.000000	8.739667
1682.000000	8.745004
1681.000000	8.837178
1680.000000	8.874001
1679.000000	8.925202
1678.000000	8.957064
1677.000000	9.002394
1676.000000	9.060540
1675.000000	9.099926
1674.000000	9.136689
1673.000000	9.211279
1672.000000	9.242711
1671.000000	9.280656
1670.000000	9.316653
1669.000000	9.365779
1668.000000	9.388784
1667.000000	9.428842
1666.000000	9.404291
1665.000000	9.422353
1664.000000	9.451156
1663.000000	9.485881
1662.000000	9.497918
1661.000000	9.547449
1660.000000	9.570057
1659.000000	9.589036
1658.000000	9.618191
1657.000000	9.630371
1656.000000	9.623148
1655.000000	9.645527
1654.000000	9.651050
1653.000000	9.658728
1652.000000	9.671843
1651.000000	9.672007
1650.000000	9.666054
1649.000000	9.650383
1648.000000	9.660495
1647.000000	9.660611
1646.000000	9.646361
1645.000000	9.600582
1644.000000	9.604230
1643.000000	9.614123
1642.000000	9.595016
1641.000000	9.576935
1640.000000	9.576094
1639.000000	9.561779
1638.000000	9.546530
1637.000000	9.536339
1636.000000	9.515139
1635.000000	9.518663
1634.000000	9.528220
1633.000000	9.507213
1632.000000	9.478691
1631.000000	9.460462
1630.000000	9.452492
1629.000000	9.423729
1628.000000	9.406763
1627.000000	9.392859
1626.000000	9.393799
1625.000000	9.381757
1624.000000	9.367674
1623.000000	9.346994
1622.000000	9.336104
1621.000000	9.314802
1620.000000	9.283285
1619.000000	9.261583
1618.000000	9.252866
1617.000000	9.232838
1616.000000	9.214002
1615.000000	9.195636
1614.000000	9.191774
1613.000000	9.164350
1612.000000	9.148123
1611.000000	9.127582
1610.000000	9.098802
1609.000000	9.096676
1608.000000	9.088894
1607.000000	9.062372
1606.000000	9.029648
1605.000000	9.007393
1604.000000	8.984574
1603.000000	8.950759
1602.000000	8.945548
1601.000000	8.938910
1600.000000	8.920625
1599.000000	8.891476
1598.000000	8.865902
1597.000000	8.862983
1596.000000	8.850606
1595.000000	8.836062
1594.000000	8.808621
1593.000000	8.786625
1592.000000	8.792539
1591.000000	8.783679
1590.000000	8.747167
1589.000000	8.720036
1588.000000	8.722770
1587.000000	8.709194
1586.000000	8.699440
1585.000000	8.681881
1584.000000	8.646998
1583.000000	8.637408
1582.000000	8.621699
1581.000000	8.608905
1580.000000	8.598915
1579.000000	8.584944
1578.000000	8.581696
1577.000000	8.571591
1576.000000	8.544591
1575.000000	8.527865
1574.000000	8.518665
1573.000000	8.509546
1572.000000	8.495882
1571.000000	8.483208
1570.000000	8.467917
1569.000000	8.442366
1568.000000	8.438593
1567.000000	8.419954
1566.000000	8.403254
1565.000000	8.395812
1564.000000	8.385711
1563.000000	8.373629
1562.000000	8.368320
1561.000000	8.359495
1560.000000	8.354608
1559.000000	8.327082
1558.000000	8.307408
1557.000000	8.294596
1556.000000	8.297093
1555.000000	8.284460
1554.000000	8.268326
1553.000000	8.248558
1552.000000	8.248713
1551.000000	8.231130
1550.000000	8.211970
1549.000000	8.199392
1548.000000	8.194854
1547.000000	8.168460
1546.000000	8.133584
1545.000000	8.105559
1544.000000	8.073360
1543.000000	8.055919
1542.000000	8.041649
1541.000000	8.003150
1540.000000	7.979076
1539.000000	7.945581
1538.000000	7.914938
1537.000000	7.898293
1536.000000	7.866132
1535.000000	7.827266
1534.000000	7.800211
1533.000000	7.787903
1532.000000	7.756672
1531.000000	7.729280
1530.000000	7.693199
1529.000000	7.670272
1528.000000	7.634547
1527.000000	7.625618
1526.000000	7.596711
1525.000000	7.574595
1524.000000	7.558265
1523.000000	7.549968
1522.000000	7.533692
1521.000000	7.519611
1520.000000	7.502056
1519.000000	7.487209
1518.000000	7.481729
1517.000000	7.476179
1516.000000	7.461963
1515.000000	7.443107
1514.000000	7.436815
1513.000000	7.444390
1512.000000	7.434800
1511.000000	7.414500
1510.000000	7.407264
1509.000000	7.400601
1508.000000	7.386207
1507.000000	7.380515
1506.000000	7.383971
1505.000000	7.379683
1504.000000	7.397588
1503.000000	7.398796
1502.000000	7.418341
1501.000000	7.420560
1500.000000	7.439503
1499.000000	7.442719
1498.000000	7.428386
1497.000000	7.425744
1496.000000	7.417108
1495.000000	7.411760
1494.000000	7.422195
1493.000000	7.412750
1492.000000	7.407829
1491.000000	7.405480
1490.000000	7.420552
1489.000000	7.447722
1488.000000	7.439635
1487.000000	7.452995
1486.000000	7.476226
1485.000000	7.481917
1484.000000	7.499052
1483.000000	7.510311
1482.000000	7.472553
1481.000000	7.524763
1480.000000	7.552532
1479.000000	7.542619
1478.000000	7.543309
1477.000000	7.547893
1476.000000	7.561859
1475.000000	7.562310
1474.000000	7.568411
1473.000000	7.580910
1472.000000	7.594429
1471.000000	7.587313
1470.000000	7.600546
1469.000000	7.603469
1468.000000	7.623194
1467.000000	7.611372
1466.000000	7.630970
1465.000000	7.659948
1464.000000	7.680280
1463.000000	7.672522
1462.000000	7.699568
1461.000000	7.734361
1460.000000	7.731103
1459.000000	7.752530
1458.000000	7.743308
1457.000000	7.744680
1456.000000	7.792853
1455.000000	7.803948
1454.000000	7.799041
1453.000000	7.808560
1452.000000	7.827717
1451.000000	7.866125
1450.000000	7.870312
1449.000000	7.878351
1448.000000	7.873494
1447.000000	7.910982
1446.000000	7.938452
1445.000000	7.963685
1444.000000	7.970797
1443.000000	7.972240
1442.000000	7.994564
1441.000000	7.992034
1440.000000	8.017673
1439.000000	8.041518
1438.000000	8.064447
1437.000000	8.113967
1436.000000	8.158852
1435.000000	8.177105
1434.000000	8.190315
1433.000000	8.217188
1432.000000	8.244668
1431.000000	8.269665
1430.000000	8.312871
1429.000000	8.334095
1428.000000	8.360263
1427.000000	8.395874
1426.000000	8.434157
1425.000000	8.476029
1424.000000	8.517169
1423.000000	8.549383
1422.000000	8.591734
1421.000000	8.631773
1420.000000	8.669513
1419.000000	8.714370
1418.000000	8.765217
1417.000000	8.790827
1416.000000	8.843727
1415.000000	8.910247
1414.000000	8.960221
1413.000000	8.995740
1412.000000	9.049132
1411.000000	9.114263
1410.000000	9.161979
1409.000000	9.198384
1408.000000	9.261035
1407.000000	9.324773
1406.000000	9.364456
1405.000000	9.389822
1404.000000	9.434186
1403.000000	9.490585
1402.000000	9.545475
1401.000000	9.603130
1400.000000	9.659674
1399.000000	9.704619
1398.000000	9.749950
1397.000000	9.785940
1396.000000	9.818086
1395.000000	9.849315
1394.000000	9.892236
1393.000000	9.932574
1392.000000	9.966306
1391.000000	9.998239
1390.000000	10.026752
1389.000000	10.041264
1388.000000	10.062728
1387.000000	10.091534
1386.000000	10.110127
1385.000000	10.148704
1384.000000	10.195699
1383.000000	10.216375
1382.000000	10.236428
1381.000000	10.268166
1380.000000	10.287069
1379.000000	10.282047
1378.000000	10.286287
1377.000000	10.314854
1376.000000	10.321945
1375.000000	10.323904
1374.000000	10.347742
1373.000000	10.373068
1372.000000	10.373151
1371.000000	10.366367
1370.000000	10.381575
1369.000000	10.382153
1368.000000	10.374899
1367.000000	10.391491
1366.000000	10.395610
1365.000000	10.386954
1364.000000	10.390344
1363.000000	10.421567
1362.000000	10.462141
1361.000000	10.474312
1360.000000	10.477850
1359.000000	10.469341
1358.000000	10.468173
1357.000000	10.490482
1356.000000	10.522745
1355.000000	10.535627
1354.000000	10.524786
1353.000000	10.510537
1352.000000	10.521057
1351.000000	10.557097
1350.000000	10.551201
1349.000000	10.544567
1348.000000	10.556810
1347.000000	10.546778
1346.000000	10.565198
1345.000000	10.587522
1344.000000	10.593330
1343.000000	10.599781
1342.000000	10.612276
1341.000000	10.632585
1340.000000	10.622189
1339.000000	10.617210
1338.000000	10.620004
1337.000000	10.623468
1336.000000	10.624957
1335.000000	10.647595
1334.000000	10.672512
1333.000000	10.666826
1332.000000	10.663947
1331.000000	10.652493
1330.000000	10.666218
1329.000000	10.693461
1328.000000	10.683159
1327.000000	10.667709
1326.000000	10.691097
1325.000000	10.698575
1324.000000	10.692215
1323.000000	10.664357
1322.000000	10.674450
1321.000000	10.695963
1320.000000	10.702551
1319.000000	10.705363
1318.000000	10.691128
1317.000000	10.709447
1316.000000	10.706833
1315.000000	10.675995
1314.000000	10.690166
1313.000000	10.695134
1312.000000	10.677584
1311.000000	10.658739
1310.000000	10.670324
1309.000000	10.682702
1308.000000	10.663714
1307.000000	10.668668
1306.000000	10.674401
1305.000000	10.661573
1304.000000	10.640231
1303.000000	10.637724
1302.000000	10.643670
1301.000000	10.622809
1300.000000	10.645200
1299.000000	10.651998
1298.000000	10.643457
1297.000000	10.652408
1296.000000	10.629885
1295.000000	10.610929
1294.000000	10.625000
1293.000000	10.624502
1292.000000	10.611920
1291.000000	10.596647
1290.000000	10.602979
1289.000000	10.614125
1288.000000	10.556761
1287.000000	10.562277
1286.000000	10.565722
1285.000000	10.562988
1284.000000	10.569239
1283.000000	10.564947
1282.000000	10.561953
1281.000000	10.550336
1280.000000	10.555549
1279.000000	10.565316
1278.000000	10.525846
1277.000000	10.517030
1276.000000	10.513758
1275.000000	10.516465
1274.000000	10.522775
1273.000000	10.538717
1272.000000	10.539688
1271.000000	10.504839
1270.000000	10.515883
1269.000000	10.517903
1268.000000	10.557862
1267.000000	10.539951
1266.000000	10.551196
1265.000000	10.519653
1264.000000	10.528005
1263.000000	10.513834
1262.000000	10.540563
1261.000000	10.560380
1260.000000	10.542552
1259.000000	10.518492
1258.000000	10.496043
1257.000000	10.487734
1256.000000	10.507885
1255.000000	10.492945
1254.000000	10.527446
1253.000000	10.527472
1252.000000	10.499276
1251.000000	10.491292
1250.000000	10.476730
1249.000000	10.482647
1248.000000	10.474131
1247.000000	10.474923
1246.000000	10.462567
1245.000000	10.475809
1244.000000	10.464074
1243.000000	10.413551
1242.000000	10.424836
1241.000000	10.432208
1240.000000	10.426912
1239.000000	10.422270
1238.000000	10.396724
1237.000000	10.364286
1236.000000	10.365976
1235.000000	10.383289
1234.000000	10.350114
1233.000000	10.342996
1232.000000	10.346973
1231.000000	10.351221
1230.000000	10.306158
1229.000000	10.303248
1228.000000	10.307181
1227.000000	10.325603
1226.000000	10.329671
1225.000000	10.322815
1224.000000	10.310055
1223.000000	10.256211
1222.000000	10.271721
1221.000000	10.269520
1220.000000	10.248505
1219.000000	10.244204
1218.000000	10.236189
1217.000000	10.237086
1216.000000	10.254216
1215.000000	10.259599
1214.000000	10.249342
1213.000000	10.213915
1212.000000	10.197073
1211.000000	10.210238
1210.000000	10.197312
1209.000000	10.183756
1208.000000	10.179665
1207.000000	10.176704
1206.000000	10.167400
1205.000000	10.152845
1204.000000	10.128853
1203.000000	10.111704
1202.000000	10.093313
1201.000000	10.099181
1200.000000	10.091835
1199.000000	10.069190
1198.000000	10.043013
1197.000000	10.027192
1196.000000	10.045011
1195.000000	10.032746
1194.000000	10.019194
1193.000000	10.017417
1192.000000	10.009996
1191.000000	9.995931
1190.000000	9.964254
1189.000000	9.913844
1188.000000	9.910458
1187.000000	9.927728
1186.000000	9.917513
1185.000000	9.908908
1184.000000	9.904752
1183.000000	9.901605
1182.000000	9.918996
1181.000000	9.933953
1180.000000	9.944189
1179.000000	9.953758
1178.000000	9.958071
1177.000000	9.971820
1176.000000	9.989468
1175.000000	10.004459
1174.000000	10.022940
1173.000000	10.031019
1172.000000	10.032375
1171.000000	10.049862
1170.000000	10.064071
1169.000000	10.056325
1168.000000	10.065014
1167.000000	10.093396
1166.000000	10.107269
1165.000000	10.115550
1164.000000	10.131118
1163.000000	10.144389
1162.000000	10.138172
1161.000000	10.130277
1160.000000	10.139974
1159.000000	10.156967
1158.000000	10.190519
1157.000000	10.210342
1156.000000	10.217418
1155.000000	10.232184
1154.000000	10.231214
1153.000000	10.248164
1152.000000	10.266774
1151.000000	10.274903
1150.000000	10.287817
1149.000000	10.295189
1148.000000	10.305189
1147.000000	10.317315
1146.000000	10.334525
1145.000000	10.332706
1144.000000	10.310267
1143.000000	10.311006
1142.000000	10.323629
1141.000000	10.338154
1140.000000	10.332394
1139.000000	10.333057
1138.000000	10.349520
1137.000000	10.367505
1136.000000	10.379354
1135.000000	10.393827
1134.000000	10.403456
1133.000000	10.395541
1132.000000	10.403086
1131.000000	10.419055
1130.000000	10.421860
1129.000000	10.395222
1128.000000	10.389135
1127.000000	10.397707
1126.000000	10.396323
1125.000000	10.398287
1124.000000	10.409560
1123.000000	10.407964
1122.000000	10.411499
1121.000000	10.419617
1120.000000	10.418171
1119.000000	10.429923
1118.000000	10.433715
1117.000000	10.440458
1116.000000	10.442057
1115.000000	10.436844
1114.000000	10.413310
1113.000000	10.425933
1112.000000	10.415355
1111.000000	10.408583
1110.000000	10.424466
1109.000000	10.415901
1108.000000	10.409930
1107.000000	10.378343
1106.000000	10.366200
1105.000000	10.379054
1104.000000	10.387613
1103.000000	10.385174
1102.000000	10.403204
1101.000000	10.394929
1100.000000	10.389215
1099.000000	10.394821
1098.000000	10.398502
1097.000000	10.361130
1096.000000	10.352293
1095.000000	10.356889
1094.000000	10.371407
1093.000000	10.371120
1092.000000	10.369350
1091.000000	10.369122
1090.000000	10.345499
1089.000000	10.342051
1088.000000	10.345079
1087.000000	10.346260
1086.000000	10.361303
1085.000000	10.353650
1084.000000	10.365992
1083.000000	10.338820
1082.000000	10.328044
1081.000000	10.325505
1080.000000	10.323375
1079.000000	10.327210
1078.000000	10.341984
1077.000000	10.346704
1076.000000	10.328646
1075.000000	10.305008
1074.000000	10.316415
1073.000000	10.298868
1072.000000	10.305796
1071.000000	10.304282
1070.000000	10.316655
1069.000000	10.294754
1068.000000	10.277804
1067.000000	10.285274
1066.000000	10.293639
1065.000000	10.315069
1064.000000	10.304998
1063.000000	10.301080
1062.000000	10.274659
1061.000000	10.275156
1060.000000	10.265188
1059.000000	10.269966
1058.000000	10.275236
1057.000000	10.278412
1056.000000	10.267643
1055.000000	10.250655
1054.000000	10.264182
1053.000000	10.268976
1052.000000	10.262675
1051.000000	10.233045
1050.000000	10.234194
1049.000000	10.256547
1048.000000	10.229083
1047.000000	10.252152
1046.000000	10.217170
1045.000000	10.212292
1044.000000	10.217733
1043.000000	10.221090
1042.000000	10.202154
1041.000000	10.196348
1040.000000	10.212275
1039.000000	10.197251
1038.000000	10.191905
1037.000000	10.198325
1036.000000	10.209325
1035.000000	10.220784
1034.000000	10.202047
1033.000000	10.176870
1032.000000	10.190991
1031.000000	10.201956
1030.000000	10.173514
1029.000000	10.161305
1028.000000	10.176120
1027.000000	10.193634
1026.000000	10.182439
1025.000000	10.192003
1024.000000	10.186067
1023.000000	10.165480
1022.000000	10.168203
1021.000000	10.183121
1020.000000	10.154634
1019.000000	10.166362
1018.000000	10.180216
1017.000000	10.189474
1016.000000	10.167871
1015.000000	10.152272
1014.000000	10.167280
1013.000000	10.154042
1012.000000	10.141603
1011.000000	10.155593
1010.000000	10.173362
1009.000000	10.182472
1008.000000	10.174122
1007.000000	10.168888
1006.000000	10.175806
1005.000000	10.195219
1004.000000	10.207566
1003.000000	10.204652
1002.000000	10.217751
1001.000000	10.216551
1000.000000	10.219761
999.000000	10.219941
998.000000	10.229754
997.000000	10.224767
996.000000	10.226737
995.000000	10.227398
994.000000	10.218416
993.000000	10.224901
992.000000	10.231074
991.000000	10.226089
990.000000	10.224198
989.000000	10.225106
988.000000	10.214082
987.000000	10.221719
986.000000	10.227506
985.000000	10.237007
984.000000	10.236315
983.000000	10.210082
982.000000	10.222224
981.000000	10.225654
980.000000	10.211139
979.000000	10.210134
978.000000	10.212101
977.000000	10.215548
976.000000	10.213398
975.000000	10.215286
974.000000	10.221791
973.000000	10.209661
972.000000	10.212148
971.000000	10.216604
970.000000	10.213245
969.000000	10.203863
968.000000	10.209376
967.000000	10.205652
966.000000	10.198449
965.000000	10.194847
964.000000	10.204527
963.000000	10.214283
962.000000	10.198396
961.000000	10.190849
960.000000	10.185950
959.000000	10.187880
958.000000	10.186464
957.000000	10.188676
956.000000	10.199048
955.000000	10.193851
954.000000	10.198861
953.000000	10.196329
952.000000	10.179404
951.000000	10.193100
950.000000	10.191083
949.000000	10.189903
948.000000	10.198623
947.000000	10.177246
946.000000	10.171690
945.000000	10.176294
944.000000	10.185072
943.000000	10.167087
942.000000	10.160414
941.000000	10.161219
940.000000	10.152687
939.000000	10.158339
938.000000	10.150953
937.000000	10.155854
936.000000	10.152321
935.000000	10.139458
934.000000	10.139846
933.000000	10.137933
932.000000	10.130674
931.000000	10.118359
930.000000	10.133871
929.000000	10.142933
928.000000	10.118652
927.000000	10.119790
926.000000	10.107838
925.000000	10.107008
924.000000	10.097230
923.000000	10.105569
922.000000	10.086322
921.000000	10.083327
920.000000	10.078270
919.000000	10.079385
918.000000	10.085024
917.000000	10.072899
916.000000	10.057581
915.000000	10.095227
914.000000	10.089338
913.000000	10.051092
912.000000	10.053153
911.000000	10.053727
910.000000	10.077489
909.000000	10.094277
908.000000	10.079005
907.000000	10.030633
906.000000	10.053615
905.000000	10.076284
904.000000	10.073820
903.000000	10.052574
902.000000	10.059342
901.000000	10.043395
900.000000	10.047082
899.000000	10.066222
898.000000	10.056347
897.000000	10.044974
896.000000	10.035735
895.000000	10.071446
894.000000	10.043066
893.000000	10.022316
892.000000	9.999945
891.000000	9.984842
890.000000	10.014617
889.000000	10.024421
888.000000	10.014389
887.000000	10.052700
886.000000	10.126551
885.000000	10.084069
884.000000	10.069611
883.000000	10.010405
882.000000	10.024794
881.000000	10.027221
880.000000	9.953260
879.000000	10.017691
878.000000	9.983826
877.000000	9.969896
876.000000	10.062428
875.000000	10.063814
874.000000	10.007818
873.000000	10.020650
872.000000	9.971213
871.000000	9.921192
870.000000	9.941717
869.000000	9.990561
868.000000	9.987538
867.000000	9.968418
866.000000	10.047052
865.000000	10.141266
864.000000	9.960270
863.000000	9.991142
862.000000	10.032589
861.000000	9.937316
860.000000	9.978925
859.000000	10.186684
858.000000	10.122534
857.000000	10.142132
856.000000	10.055308
855.000000	10.180811
854.000000	10.163347
853.000000	10.163931
852.000000	10.071020
851.000000	10.083796
850.000000	10.069477
849.000000	10.089917
848.000000	10.094090
847.000000	10.072942
846.000000	10.084437
845.000000	10.058832
844.000000	10.069982
843.000000	10.075766
842.000000	10.109854
841.000000	10.034762
840.000000	10.060362
839.000000	10.010023
838.000000	10.029576
837.000000	10.068611
836.000000	10.003536
835.000000	10.029513
834.000000	9.963350
833.000000	9.966276
832.000000	9.979978
831.000000	9.968008
830.000000	10.009270
829.000000	9.905321
828.000000	9.892114
827.000000	9.880509
826.000000	9.928849
825.000000	9.866179
824.000000	9.879283
823.000000	9.881108
822.000000	9.891424
821.000000	9.873439
820.000000	9.810673
819.000000	9.829917
818.000000	9.859198
817.000000	9.824028
816.000000	9.833498
815.000000	9.808649
814.000000	9.859927
813.000000	9.754829
812.000000	9.780852
811.000000	9.794129
810.000000	9.797284
809.000000	9.808093
808.000000	9.785717
807.000000	9.811774
806.000000	9.778150
805.000000	9.753427
804.000000	9.732415
803.000000	9.750930
802.000000	9.730121
801.000000	9.729588
800.000000	9.722226
799.000000	9.688260
798.000000	9.703212
797.000000	9.693225
796.000000	9.647370
795.000000	9.683499
794.000000	9.666938
793.000000	9.667642
792.000000	9.643595
791.000000	9.663555
790.000000	9.641773
789.000000	9.644570
788.000000	9.627325
787.000000	9.599190
786.000000	9.593482
785.000000	9.612943
784.000000	9.603059
783.000000	9.593626
782.000000	9.559436
781.000000	9.548148
780.000000	9.544490
779.000000	9.558085
778.000000	9.534062
777.000000	9.507113
776.000000	9.509507
775.000000	9.473984
774.000000	9.503066
773.000000	9.498847
772.000000	9.456363
771.000000	9.462274
770.000000	9.436471
769.000000	9.432232
768.000000	9.411916
767.000000	9.423420
766.000000	9.400629
765.000000	9.423358
764.000000	9.403633
763.000000	9.379861
762.000000	9.386821
761.000000	9.369048
760.000000	9.344293
759.000000	9.307148
758.000000	9.317048
757.000000	9.305156
756.000000	9.299202
755.000000	9.281169
754.000000	9.281567
753.000000	9.278437
752.000000	9.266781
751.000000	9.241986
750.000000	9.246036
749.000000	9.225445
748.000000	9.199027
747.000000	9.209998
746.000000	9.197464
745.000000	9.196227
744.000000	9.190436
743.000000	9.148210
742.000000	9.111018
741.000000	9.125336
740.000000	9.110200
739.000000	9.092104
738.000000	9.081838
737.000000	9.073625
736.000000	9.059759
735.000000	9.057901
734.000000	9.038907
733.000000	9.033795
732.000000	9.023070
731.000000	9.006179
730.000000	8.978588
729.000000	8.973221
728.000000	8.968135
727.000000	8.960231
726.000000	8.953525
725.000000	8.927842
724.000000	8.909778
723.000000	8.908984
722.000000	8.906731
721.000000	8.894453
720.000000	8.871243
719.000000	8.837946
718.000000	8.820016
717.000000	8.817767
716.000000	8.815267
715.000000	8.794542
714.000000	8.777866
713.000000	8.762671
712.000000	8.755719
711.000000	8.740175
710.000000	8.721462
709.000000	8.709323
708.000000	8.701316
707.000000	8.680797
706.000000	8.660982
705.000000	8.645591
704.000000	8.643384
703.000000	8.626785
702.000000	8.589489
701.000000	8.573246
700.000000	8.565492
699.000000	8.550908
698.000000	8.534847
697.000000	8.536480
696.000000	8.523766
695.000000	8.496478
694.000000	8.476547
693.000000	8.453990
692.000000	8.459074
691.000000	8.447227
690.000000	8.409921
689.000000	8.383715
688.000000	8.353642
687.000000	8.341448
686.000000	8.328592
685.000000	8.301790
684.000000	8.287022
683.000000	8.269866
682.000000	8.249237
681.000000	8.228995
680.000000	8.211140
679.000000	8.196467
678.000000	8.181925
677.000000	8.167436
676.000000	8.136720
675.000000	8.112739
674.000000	8.096329
673.000000	8.078852
672.000000	8.069233
671.000000	8.062681
670.000000	8.031715
669.000000	8.011228
668.000000	7.989023
667.000000	7.976054
666.000000	7.963383
665.000000	7.946771
664.000000	7.916035
663.000000	7.900178
662.000000	7.889066
661.000000	7.869939
660.000000	7.844957
659.000000	7.824542
658.000000	7.794265
657.000000	7.784633
656.000000	7.758856
655.000000	7.744972
654.000000	7.719787
653.000000	7.699423
652.000000	7.687934
651.000000	7.662979
650.000000	7.642661
649.000000	7.628157
648.000000	7.591930
647.000000	7.581168
646.000000	7.557529
645.000000	7.538153
644.000000	7.514186
643.000000	7.503460
642.000000	7.475405
641.000000	7.449927
640.000000	7.423473
639.000000	7.406912
638.000000	7.400434
637.000000	7.371624
636.000000	7.354145
635.000000	7.324126
634.000000	7.284000
633.000000	7.267086
632.000000	7.252303
631.000000	7.230973
630.000000	7.201531
629.000000	7.174858
628.000000	7.154254
627.000000	7.130716
626.000000	7.107569
625.000000	7.085917
624.000000	7.062680
623.000000	7.049278
622.000000	7.017163
621.000000	6.987150
620.000000	6.967693
619.000000	6.954916
618.000000	6.915314
617.000000	6.891140
616.000000	6.868577
615.000000	6.842739
614.000000	6.810136
613.000000	6.792254
612.000000	6.773604
611.000000	6.743638
610.000000	6.709030
609.000000	6.685388
608.000000	6.672926
607.000000	6.638683
606.000000	6.614053
605.000000	6.584953
604.000000	6.544197
603.000000	6.536626
602.000000	6.500488
601.000000	6.486577
600.000000	6.472189
599.000000	6.432987
598.000000	6.398594
597.000000	6.376112
596.000000	6.346936
595.000000	6.322673
594.000000	6.291234
593.000000	6.249848
592.000000	6.224537
591.000000	6.209998
590.000000	6.178037
589.000000	6.154718
588.000000	6.125226
587.000000	6.081666
586.000000	6.065260
585.000000	6.035906
584.000000	6.000455
583.000000	5.974627
582.000000	5.954761
581.000000	5.913201
580.000000	5.896557
579.000000	5.855745
578.000000	5.822943
577.000000	5.795301
576.000000	5.771672
575.000000	5.743255
574.000000	5.698465
573.000000	5.666272
572.000000	5.638811
571.000000	5.623526
570.000000	5.583247
569.000000	5.550131
568.000000	5.510577
567.000000	5.479056
566.000000	5.458148
565.000000	5.426044
564.000000	5.390225
563.000000	5.362301
562.000000	5.326813
561.000000	5.315919
560.000000	5.278187
559.000000	5.255283
558.000000	5.223889
557.000000	5.192419
556.000000	5.160794
555.000000	5.125446
554.000000	5.085443
553.000000	5.054264
552.000000	5.019993
551.000000	4.992634
550.000000	4.948823
549.000000	4.917518
548.000000	4.887100
547.000000	4.857146
546.000000	4.818105
545.000000	4.784465
544.000000	4.747365
543.000000	4.718383
542.000000	4.677267
541.000000	4.643787
540.000000	4.606952
539.000000	4.576895
538.000000	4.542119
537.000000	4.505282
536.000000	4.463687
535.000000	4.433791
534.000000	4.392274
533.000000	4.362873
532.000000	4.328690
531.000000	4.287353
530.000000	4.249014
529.000000	4.219419
528.000000	4.179110
527.000000	4.145159
526.000000	4.111860
525.000000	4.070887
524.000000	4.030051
523.000000	3.995194
522.000000	3.961009
521.000000	3.931177
520.000000	3.888641
519.000000	3.854394
518.000000	3.810779
517.000000	3.776190
516.000000	3.740798
515.000000	3.709156
514.000000	3.672780
513.000000	3.634857
512.000000	3.595653
511.000000	3.560404
510.000000	3.526590
509.000000	3.490845
508.000000	3.455265
507.000000	3.415083
506.000000	3.378608
505.000000	3.347532
504.000000	3.318791
503.000000	3.286921
502.000000	3.247889
501.000000	3.209603
500.000000	3.172202
499.000000	3.137457
498.000000	3.102497
497.000000	3.076381
496.000000	3.041321
495.000000	3.008085
494.000000	2.968023
493.000000	2.939960
492.000000	2.915903
491.000000	2.881545
490.000000	2.851241
489.000000	2.818082
488.000000	2.785656
487.000000	2.750505
486.000000	2.724155
485.000000	2.695729
484.000000	2.663390
483.000000	2.639743
482.000000	2.615641
481.000000	2.575532
480.000000	2.541340
479.000000	2.507683
478.000000	2.466843
477.000000	2.430534
476.000000	2.395935
475.000000	2.364305
474.000000	2.337585
473.000000	2.307338
472.000000	2.272408
471.000000	2.239585
470.000000	2.212140
469.000000	2.180443
468.000000	2.148444
467.000000	2.121809
466.000000	2.090993
465.000000	2.058756
464.000000	2.025454
463.000000	1.992335
462.000000	1.964307
461.000000	1.935835
460.000000	1.905224
459.000000	1.876081
458.000000	1.844980
457.000000	1.811866
456.000000	1.782649
455.000000	1.761245
454.000000	1.732643
453.000000	1.696393
452.000000	1.666418
451.000000	1.640936
450.000000	1.610253
449.000000	1.580489
448.000000	1.553764
447.000000	1.525051
446.000000	1.498911
445.000000	1.473096
444.000000	1.451324
443.000000	1.423429
442.000000	1.394237
441.000000	1.368065
440.000000	1.339664
439.000000	1.312430
438.000000	1.289720
437.000000	1.265869
436.000000	1.243950
435.000000	1.220146
434.000000	1.194194
433.000000	1.171029
432.000000	1.154774
431.000000	1.137135
430.000000	1.113284
429.000000	1.085152
428.000000	1.064308
427.000000	1.045677
426.000000	1.022308
425.000000	0.998463
424.000000	0.975716
423.000000	0.951440
422.000000	0.937984
421.000000	0.919948
420.000000	0.899026
419.000000	0.877873
418.000000	0.858538
417.000000	0.831889
416.000000	0.818482
415.000000	0.799435
414.000000	0.784110
413.000000	0.764286
412.000000	0.742759
411.000000	0.719856
410.000000	0.702714
409.000000	0.686742
408.000000	0.667573
407.000000	0.652284
406.000000	0.636220
405.000000	0.617616
404.000000	0.603242
403.000000	0.589582
402.000000	0.573931
401.000000	0.558148
400.000000	0.541419
399.000000	0.530258
398.000000	0.516591
397.000000	0.505287
396.000000	0.498557
395.000000	0.483387
394.000000	0.468975
393.000000	0.459440
392.000000	0.443519
391.000000	0.435816
390.000000	0.427720
389.000000	0.416393
388.000000	0.403198
387.000000	0.393761
386.000000	0.385189
385.000000	0.371054
384.000000	0.371440
383.000000	0.360250
382.000000	0.346385
381.000000	0.334343
380.000000	0.328716
379.000000	0.319994
378.000000	0.310835
377.000000	0.319547
376.000000	0.313895
375.000000	0.314990
374.000000	0.307666
373.000000	0.297139
372.000000	0.290948
371.000000	0.275666
370.000000	0.269279
369.000000	0.264410
368.000000	0.257266
367.000000	0.248536
366.000000	0.239732
365.000000	0.236104
364.000000	0.227894
363.000000	0.220507
362.000000	0.217793
361.000000	0.214849
360.000000	0.210774
359.000000	0.204970
358.000000	0.200111
357.000000	0.200503
356.000000	0.195249
355.000000	0.186189
354.000000	0.176178
353.000000	0.170159
352.000000	0.169076
351.000000	0.172502
350.000000	0.163784
349.000000	0.155701
348.000000	0.158081
347.000000	0.156496
346.000000	0.160239
345.000000	0.156068
344.000000	0.156282
343.000000	0.136715
342.000000	0.140176
341.000000	0.134133
340.000000	0.136148
339.000000	0.136276
338.000000	0.141850
337.000000	0.128978
336.000000	0.128115
335.000000	0.124578
334.000000	0.123626
333.000000	0.120404
332.000000	0.116676
331.000000	0.113609
330.000000	0.112496
329.000000	0.109189
328.000000	0.110219
327.000000	0.117918
326.000000	0.106940
325.000000	0.100878
324.000000	0.109653
323.000000	0.112810
322.000000	0.090331
321.000000	0.096092
320.000000	0.113962
319.000000	0.103073
318.000000	0.116404
317.000000	0.116940
316.000000	0.119617
315.000000	0.122873
314.000000	0.121280
313.000000	0.116554
312.000000	0.114428
311.000000	0.116154
310.000000	0.113215
309.000000	0.115080
308.000000	0.108930
307.000000	0.111924
306.000000	0.109267
305.000000	0.109852
304.000000	0.107063
303.000000	0.111148
302.000000	0.116393
301.000000	0.107848
300.000000	0.106020
299.000000	0.109843
298.000000	0.110208
297.000000	0.109951
296.000000	0.111728
295.000000	0.105486
294.000000	0.103629
293.000000	0.106961
292.000000	0.108778
291.000000	0.105206
290.000000	0.108024
289.000000	0.098853
288.000000	0.106558
287.000000	0.105118
286.000000	0.102823
285.000000	0.101691
284.000000	0.106420
283.000000	0.099865
282.000000	0.109632
281.000000	0.111614
280.000000	0.109289
279.000000	0.113509
278.000000	0.115918
277.000000	0.110477
276.000000	0.123962
275.000000	0.122415
274.000000	0.126318
273.000000	0.127839
272.000000	0.129309
271.000000	0.131683
270.000000	0.136332
269.000000	0.128164
268.000000	0.139401
267.000000	0.151428
266.000000	0.148879
265.000000	0.153372
264.000000	0.155506
263.000000	0.158745
262.000000	0.159851
261.000000	0.157053
260.000000	0.161530
259.000000	0.167039
258.000000	0.171625
257.000000	0.169284
256.000000	0.166900
255.000000	0.178624
254.000000	0.187622
253.000000	0.185445
252.000000	0.191348
251.000000	0.186301
250.000000	0.188292
249.000000	0.187421
248.000000	0.188089
247.000000	0.186158
246.000000	0.182481
245.000000	0.177172
244.000000	0.171676
243.000000	0.171995
242.000000	0.170406
241.000000	0.153166
240.000000	0.147388
239.000000	0.133729
238.000000	0.125987
237.000000	0.110579
236.000000	0.101413
235.000000	0.097261
234.000000	0.091849
233.000000	0.084433
232.000000	0.074148
231.000000	0.073185
230.000000	0.068894
229.000000	0.060457
228.000000	0.053559
227.000000	0.056499
226.000000	0.059666
225.000000	0.046706
224.000000	0.038380
223.000000	0.034922
222.000000	0.026109
221.000000	0.020897
220.000000	0.030300
219.000000	0.039897
218.000000	0.036411
217.000000	0.030404
216.000000	0.029740
215.000000	0.029482
214.000000	0.021445
213.000000	0.020883
212.000000	0.011121
211.000000	-0.005022
210.000000	0.006795
209.000000	0.018169
208.000000	0.018681
207.000000	0.015634
206.000000	0.010676
205.000000	-0.003782
204.000000	-0.004135
203.000000	-0.005290
202.000000	-0.020654
201.000000	-0.026107
200.000000	-0.051799
