PE UV       SUBTECH     SPECTRUM    ASCII       PEDS        4.00        
   -1
TDms499172.Sample.asc
18/03/22
11:52:14.00
18/03/22
11:52:14.00
Administrator

200.000000
1
Lambda 750
750N8071901
PerkinElmer UV WinLab 6.0.4.0738 / 1.61.00 Lambda 900

0
0
3350/servo 860.8/2
0
0
UV/VIS
1
1
1
CommonBeamDepol,150mm sphere / downward view
0
0
0
0
Program
Program
3350/servo 860.8/2
3350/0.2 860.8/0.2
3350/0.2 860.8/0.2
0
1
 
 
 
0
 
860.8
319.2
860.8
Front
100
on
 
 
0
0
0
 
0
 
 
 
0
 
 
0
0
0
0
0
 
 
 
 
0
0


0
0
#HDR
-1
-1
#GR
nm
%T
1.0
0.0
2350.000000
-1.000000
2151
8
12.438710
-0.018459
#DATA
2350.000000	5.420133
2349.000000	5.374455
2348.000000	5.404808
2347.000000	6.039562
2346.000000	5.856176
2345.000000	5.563285
2344.000000	5.419931
2343.000000	5.514938
2342.000000	5.600875
2341.000000	5.416806
2340.000000	5.999346
2339.000000	5.845675
2338.000000	6.116258
2337.000000	6.182202
2336.000000	6.073489
2335.000000	6.314737
2334.000000	6.263571
2333.000000	6.013062
2332.000000	6.525735
2331.000000	6.305645
2330.000000	5.990690
2329.000000	6.034299
2328.000000	6.125669
2327.000000	5.874619
2326.000000	6.035459
2325.000000	6.181939
2324.000000	6.150787
2323.000000	6.185382
2322.000000	5.881877
2321.000000	5.982251
2320.000000	5.797338
2319.000000	5.786742
2318.000000	5.855846
2317.000000	5.954552
2316.000000	5.925847
2315.000000	5.937116
2314.000000	5.576196
2313.000000	5.660963
2312.000000	5.750948
2311.000000	5.651518
2310.000000	5.777426
2309.000000	5.878343
2308.000000	5.782059
2307.000000	5.698877
2306.000000	5.614249
2305.000000	5.865006
2304.000000	5.782921
2303.000000	5.531083
2302.000000	5.626053
2301.000000	5.515850
2300.000000	5.293068
2299.000000	5.339094
2298.000000	5.371637
2297.000000	5.311876
2296.000000	5.495024
2295.000000	5.428894
2294.000000	5.611854
2293.000000	5.451942
2292.000000	5.401376
2291.000000	5.377373
2290.000000	5.305142
2289.000000	5.319425
2288.000000	5.487287
2287.000000	5.516833
2286.000000	5.538818
2285.000000	5.397834
2284.000000	5.158618
2283.000000	5.254490
2282.000000	5.262730
2281.000000	5.311491
2280.000000	5.167996
2279.000000	5.381616
2278.000000	5.491085
2277.000000	5.300991
2276.000000	5.230856
2275.000000	5.432945
2274.000000	5.530630
2273.000000	5.505692
2272.000000	5.566547
2271.000000	5.589168
2270.000000	5.637783
2269.000000	5.526631
2268.000000	5.537117
2267.000000	5.519419
2266.000000	5.492067
2265.000000	5.595442
2264.000000	5.626318
2263.000000	5.711396
2262.000000	5.749546
2261.000000	5.808711
2260.000000	5.897348
2259.000000	6.043491
2258.000000	6.255307
2257.000000	6.248028
2256.000000	6.215382
2255.000000	6.224078
2254.000000	6.168649
2253.000000	6.225540
2252.000000	6.415449
2251.000000	6.487857
2250.000000	6.504403
2249.000000	6.647303
2248.000000	6.695891
2247.000000	6.587491
2246.000000	6.515696
2245.000000	6.571591
2244.000000	6.748070
2243.000000	6.964676
2242.000000	7.072368
2241.000000	6.901221
2240.000000	6.920330
2239.000000	7.072514
2238.000000	7.177925
2237.000000	7.239112
2236.000000	7.154823
2235.000000	7.226154
2234.000000	7.234986
2233.000000	7.109552
2232.000000	7.187791
2231.000000	7.313129
2230.000000	7.344383
2229.000000	7.289217
2228.000000	7.272953
2227.000000	7.326019
2226.000000	7.349449
2225.000000	7.272365
2224.000000	7.249527
2223.000000	7.278533
2222.000000	7.328890
2221.000000	7.255087
2220.000000	7.154017
2219.000000	7.277243
2218.000000	7.290211
2217.000000	7.302088
2216.000000	7.348331
2215.000000	7.377684
2214.000000	7.363295
2213.000000	7.284025
2212.000000	7.204558
2211.000000	7.119681
2210.000000	7.034416
2209.000000	6.997777
2208.000000	6.925091
2207.000000	7.036886
2206.000000	7.106227
2205.000000	7.037492
2204.000000	6.990205
2203.000000	6.898570
2202.000000	6.881803
2201.000000	6.959130
2200.000000	6.979839
2199.000000	6.937317
2198.000000	6.983190
2197.000000	6.880112
2196.000000	6.715810
2195.000000	6.635789
2194.000000	6.655813
2193.000000	6.642279
2192.000000	6.687750
2191.000000	6.603517
2190.000000	6.628937
2189.000000	6.619551
2188.000000	6.592138
2187.000000	6.533193
2186.000000	6.451675
2185.000000	6.347318
2184.000000	6.481214
2183.000000	6.592967
2182.000000	6.622606
2181.000000	6.439328
2180.000000	6.505825
2179.000000	6.595165
2178.000000	6.519452
2177.000000	6.498325
2176.000000	6.423377
2175.000000	6.443366
2174.000000	6.622093
2173.000000	6.488090
2172.000000	6.488713
2171.000000	6.485664
2170.000000	6.592488
2169.000000	6.523721
2168.000000	6.761797
2167.000000	6.532678
2166.000000	6.498172
2165.000000	6.738645
2164.000000	6.810520
2163.000000	6.827678
2162.000000	6.813069
2161.000000	6.675237
2160.000000	6.761389
2159.000000	6.902626
2158.000000	6.935487
2157.000000	6.673297
2156.000000	6.973718
2155.000000	6.962490
2154.000000	6.990861
2153.000000	6.989771
2152.000000	7.039524
2151.000000	7.059973
2150.000000	7.022515
2149.000000	7.280358
2148.000000	7.151507
2147.000000	7.255448
2146.000000	7.239663
2145.000000	7.230700
2144.000000	7.214675
2143.000000	7.185589
2142.000000	7.382785
2141.000000	7.334317
2140.000000	7.459998
2139.000000	7.524859
2138.000000	7.573822
2137.000000	7.537084
2136.000000	7.442168
2135.000000	7.653587
2134.000000	7.620246
2133.000000	7.479255
2132.000000	7.609328
2131.000000	7.609085
2130.000000	7.786480
2129.000000	7.590577
2128.000000	7.453827
2127.000000	7.820964
2126.000000	7.591154
2125.000000	7.486311
2124.000000	7.705973
2123.000000	7.574414
2122.000000	7.763249
2121.000000	7.729841
2120.000000	7.816155
2119.000000	7.788127
2118.000000	7.771375
2117.000000	7.729635
2116.000000	7.800233
2115.000000	7.824848
2114.000000	7.843038
2113.000000	7.687427
2112.000000	7.721281
2111.000000	7.875923
2110.000000	7.811263
2109.000000	7.765271
2108.000000	7.735806
2107.000000	7.763574
2106.000000	7.843842
2105.000000	7.690820
2104.000000	7.711001
2103.000000	7.847762
2102.000000	7.735813
2101.000000	7.877910
2100.000000	7.941017
2099.000000	7.821706
2098.000000	7.767956
2097.000000	7.834998
2096.000000	7.727300
2095.000000	7.698159
2094.000000	7.756097
2093.000000	7.754033
2092.000000	7.768852
2091.000000	7.777754
2090.000000	7.711936
2089.000000	7.711231
2088.000000	7.758673
2087.000000	7.679465
2086.000000	7.759529
2085.000000	7.805409
2084.000000	7.784057
2083.000000	7.784705
2082.000000	7.722534
2081.000000	7.639426
2080.000000	7.556715
2079.000000	7.570443
2078.000000	7.568111
2077.000000	7.531188
2076.000000	7.469722
2075.000000	7.422844
2074.000000	7.529684
2073.000000	7.474758
2072.000000	7.433227
2071.000000	7.420502
2070.000000	7.363658
2069.000000	7.308637
2068.000000	7.259274
2067.000000	7.207488
2066.000000	7.117668
2065.000000	7.122057
2064.000000	7.153652
2063.000000	7.096603
2062.000000	7.036850
2061.000000	7.005729
2060.000000	6.972159
2059.000000	6.926030
2058.000000	6.862893
2057.000000	6.795220
2056.000000	6.750153
2055.000000	6.731464
2054.000000	6.687749
2053.000000	6.607223
2052.000000	6.565611
2051.000000	6.524016
2050.000000	6.519370
2049.000000	6.529362
2048.000000	6.439666
2047.000000	6.429206
2046.000000	6.459448
2045.000000	6.382634
2044.000000	6.347511
2043.000000	6.377505
2042.000000	6.386861
2041.000000	6.424179
2040.000000	6.430793
2039.000000	6.384714
2038.000000	6.391395
2037.000000	6.468403
2036.000000	6.441444
2035.000000	6.444358
2034.000000	6.518516
2033.000000	6.540966
2032.000000	6.619742
2031.000000	6.660874
2030.000000	6.633616
2029.000000	6.627446
2028.000000	6.702098
2027.000000	6.769982
2026.000000	6.799203
2025.000000	6.827844
2024.000000	6.830484
2023.000000	6.787453
2022.000000	6.781007
2021.000000	6.802490
2020.000000	6.819386
2019.000000	6.810124
2018.000000	6.819758
2017.000000	6.852398
2016.000000	6.860763
2015.000000	6.847177
2014.000000	6.833516
2013.000000	6.790586
2012.000000	6.780620
2011.000000	6.781930
2010.000000	6.791028
2009.000000	6.764507
2008.000000	6.703903
2007.000000	6.647877
2006.000000	6.602475
2005.000000	6.604296
2004.000000	6.584172
2003.000000	6.555793
2002.000000	6.551967
2001.000000	6.514777
2000.000000	6.458402
1999.000000	6.400147
1998.000000	6.373515
1997.000000	6.347183
1996.000000	6.348684
1995.000000	6.315431
1994.000000	6.248043
1993.000000	6.191451
1992.000000	6.164628
1991.000000	6.119399
1990.000000	6.089194
1989.000000	6.067471
1988.000000	6.079272
1987.000000	5.986922
1986.000000	5.947358
1985.000000	5.935956
1984.000000	5.911679
1983.000000	5.889692
1982.000000	5.874526
1981.000000	5.832351
1980.000000	5.780691
1979.000000	5.709411
1978.000000	5.705690
1977.000000	5.697472
1976.000000	5.674627
1975.000000	5.637845
1974.000000	5.598587
1973.000000	5.556765
1972.000000	5.513837
1971.000000	5.513180
1970.000000	5.477294
1969.000000	5.488202
1968.000000	5.411268
1967.000000	5.380900
1966.000000	5.380071
1965.000000	5.370983
1964.000000	5.351910
1963.000000	5.274796
1962.000000	5.225063
1961.000000	5.173825
1960.000000	5.233942
1959.000000	5.246256
1958.000000	5.198651
1957.000000	5.172175
1956.000000	5.204774
1955.000000	5.133227
1954.000000	5.122646
1953.000000	5.120007
1952.000000	5.088114
1951.000000	5.072913
1950.000000	5.073576
1949.000000	5.038265
1948.000000	5.039509
1947.000000	5.024484
1946.000000	5.029305
1945.000000	5.087790
1944.000000	5.092399
1943.000000	5.061830
1942.000000	5.026629
1941.000000	5.016877
1940.000000	5.005964
1939.000000	5.078515
1938.000000	5.096195
1937.000000	5.149027
1936.000000	5.227851
1935.000000	5.150038
1934.000000	5.207221
1933.000000	5.215564
1932.000000	5.253525
1931.000000	5.295774
1930.000000	5.346607
1929.000000	5.361702
1928.000000	5.402058
1927.000000	5.507328
1926.000000	5.557759
1925.000000	5.611813
1924.000000	5.698775
1923.000000	5.773243
1922.000000	5.850143
1921.000000	5.938975
1920.000000	5.967946
1919.000000	6.009764
1918.000000	6.222871
1917.000000	6.341904
1916.000000	6.297026
1915.000000	6.527122
1914.000000	6.566677
1913.000000	6.650274
1912.000000	6.855521
1911.000000	6.842654
1910.000000	6.974707
1909.000000	7.103508
1908.000000	7.209358
1907.000000	7.324791
1906.000000	7.492276
1905.000000	7.644717
1904.000000	7.841092
1903.000000	7.921052
1902.000000	8.104292
1901.000000	8.213251
1900.000000	8.382063
1899.000000	8.565528
1898.000000	8.727474
1897.000000	8.870247
1896.000000	8.983830
1895.000000	9.119476
1894.000000	9.230288
1893.000000	9.377872
1892.000000	9.472632
1891.000000	9.661441
1890.000000	9.824150
1889.000000	9.932979
1888.000000	10.058630
1887.000000	10.126318
1886.000000	10.284344
1885.000000	10.432646
1884.000000	10.559330
1883.000000	10.663931
1882.000000	10.770836
1881.000000	10.799257
1880.000000	10.981473
1879.000000	11.031400
1878.000000	11.100927
1877.000000	11.210294
1876.000000	11.274174
1875.000000	11.388758
1874.000000	11.440576
1873.000000	11.494291
1872.000000	11.531399
1871.000000	11.624452
1870.000000	11.623753
1869.000000	11.659350
1868.000000	11.687176
1867.000000	11.759498
1866.000000	11.747227
1865.000000	11.750631
1864.000000	11.763478
1863.000000	11.780761
1862.000000	11.762684
1861.000000	11.757115
1860.000000	11.782047
1859.000000	11.832555
1858.000000	11.849218
1857.000000	11.843173
1856.000000	11.855675
1855.000000	11.859174
1854.000000	11.874075
1853.000000	11.881680
1852.000000	11.862500
1851.000000	11.814311
1850.000000	11.852630
1849.000000	11.876872
1848.000000	11.880479
1847.000000	11.858896
1846.000000	11.850434
1845.000000	11.893542
1844.000000	11.860282
1843.000000	11.827250
1842.000000	11.818485
1841.000000	11.803648
1840.000000	11.784875
1839.000000	11.796082
1838.000000	11.776394
1837.000000	11.737482
1836.000000	11.727277
1835.000000	11.739495
1834.000000	11.692500
1833.000000	11.643219
1832.000000	11.643549
1831.000000	11.629769
1830.000000	11.600893
1829.000000	11.567804
1828.000000	11.566948
1827.000000	11.561073
1826.000000	11.526845
1825.000000	11.505324
1824.000000	11.489308
1823.000000	11.496520
1822.000000	11.502158
1821.000000	11.469124
1820.000000	11.418215
1819.000000	11.392950
1818.000000	11.397002
1817.000000	11.370526
1816.000000	11.352949
1815.000000	11.379240
1814.000000	11.387088
1813.000000	11.349854
1812.000000	11.325637
1811.000000	11.319508
1810.000000	11.312711
1809.000000	11.319784
1808.000000	11.304613
1807.000000	11.279181
1806.000000	11.265501
1805.000000	11.247487
1804.000000	11.236317
1803.000000	11.238659
1802.000000	11.218987
1801.000000	11.223006
1800.000000	11.218968
1799.000000	11.213218
1798.000000	11.225037
1797.000000	11.218397
1796.000000	11.222982
1795.000000	11.200869
1794.000000	11.181429
1793.000000	11.196496
1792.000000	11.193823
1791.000000	11.181220
1790.000000	11.193012
1789.000000	11.177907
1788.000000	11.202275
1787.000000	11.220874
1786.000000	11.199986
1785.000000	11.184683
1784.000000	11.173677
1783.000000	11.158421
1782.000000	11.161840
1781.000000	11.168637
1780.000000	11.173790
1779.000000	11.165352
1778.000000	11.144134
1777.000000	11.120056
1776.000000	11.105853
1775.000000	11.091936
1774.000000	11.051999
1773.000000	11.029612
1772.000000	11.024728
1771.000000	11.015391
1770.000000	10.995923
1769.000000	10.970514
1768.000000	10.976858
1767.000000	10.938743
1766.000000	10.901631
1765.000000	10.884514
1764.000000	10.892394
1763.000000	10.848848
1762.000000	10.834006
1761.000000	10.838580
1760.000000	10.807944
1759.000000	10.760944
1758.000000	10.761181
1757.000000	10.770966
1756.000000	10.747220
1755.000000	10.738970
1754.000000	10.724881
1753.000000	10.695839
1752.000000	10.674334
1751.000000	10.671346
1750.000000	10.664456
1749.000000	10.634253
1748.000000	10.620434
1747.000000	10.612477
1746.000000	10.592555
1745.000000	10.546269
1744.000000	10.530258
1743.000000	10.493967
1742.000000	10.479825
1741.000000	10.461491
1740.000000	10.476557
1739.000000	10.446325
1738.000000	10.444821
1737.000000	10.417858
1736.000000	10.386889
1735.000000	10.378996
1734.000000	10.379418
1733.000000	10.361393
1732.000000	10.359915
1731.000000	10.359957
1730.000000	10.360323
1729.000000	10.350879
1728.000000	10.379089
1727.000000	10.393793
1726.000000	10.421580
1725.000000	10.422159
1724.000000	10.448953
1723.000000	10.458985
1722.000000	10.476044
1721.000000	10.502487
1720.000000	10.558871
1719.000000	10.583363
1718.000000	10.613274
1717.000000	10.636834
1716.000000	10.643449
1715.000000	10.653270
1714.000000	10.662683
1713.000000	10.721172
1712.000000	10.739200
1711.000000	10.761939
1710.000000	10.742424
1709.000000	10.782956
1708.000000	10.813825
1707.000000	10.800921
1706.000000	10.803160
1705.000000	10.856122
1704.000000	10.843728
1703.000000	10.864520
1702.000000	10.844880
1701.000000	10.846694
1700.000000	10.861500
1699.000000	10.841187
1698.000000	10.874677
1697.000000	10.860044
1696.000000	10.908690
1695.000000	10.913680
1694.000000	10.884166
1693.000000	10.913733
1692.000000	10.918633
1691.000000	10.964977
1690.000000	10.974068
1689.000000	11.015460
1688.000000	11.021743
1687.000000	11.030429
1686.000000	11.066405
1685.000000	11.100542
1684.000000	11.141664
1683.000000	11.199648
1682.000000	11.248750
1681.000000	11.278398
1680.000000	11.307601
1679.000000	11.349878
1678.000000	11.410277
1677.000000	11.426894
1676.000000	11.449448
1675.000000	11.484374
1674.000000	11.530552
1673.000000	11.600865
1672.000000	11.629738
1671.000000	11.623588
1670.000000	11.666648
1669.000000	11.675448
1668.000000	11.705349
1667.000000	11.754352
1666.000000	11.745961
1665.000000	11.768181
1664.000000	11.773383
1663.000000	11.799143
1662.000000	11.810229
1661.000000	11.841720
1660.000000	11.850932
1659.000000	11.877097
1658.000000	11.872705
1657.000000	11.898254
1656.000000	11.933476
1655.000000	11.931332
1654.000000	11.925341
1653.000000	11.935161
1652.000000	11.943917
1651.000000	11.919190
1650.000000	11.928188
1649.000000	11.891608
1648.000000	11.881056
1647.000000	11.891992
1646.000000	11.891122
1645.000000	11.895401
1644.000000	11.889174
1643.000000	11.864553
1642.000000	11.868261
1641.000000	11.853445
1640.000000	11.840967
1639.000000	11.821202
1638.000000	11.802748
1637.000000	11.801624
1636.000000	11.782628
1635.000000	11.768934
1634.000000	11.745537
1633.000000	11.727643
1632.000000	11.725507
1631.000000	11.708519
1630.000000	11.691892
1629.000000	11.683423
1628.000000	11.654902
1627.000000	11.649723
1626.000000	11.634305
1625.000000	11.631382
1624.000000	11.617282
1623.000000	11.612399
1622.000000	11.603891
1621.000000	11.569008
1620.000000	11.541148
1619.000000	11.527771
1618.000000	11.506893
1617.000000	11.492072
1616.000000	11.488961
1615.000000	11.479094
1614.000000	11.451653
1613.000000	11.418638
1612.000000	11.404855
1611.000000	11.413874
1610.000000	11.404408
1609.000000	11.373285
1608.000000	11.351307
1607.000000	11.341485
1606.000000	11.312088
1605.000000	11.305648
1604.000000	11.297203
1603.000000	11.266695
1602.000000	11.252155
1601.000000	11.233159
1600.000000	11.218285
1599.000000	11.197072
1598.000000	11.175373
1597.000000	11.156900
1596.000000	11.137440
1595.000000	11.130842
1594.000000	11.130355
1593.000000	11.111495
1592.000000	11.096584
1591.000000	11.094575
1590.000000	11.091762
1589.000000	11.071104
1588.000000	11.046226
1587.000000	11.034452
1586.000000	11.020605
1585.000000	11.003609
1584.000000	10.977296
1583.000000	10.959713
1582.000000	10.948685
1581.000000	10.938917
1580.000000	10.935361
1579.000000	10.931698
1578.000000	10.924256
1577.000000	10.902617
1576.000000	10.887464
1575.000000	10.877394
1574.000000	10.862670
1573.000000	10.838158
1572.000000	10.832827
1571.000000	10.822685
1570.000000	10.812363
1569.000000	10.793763
1568.000000	10.774047
1567.000000	10.764199
1566.000000	10.759307
1565.000000	10.741265
1564.000000	10.724662
1563.000000	10.722351
1562.000000	10.713157
1561.000000	10.703248
1560.000000	10.688109
1559.000000	10.667972
1558.000000	10.657228
1557.000000	10.665177
1556.000000	10.646333
1555.000000	10.634056
1554.000000	10.630125
1553.000000	10.619140
1552.000000	10.592264
1551.000000	10.583607
1550.000000	10.575839
1549.000000	10.550799
1548.000000	10.556480
1547.000000	10.541312
1546.000000	10.510249
1545.000000	10.467437
1544.000000	10.444572
1543.000000	10.428940
1542.000000	10.414078
1541.000000	10.393476
1540.000000	10.368755
1539.000000	10.338299
1538.000000	10.289816
1537.000000	10.282066
1536.000000	10.250621
1535.000000	10.224448
1534.000000	10.197345
1533.000000	10.194718
1532.000000	10.163120
1531.000000	10.134516
1530.000000	10.119656
1529.000000	10.089975
1528.000000	10.060413
1527.000000	10.039598
1526.000000	10.021743
1525.000000	10.012045
1524.000000	9.980354
1523.000000	9.967600
1522.000000	9.962571
1521.000000	9.942026
1520.000000	9.926345
1519.000000	9.901228
1518.000000	9.902811
1517.000000	9.892679
1516.000000	9.880908
1515.000000	9.878306
1514.000000	9.855861
1513.000000	9.840465
1512.000000	9.835282
1511.000000	9.842564
1510.000000	9.835117
1509.000000	9.812413
1508.000000	9.799210
1507.000000	9.792638
1506.000000	9.795545
1505.000000	9.784556
1504.000000	9.811706
1503.000000	9.784747
1502.000000	9.811121
1501.000000	9.817139
1500.000000	9.819042
1499.000000	9.829416
1498.000000	9.833188
1497.000000	9.814395
1496.000000	9.810438
1495.000000	9.803397
1494.000000	9.793155
1493.000000	9.792040
1492.000000	9.786245
1491.000000	9.786604
1490.000000	9.789250
1489.000000	9.798308
1488.000000	9.804334
1487.000000	9.805657
1486.000000	9.806253
1485.000000	9.818600
1484.000000	9.830374
1483.000000	9.789184
1482.000000	9.763101
1481.000000	9.837612
1480.000000	9.837628
1479.000000	9.825460
1478.000000	9.824508
1477.000000	9.833547
1476.000000	9.856164
1475.000000	9.855643
1474.000000	9.862112
1473.000000	9.867010
1472.000000	9.871345
1471.000000	9.872761
1470.000000	9.875926
1469.000000	9.892140
1468.000000	9.904789
1467.000000	9.929188
1466.000000	9.931794
1465.000000	9.958959
1464.000000	9.948491
1463.000000	9.944533
1462.000000	9.942997
1461.000000	9.931186
1460.000000	9.961484
1459.000000	9.999472
1458.000000	9.975638
1457.000000	9.976950
1456.000000	9.992135
1455.000000	10.000386
1454.000000	10.012476
1453.000000	10.010362
1452.000000	10.024388
1451.000000	10.060834
1450.000000	10.075872
1449.000000	10.078862
1448.000000	10.074851
1447.000000	10.079549
1446.000000	10.093004
1445.000000	10.105175
1444.000000	10.146166
1443.000000	10.171762
1442.000000	10.181677
1441.000000	10.187144
1440.000000	10.200442
1439.000000	10.218659
1438.000000	10.224067
1437.000000	10.248794
1436.000000	10.276803
1435.000000	10.309653
1434.000000	10.360093
1433.000000	10.399819
1432.000000	10.416413
1431.000000	10.446764
1430.000000	10.474867
1429.000000	10.497874
1428.000000	10.512937
1427.000000	10.543759
1426.000000	10.580064
1425.000000	10.611459
1424.000000	10.634861
1423.000000	10.663661
1422.000000	10.711422
1421.000000	10.764746
1420.000000	10.809338
1419.000000	10.853113
1418.000000	10.890819
1417.000000	10.938461
1416.000000	10.985308
1415.000000	11.023601
1414.000000	11.055783
1413.000000	11.113196
1412.000000	11.171940
1411.000000	11.221220
1410.000000	11.255790
1409.000000	11.295444
1408.000000	11.350415
1407.000000	11.383544
1406.000000	11.430688
1405.000000	11.484476
1404.000000	11.534499
1403.000000	11.582034
1402.000000	11.626369
1401.000000	11.664958
1400.000000	11.686946
1399.000000	11.712981
1398.000000	11.757903
1397.000000	11.802098
1396.000000	11.833948
1395.000000	11.869048
1394.000000	11.907630
1393.000000	11.927833
1392.000000	11.959608
1391.000000	11.989182
1390.000000	12.004875
1389.000000	12.028566
1388.000000	12.054908
1387.000000	12.081523
1386.000000	12.122923
1385.000000	12.143812
1384.000000	12.161600
1383.000000	12.187023
1382.000000	12.202364
1381.000000	12.207047
1380.000000	12.226129
1379.000000	12.246488
1378.000000	12.244115
1377.000000	12.241666
1376.000000	12.253856
1375.000000	12.276011
1374.000000	12.276121
1373.000000	12.263910
1372.000000	12.271139
1371.000000	12.276536
1370.000000	12.286108
1369.000000	12.310118
1368.000000	12.312776
1367.000000	12.315151
1366.000000	12.313360
1365.000000	12.298610
1364.000000	12.306197
1363.000000	12.319921
1362.000000	12.319447
1361.000000	12.324881
1360.000000	12.334009
1359.000000	12.352069
1358.000000	12.354648
1357.000000	12.349198
1356.000000	12.340632
1355.000000	12.345759
1354.000000	12.364514
1353.000000	12.370314
1352.000000	12.365703
1351.000000	12.372260
1350.000000	12.378133
1349.000000	12.378440
1348.000000	12.386416
1347.000000	12.386303
1346.000000	12.372637
1345.000000	12.387161
1344.000000	12.391727
1343.000000	12.393729
1342.000000	12.388426
1341.000000	12.388661
1340.000000	12.405346
1339.000000	12.412632
1338.000000	12.409199
1337.000000	12.405082
1336.000000	12.401495
1335.000000	12.393260
1334.000000	12.420216
1333.000000	12.434761
1332.000000	12.416260
1331.000000	12.412178
1330.000000	12.412631
1329.000000	12.423237
1328.000000	12.438710
1327.000000	12.431586
1326.000000	12.422616
1325.000000	12.430843
1324.000000	12.423183
1323.000000	12.402367
1322.000000	12.429140
1321.000000	12.438302
1320.000000	12.411663
1319.000000	12.409302
1318.000000	12.420746
1317.000000	12.432102
1316.000000	12.430317
1315.000000	12.403845
1314.000000	12.379084
1313.000000	12.389363
1312.000000	12.396438
1311.000000	12.378676
1310.000000	12.381962
1309.000000	12.394478
1308.000000	12.370326
1307.000000	12.339526
1306.000000	12.344987
1305.000000	12.374353
1304.000000	12.359496
1303.000000	12.347577
1302.000000	12.342364
1301.000000	12.331827
1300.000000	12.346501
1299.000000	12.351729
1298.000000	12.343238
1297.000000	12.318752
1296.000000	12.320263
1295.000000	12.315044
1294.000000	12.309518
1293.000000	12.292964
1292.000000	12.294090
1291.000000	12.291153
1290.000000	12.281207
1289.000000	12.242957
1288.000000	12.218528
1287.000000	12.234156
1286.000000	12.234159
1285.000000	12.240272
1284.000000	12.243919
1283.000000	12.245512
1282.000000	12.221152
1281.000000	12.243202
1280.000000	12.192571
1279.000000	12.179189
1278.000000	12.186420
1277.000000	12.202463
1276.000000	12.198626
1275.000000	12.192277
1274.000000	12.178351
1273.000000	12.184651
1272.000000	12.176055
1271.000000	12.179329
1270.000000	12.160031
1269.000000	12.161022
1268.000000	12.194984
1267.000000	12.198181
1266.000000	12.181927
1265.000000	12.173913
1264.000000	12.139690
1263.000000	12.141045
1262.000000	12.128660
1261.000000	12.169048
1260.000000	12.165317
1259.000000	12.161329
1258.000000	12.140302
1257.000000	12.130731
1256.000000	12.113780
1255.000000	12.095693
1254.000000	12.123530
1253.000000	12.134963
1252.000000	12.121366
1251.000000	12.118401
1250.000000	12.112510
1249.000000	12.102444
1248.000000	12.088082
1247.000000	12.090266
1246.000000	12.061803
1245.000000	12.063289
1244.000000	12.057770
1243.000000	12.023183
1242.000000	12.008821
1241.000000	12.020833
1240.000000	12.029564
1239.000000	12.028265
1238.000000	11.996049
1237.000000	11.993284
1236.000000	11.978873
1235.000000	11.965484
1234.000000	11.947794
1233.000000	11.944507
1232.000000	11.951235
1231.000000	11.963589
1230.000000	11.915278
1229.000000	11.908535
1228.000000	11.918177
1227.000000	11.920350
1226.000000	11.921457
1225.000000	11.919604
1224.000000	11.877058
1223.000000	11.858298
1222.000000	11.864006
1221.000000	11.844244
1220.000000	11.842548
1219.000000	11.825652
1218.000000	11.818868
1217.000000	11.824798
1216.000000	11.842584
1215.000000	11.848364
1214.000000	11.826809
1213.000000	11.800423
1212.000000	11.788829
1211.000000	11.789847
1210.000000	11.793456
1209.000000	11.778923
1208.000000	11.778325
1207.000000	11.759253
1206.000000	11.733542
1205.000000	11.707657
1204.000000	11.710855
1203.000000	11.718031
1202.000000	11.697199
1201.000000	11.707279
1200.000000	11.700561
1199.000000	11.664053
1198.000000	11.650934
1197.000000	11.641454
1196.000000	11.629030
1195.000000	11.647651
1194.000000	11.650204
1193.000000	11.625446
1192.000000	11.610998
1191.000000	11.600643
1190.000000	11.574557
1189.000000	11.536356
1188.000000	11.530421
1187.000000	11.533121
1186.000000	11.535036
1185.000000	11.527071
1184.000000	11.524498
1183.000000	11.524465
1182.000000	11.525944
1181.000000	11.543238
1180.000000	11.548474
1179.000000	11.551628
1178.000000	11.559859
1177.000000	11.566561
1176.000000	11.570814
1175.000000	11.566779
1174.000000	11.582243
1173.000000	11.588514
1172.000000	11.599161
1171.000000	11.604924
1170.000000	11.602056
1169.000000	11.608338
1168.000000	11.621691
1167.000000	11.634740
1166.000000	11.634504
1165.000000	11.626245
1164.000000	11.616580
1163.000000	11.622639
1162.000000	11.645542
1161.000000	11.649068
1160.000000	11.659594
1159.000000	11.684426
1158.000000	11.694186
1157.000000	11.699810
1156.000000	11.708193
1155.000000	11.717859
1154.000000	11.720961
1153.000000	11.734893
1152.000000	11.742530
1151.000000	11.743236
1150.000000	11.754629
1149.000000	11.763386
1148.000000	11.762249
1147.000000	11.770157
1146.000000	11.752901
1145.000000	11.729550
1144.000000	11.737686
1143.000000	11.747515
1142.000000	11.746004
1141.000000	11.753162
1140.000000	11.774231
1139.000000	11.775910
1138.000000	11.780602
1137.000000	11.788432
1136.000000	11.803425
1135.000000	11.798537
1134.000000	11.799980
1133.000000	11.802942
1132.000000	11.775227
1131.000000	11.747631
1130.000000	11.759420
1129.000000	11.771226
1128.000000	11.775122
1127.000000	11.787065
1126.000000	11.800171
1125.000000	11.799897
1124.000000	11.791783
1123.000000	11.781990
1122.000000	11.781623
1121.000000	11.786343
1120.000000	11.784729
1119.000000	11.777289
1118.000000	11.783560
1117.000000	11.771158
1116.000000	11.756337
1115.000000	11.758743
1114.000000	11.761840
1113.000000	11.757129
1112.000000	11.754500
1111.000000	11.718312
1110.000000	11.689385
1109.000000	11.698377
1108.000000	11.705412
1107.000000	11.708964
1106.000000	11.715774
1105.000000	11.724157
1104.000000	11.718308
1103.000000	11.707999
1102.000000	11.696474
1101.000000	11.704153
1100.000000	11.711183
1099.000000	11.699788
1098.000000	11.673456
1097.000000	11.651846
1096.000000	11.669743
1095.000000	11.677511
1094.000000	11.666620
1093.000000	11.665799
1092.000000	11.678759
1091.000000	11.653722
1090.000000	11.635327
1089.000000	11.646270
1088.000000	11.635405
1087.000000	11.643649
1086.000000	11.643051
1085.000000	11.650838
1084.000000	11.621197
1083.000000	11.597970
1082.000000	11.591579
1081.000000	11.608612
1080.000000	11.595670
1079.000000	11.623248
1078.000000	11.619826
1077.000000	11.570595
1076.000000	11.574046
1075.000000	11.567367
1074.000000	11.566156
1073.000000	11.569542
1072.000000	11.571532
1071.000000	11.579872
1070.000000	11.564004
1069.000000	11.533672
1068.000000	11.533785
1067.000000	11.541174
1066.000000	11.553032
1065.000000	11.557663
1064.000000	11.545670
1063.000000	11.514603
1062.000000	11.504541
1061.000000	11.502344
1060.000000	11.503062
1059.000000	11.513971
1058.000000	11.504674
1057.000000	11.479206
1056.000000	11.479466
1055.000000	11.475602
1054.000000	11.486228
1053.000000	11.485860
1052.000000	11.449827
1051.000000	11.451262
1050.000000	11.450712
1049.000000	11.457296
1048.000000	11.482194
1047.000000	11.429330
1046.000000	11.429180
1045.000000	11.438488
1044.000000	11.447104
1043.000000	11.405113
1042.000000	11.417530
1041.000000	11.416208
1040.000000	11.431222
1039.000000	11.424606
1038.000000	11.385924
1037.000000	11.400586
1036.000000	11.393444
1035.000000	11.411705
1034.000000	11.379263
1033.000000	11.366333
1032.000000	11.370859
1031.000000	11.350127
1030.000000	11.349998
1029.000000	11.360396
1028.000000	11.374238
1027.000000	11.339594
1026.000000	11.344218
1025.000000	11.359561
1024.000000	11.365285
1023.000000	11.326971
1022.000000	11.333560
1021.000000	11.335285
1020.000000	11.319354
1019.000000	11.322843
1018.000000	11.320271
1017.000000	11.301129
1016.000000	11.302227
1015.000000	11.304371
1014.000000	11.288071
1013.000000	11.304965
1012.000000	11.295219
1011.000000	11.283916
1010.000000	11.281118
1009.000000	11.268273
1008.000000	11.287639
1007.000000	11.317941
1006.000000	11.306027
1005.000000	11.311794
1004.000000	11.309208
1003.000000	11.312175
1002.000000	11.322626
1001.000000	11.311224
1000.000000	11.316957
999.000000	11.325696
998.000000	11.313344
997.000000	11.305247
996.000000	11.297150
995.000000	11.304207
994.000000	11.300951
993.000000	11.296281
992.000000	11.291233
991.000000	11.296297
990.000000	11.293727
989.000000	11.287489
988.000000	11.272005
987.000000	11.268090
986.000000	11.264862
985.000000	11.259213
984.000000	11.259947
983.000000	11.258115
982.000000	11.242750
981.000000	11.233083
980.000000	11.228088
979.000000	11.231806
978.000000	11.217113
977.000000	11.228619
976.000000	11.220098
975.000000	11.210138
974.000000	11.198437
973.000000	11.202004
972.000000	11.210970
971.000000	11.204498
970.000000	11.204121
969.000000	11.201732
968.000000	11.186271
967.000000	11.175661
966.000000	11.159221
965.000000	11.156001
964.000000	11.163800
963.000000	11.161955
962.000000	11.156324
961.000000	11.135155
960.000000	11.123809
959.000000	11.129053
958.000000	11.142796
957.000000	11.141876
956.000000	11.128741
955.000000	11.114875
954.000000	11.115425
953.000000	11.107203
952.000000	11.101496
951.000000	11.102371
950.000000	11.094212
949.000000	11.088541
948.000000	11.083744
947.000000	11.070290
946.000000	11.067321
945.000000	11.075271
944.000000	11.063363
943.000000	11.069127
942.000000	11.061939
941.000000	11.037495
940.000000	11.033772
939.000000	11.037284
938.000000	11.018970
937.000000	11.000487
936.000000	11.006482
935.000000	11.000768
934.000000	10.967209
933.000000	10.960642
932.000000	10.977718
931.000000	10.960385
930.000000	10.953395
929.000000	10.967035
928.000000	10.954919
927.000000	10.939170
926.000000	10.930218
925.000000	10.924843
924.000000	10.919922
923.000000	10.884240
922.000000	10.892809
921.000000	10.917342
920.000000	10.869943
919.000000	10.851646
918.000000	10.900717
917.000000	10.880160
916.000000	10.847977
915.000000	10.857955
914.000000	10.877374
913.000000	10.855042
912.000000	10.820533
911.000000	10.819857
910.000000	10.857483
909.000000	10.862485
908.000000	10.829156
907.000000	10.797567
906.000000	10.833441
905.000000	10.791267
904.000000	10.792640
903.000000	10.842619
902.000000	10.809297
901.000000	10.767808
900.000000	10.798190
899.000000	10.795608
898.000000	10.735859
897.000000	10.723933
896.000000	10.766006
895.000000	10.735932
894.000000	10.702504
893.000000	10.711623
892.000000	10.683132
891.000000	10.710808
890.000000	10.722391
889.000000	10.636948
888.000000	10.613980
887.000000	10.692081
886.000000	10.616187
885.000000	10.634250
884.000000	10.660827
883.000000	10.653912
882.000000	10.716081
881.000000	10.588275
880.000000	10.573844
879.000000	10.611094
878.000000	10.604290
877.000000	10.528230
876.000000	10.559623
875.000000	10.564667
874.000000	10.565429
873.000000	10.614925
872.000000	10.664616
871.000000	10.637107
870.000000	10.534115
869.000000	10.510786
868.000000	10.511826
867.000000	10.496414
866.000000	10.427175
865.000000	10.490332
864.000000	10.547095
863.000000	10.404822
862.000000	10.400391
861.000000	10.397352
860.000000	10.420132
859.000000	10.526823
858.000000	10.259650
857.000000	10.214892
856.000000	10.156527
855.000000	10.092970
854.000000	10.034896
853.000000	10.056387
852.000000	10.293085
851.000000	10.211806
850.000000	10.181681
849.000000	10.214789
848.000000	10.209119
847.000000	10.236543
846.000000	10.252885
845.000000	10.212767
844.000000	10.218543
843.000000	10.203001
842.000000	10.227842
841.000000	10.204105
840.000000	10.255754
839.000000	10.243757
838.000000	10.164375
837.000000	10.197167
836.000000	10.190701
835.000000	10.180566
834.000000	10.080728
833.000000	10.153425
832.000000	10.161855
831.000000	10.076026
830.000000	10.162587
829.000000	10.047234
828.000000	10.143104
827.000000	10.061943
826.000000	10.075069
825.000000	10.018452
824.000000	10.026488
823.000000	10.020997
822.000000	10.015830
821.000000	10.056029
820.000000	9.953261
819.000000	9.962043
818.000000	9.964287
817.000000	9.925648
816.000000	9.903863
815.000000	9.905240
814.000000	9.896515
813.000000	9.928103
812.000000	9.885979
811.000000	9.877104
810.000000	9.851373
809.000000	9.880501
808.000000	9.850769
807.000000	9.830731
806.000000	9.812339
805.000000	9.812059
804.000000	9.808084
803.000000	9.761801
802.000000	9.754655
801.000000	9.736032
800.000000	9.707908
799.000000	9.694701
798.000000	9.670099
797.000000	9.671660
796.000000	9.644011
795.000000	9.668620
794.000000	9.605803
793.000000	9.601043
792.000000	9.580296
791.000000	9.587358
790.000000	9.593057
789.000000	9.554152
788.000000	9.542305
787.000000	9.526606
786.000000	9.532845
785.000000	9.490409
784.000000	9.472166
783.000000	9.464534
782.000000	9.434950
781.000000	9.440227
780.000000	9.395777
779.000000	9.380877
778.000000	9.382090
777.000000	9.364079
776.000000	9.344516
775.000000	9.338817
774.000000	9.323029
773.000000	9.293271
772.000000	9.248238
771.000000	9.248347
770.000000	9.241725
769.000000	9.224555
768.000000	9.204785
767.000000	9.172320
766.000000	9.158456
765.000000	9.155140
764.000000	9.130802
763.000000	9.107084
762.000000	9.092240
761.000000	9.100372
760.000000	9.091154
759.000000	9.053545
758.000000	9.032278
757.000000	8.989343
756.000000	8.972064
755.000000	8.971893
754.000000	8.960065
753.000000	8.926561
752.000000	8.924389
751.000000	8.911260
750.000000	8.866516
749.000000	8.854884
748.000000	8.828390
747.000000	8.828144
746.000000	8.797138
745.000000	8.778817
744.000000	8.764560
743.000000	8.750150
742.000000	8.731909
741.000000	8.709819
740.000000	8.676916
739.000000	8.660913
738.000000	8.626667
737.000000	8.618782
736.000000	8.614234
735.000000	8.591231
734.000000	8.554667
733.000000	8.518794
732.000000	8.529889
731.000000	8.526653
730.000000	8.482280
729.000000	8.460182
728.000000	8.474436
727.000000	8.438679
726.000000	8.415141
725.000000	8.395054
724.000000	8.360035
723.000000	8.337843
722.000000	8.313539
721.000000	8.290002
720.000000	8.263943
719.000000	8.250831
718.000000	8.232344
717.000000	8.211991
716.000000	8.197366
715.000000	8.168529
714.000000	8.135293
713.000000	8.112506
712.000000	8.092017
711.000000	8.070602
710.000000	8.050904
709.000000	8.024756
708.000000	7.994148
707.000000	7.961474
706.000000	7.939356
705.000000	7.920655
704.000000	7.907260
703.000000	7.884333
702.000000	7.863074
701.000000	7.843917
700.000000	7.817873
699.000000	7.799396
698.000000	7.772111
697.000000	7.739700
696.000000	7.720423
695.000000	7.688652
694.000000	7.671902
693.000000	7.657562
692.000000	7.634798
691.000000	7.602136
690.000000	7.586476
689.000000	7.554162
688.000000	7.494275
687.000000	7.471316
686.000000	7.460286
685.000000	7.432672
684.000000	7.404209
683.000000	7.386292
682.000000	7.357196
681.000000	7.324567
680.000000	7.300124
679.000000	7.283597
678.000000	7.271305
677.000000	7.228756
676.000000	7.189858
675.000000	7.178108
674.000000	7.160067
673.000000	7.146450
672.000000	7.116783
671.000000	7.080525
670.000000	7.056245
669.000000	7.039943
668.000000	7.012239
667.000000	6.974507
666.000000	6.954681
665.000000	6.925760
664.000000	6.884699
663.000000	6.866509
662.000000	6.847568
661.000000	6.814393
660.000000	6.783087
659.000000	6.763022
658.000000	6.739387
657.000000	6.724739
656.000000	6.683383
655.000000	6.659358
654.000000	6.629390
653.000000	6.610244
652.000000	6.582158
651.000000	6.553120
650.000000	6.523216
649.000000	6.507085
648.000000	6.475800
647.000000	6.447236
646.000000	6.428209
645.000000	6.405257
644.000000	6.366477
643.000000	6.349939
642.000000	6.313183
641.000000	6.294382
640.000000	6.255671
639.000000	6.224770
638.000000	6.203741
637.000000	6.177152
636.000000	6.151238
635.000000	6.112287
634.000000	6.094404
633.000000	6.079753
632.000000	6.038685
631.000000	6.011679
630.000000	5.988193
629.000000	5.956797
628.000000	5.923650
627.000000	5.885200
626.000000	5.858182
625.000000	5.837724
624.000000	5.808250
623.000000	5.781757
622.000000	5.751499
621.000000	5.727776
620.000000	5.694030
619.000000	5.672092
618.000000	5.643047
617.000000	5.614420
616.000000	5.577220
615.000000	5.547476
614.000000	5.516416
613.000000	5.495225
612.000000	5.466358
611.000000	5.429370
610.000000	5.405095
609.000000	5.373087
608.000000	5.348365
607.000000	5.316603
606.000000	5.282077
605.000000	5.260008
604.000000	5.225500
603.000000	5.205565
602.000000	5.162309
601.000000	5.135908
600.000000	5.111404
599.000000	5.074681
598.000000	5.042633
597.000000	5.012681
596.000000	4.996536
595.000000	4.962847
594.000000	4.933787
593.000000	4.892177
592.000000	4.862007
591.000000	4.831878
590.000000	4.797534
589.000000	4.780601
588.000000	4.744397
587.000000	4.715820
586.000000	4.682693
585.000000	4.649616
584.000000	4.619475
583.000000	4.587525
582.000000	4.552986
581.000000	4.518437
580.000000	4.497800
579.000000	4.464694
578.000000	4.433054
577.000000	4.404855
576.000000	4.374658
575.000000	4.341746
574.000000	4.299785
573.000000	4.274563
572.000000	4.239963
571.000000	4.222233
570.000000	4.171999
569.000000	4.150359
568.000000	4.116497
567.000000	4.087914
566.000000	4.051984
565.000000	4.030387
564.000000	3.995239
563.000000	3.957411
562.000000	3.926529
561.000000	3.916007
560.000000	3.882031
559.000000	3.853786
558.000000	3.822088
557.000000	3.794320
556.000000	3.760948
555.000000	3.731480
554.000000	3.695974
553.000000	3.669403
552.000000	3.633291
551.000000	3.610417
550.000000	3.579010
549.000000	3.550099
548.000000	3.512287
547.000000	3.485161
546.000000	3.458104
545.000000	3.423894
544.000000	3.395691
543.000000	3.366400
542.000000	3.332477
541.000000	3.300469
540.000000	3.270058
539.000000	3.246539
538.000000	3.215653
537.000000	3.179035
536.000000	3.149210
535.000000	3.123365
534.000000	3.093464
533.000000	3.064633
532.000000	3.031942
531.000000	3.001908
530.000000	2.971999
529.000000	2.943033
528.000000	2.913882
527.000000	2.889207
526.000000	2.857766
525.000000	2.824295
524.000000	2.796588
523.000000	2.764111
522.000000	2.740098
521.000000	2.713250
520.000000	2.682761
519.000000	2.655980
518.000000	2.621853
517.000000	2.597311
516.000000	2.570337
515.000000	2.539282
514.000000	2.508994
513.000000	2.479721
512.000000	2.449241
511.000000	2.421732
510.000000	2.396999
509.000000	2.371791
508.000000	2.340518
507.000000	2.313992
506.000000	2.282280
505.000000	2.255780
504.000000	2.230862
503.000000	2.209698
502.000000	2.181069
501.000000	2.155489
500.000000	2.129239
499.000000	2.105577
498.000000	2.080488
497.000000	2.057155
496.000000	2.035913
495.000000	2.013004
494.000000	1.985323
493.000000	1.961226
492.000000	1.939674
491.000000	1.921656
490.000000	1.892593
489.000000	1.867322
488.000000	1.841003
487.000000	1.827500
486.000000	1.809367
485.000000	1.786033
484.000000	1.759746
483.000000	1.736594
482.000000	1.721825
481.000000	1.712285
480.000000	1.684468
479.000000	1.659451
478.000000	1.635298
477.000000	1.609895
476.000000	1.586014
475.000000	1.563167
474.000000	1.544280
473.000000	1.520690
472.000000	1.495643
471.000000	1.475805
470.000000	1.454020
469.000000	1.434673
468.000000	1.414150
467.000000	1.389688
466.000000	1.371510
465.000000	1.354358
464.000000	1.330859
463.000000	1.313595
462.000000	1.291232
461.000000	1.267974
460.000000	1.248781
459.000000	1.222743
458.000000	1.202484
457.000000	1.187039
456.000000	1.167688
455.000000	1.147037
454.000000	1.127658
453.000000	1.108355
452.000000	1.085098
451.000000	1.066542
450.000000	1.049915
449.000000	1.033189
448.000000	1.015530
447.000000	0.992691
446.000000	0.976523
445.000000	0.956009
444.000000	0.937436
443.000000	0.923050
442.000000	0.903984
441.000000	0.884439
440.000000	0.866168
439.000000	0.848212
438.000000	0.837902
437.000000	0.828906
436.000000	0.809083
435.000000	0.795002
434.000000	0.777958
433.000000	0.768976
432.000000	0.754604
431.000000	0.737987
430.000000	0.718578
429.000000	0.706921
428.000000	0.693311
427.000000	0.679875
426.000000	0.667390
425.000000	0.648779
424.000000	0.632026
423.000000	0.621683
422.000000	0.608509
421.000000	0.597753
420.000000	0.587818
419.000000	0.574822
418.000000	0.557595
417.000000	0.543176
416.000000	0.531643
415.000000	0.514498
414.000000	0.507427
413.000000	0.488486
412.000000	0.479509
411.000000	0.463226
410.000000	0.449133
409.000000	0.440161
408.000000	0.430707
407.000000	0.409410
406.000000	0.394882
405.000000	0.390634
404.000000	0.385141
403.000000	0.369094
402.000000	0.359847
401.000000	0.350043
400.000000	0.343269
399.000000	0.328739
398.000000	0.317098
397.000000	0.302487
396.000000	0.297765
395.000000	0.290926
394.000000	0.280947
393.000000	0.264414
392.000000	0.265331
391.000000	0.254796
390.000000	0.249646
389.000000	0.240714
388.000000	0.225638
387.000000	0.222390
386.000000	0.207644
385.000000	0.208890
384.000000	0.197619
383.000000	0.196492
382.000000	0.184999
381.000000	0.171412
380.000000	0.170170
379.000000	0.161902
378.000000	0.133676
377.000000	-0.006837
376.000000	-0.018459
375.000000	0.003140
374.000000	0.032031
373.000000	0.060548
372.000000	0.049124
371.000000	0.074845
370.000000	0.061281
369.000000	0.092885
368.000000	0.095358
367.000000	0.075955
366.000000	0.092343
365.000000	0.069291
364.000000	0.091956
363.000000	0.084781
362.000000	0.082634
361.000000	0.094298
360.000000	0.076533
359.000000	0.085238
358.000000	0.083483
357.000000	0.077394
356.000000	0.090831
355.000000	0.078984
354.000000	0.073257
353.000000	0.076870
352.000000	0.101256
351.000000	0.099835
350.000000	0.077617
349.000000	0.100453
348.000000	0.120456
347.000000	0.106099
346.000000	0.116486
345.000000	0.100478
344.000000	0.072298
343.000000	0.153462
342.000000	0.084124
341.000000	0.080385
340.000000	0.066132
339.000000	0.073073
338.000000	0.168631
337.000000	0.091762
336.000000	0.120629
335.000000	0.105550
334.000000	0.090167
333.000000	0.138133
332.000000	0.103406
331.000000	0.170319
330.000000	0.115902
329.000000	0.184854
328.000000	0.185847
327.000000	0.156091
326.000000	0.179432
325.000000	0.198737
324.000000	0.189555
323.000000	0.103330
322.000000	0.234499
321.000000	0.191899
320.000000	0.148547
319.000000	0.172010
318.000000	0.065325
317.000000	0.049808
316.000000	0.019293
315.000000	0.007333
314.000000	0.006863
313.000000	0.041297
312.000000	0.018053
311.000000	-0.015519
310.000000	0.020046
309.000000	0.081017
308.000000	0.081721
307.000000	0.055773
306.000000	0.028022
305.000000	0.058832
304.000000	0.057301
303.000000	0.050849
302.000000	0.054984
301.000000	0.039192
300.000000	0.020221
299.000000	0.059966
298.000000	0.088185
297.000000	0.052659
296.000000	0.060169
295.000000	0.032639
294.000000	0.025552
293.000000	0.045867
292.000000	0.049565
291.000000	0.036831
290.000000	0.028422
289.000000	0.011424
288.000000	0.002742
287.000000	0.054782
286.000000	0.072659
285.000000	0.059785
284.000000	0.064098
283.000000	0.040440
282.000000	0.005795
281.000000	0.001520
280.000000	0.030601
279.000000	0.027376
278.000000	0.012041
277.000000	0.072216
276.000000	0.040139
275.000000	0.045449
274.000000	0.015031
273.000000	0.029309
272.000000	0.000677
271.000000	0.011725
270.000000	-0.016507
269.000000	0.002242
268.000000	-0.001371
267.000000	0.023523
266.000000	-0.005107
265.000000	-0.001281
264.000000	0.054501
263.000000	0.053543
262.000000	0.046225
261.000000	0.051022
260.000000	0.059711
259.000000	0.028426
258.000000	0.049453
257.000000	0.052523
256.000000	0.058369
255.000000	0.115562
254.000000	0.098807
253.000000	0.094465
252.000000	0.107768
251.000000	0.086176
250.000000	0.073121
249.000000	0.086542
248.000000	0.080415
247.000000	0.095331
246.000000	0.107200
245.000000	0.068030
244.000000	0.054801
243.000000	0.087106
242.000000	0.090756
241.000000	0.130651
240.000000	0.143476
239.000000	0.075480
238.000000	0.085326
237.000000	0.094917
236.000000	0.107292
235.000000	0.130030
234.000000	0.122151
233.000000	0.124499
232.000000	0.109023
231.000000	0.156420
230.000000	0.151901
229.000000	0.082488
228.000000	0.070224
227.000000	0.120964
226.000000	0.181300
225.000000	0.215621
224.000000	0.194948
223.000000	0.198455
222.000000	0.232868
221.000000	0.199214
220.000000	0.215605
219.000000	0.271722
218.000000	0.281144
217.000000	0.299852
216.000000	0.337598
215.000000	0.292335
214.000000	0.241960
213.000000	0.180003
212.000000	0.251851
211.000000	0.408755
210.000000	0.399375
209.000000	0.503449
208.000000	0.688116
207.000000	0.666809
206.000000	0.848297
205.000000	1.173755
204.000000	1.434751
203.000000	1.593826
202.000000	1.743828
201.000000	1.919477
200.000000	2.933706
