PE UV       SUBTECH     SPECTRUM    ASCII       PEDS        4.00        
   -1
RDChevreUK 22.Sample.asc
18/03/05
13:45:56.00
18/03/05
13:45:56.00
Administrator

200.000000
1
Lambda 750
750N8071901
PerkinElmer UV WinLab 6.0.4.0738 / 1.61.00 Lambda 900

0
0
3350/servo 860.8/2
0
0
UV/VIS
1
1
1
CommonBeamDepol,150mm sphere / downward view
0
0
0
0
Program
Program
3350/servo 860.8/2
3350/0.2 860.8/0.2
3350/0.2 860.8/0.2
0
1
 
 
 
0
 
860.8
319.2
860.8
Front
100
on
 
 
0
0
0
 
0
 
 
 
0
 
 
0
0
0
0
0
 
 
 
 
0
0


0
0
#HDR
-1
-1
#GR
nm
%R
1.0
0.0
2350.000000
-1.000000
2151
8
62.632832
10.311273
#DATA
2350.000000	16.158153
2349.000000	16.216966
2348.000000	15.960026
2347.000000	16.863696
2346.000000	15.823412
2345.000000	15.993554
2344.000000	16.037669
2343.000000	15.751779
2342.000000	16.071481
2341.000000	16.466230
2340.000000	16.103934
2339.000000	16.445195
2338.000000	16.587697
2337.000000	16.691320
2336.000000	16.786172
2335.000000	16.765182
2334.000000	16.492482
2333.000000	16.876583
2332.000000	17.255015
2331.000000	16.881137
2330.000000	16.672370
2329.000000	16.983230
2328.000000	16.970957
2327.000000	16.611283
2326.000000	16.541857
2325.000000	16.770769
2324.000000	16.396465
2323.000000	16.303538
2322.000000	16.444201
2321.000000	16.632434
2320.000000	16.301631
2319.000000	16.391091
2318.000000	16.469366
2317.000000	16.652967
2316.000000	16.270462
2315.000000	15.934346
2314.000000	15.932723
2313.000000	16.090032
2312.000000	15.855699
2311.000000	15.919287
2310.000000	15.772224
2309.000000	15.609294
2308.000000	15.688543
2307.000000	15.709502
2306.000000	15.599379
2305.000000	15.676870
2304.000000	15.399712
2303.000000	15.464145
2302.000000	15.537028
2301.000000	15.334214
2300.000000	15.106343
2299.000000	15.127766
2298.000000	15.368240
2297.000000	15.307881
2296.000000	15.306590
2295.000000	15.094684
2294.000000	15.062963
2293.000000	14.990887
2292.000000	14.944010
2291.000000	14.960350
2290.000000	14.996055
2289.000000	14.802291
2288.000000	14.836689
2287.000000	14.924600
2286.000000	14.870088
2285.000000	14.948758
2284.000000	15.013657
2283.000000	14.949149
2282.000000	14.839279
2281.000000	14.799045
2280.000000	15.004538
2279.000000	15.065011
2278.000000	15.041450
2277.000000	14.873169
2276.000000	15.136327
2275.000000	15.135637
2274.000000	15.008341
2273.000000	15.190131
2272.000000	15.306489
2271.000000	15.193076
2270.000000	15.238512
2269.000000	15.470514
2268.000000	15.597923
2267.000000	15.570848
2266.000000	15.529085
2265.000000	15.626984
2264.000000	15.689218
2263.000000	15.721904
2262.000000	15.854536
2261.000000	16.159407
2260.000000	16.157686
2259.000000	16.234924
2258.000000	16.530236
2257.000000	16.662848
2256.000000	16.588672
2255.000000	16.817702
2254.000000	17.194594
2253.000000	17.279288
2252.000000	17.426957
2251.000000	17.647017
2250.000000	17.840670
2249.000000	18.128386
2248.000000	18.281604
2247.000000	18.430473
2246.000000	18.655576
2245.000000	18.695961
2244.000000	18.886360
2243.000000	19.045989
2242.000000	19.075865
2241.000000	19.171519
2240.000000	19.309911
2239.000000	19.411569
2238.000000	19.519108
2237.000000	19.743425
2236.000000	19.748533
2235.000000	19.740148
2234.000000	19.816228
2233.000000	19.980092
2232.000000	20.147943
2231.000000	20.015766
2230.000000	19.963035
2229.000000	20.054163
2228.000000	20.121488
2227.000000	20.191877
2226.000000	20.236699
2225.000000	20.065481
2224.000000	20.035427
2223.000000	20.054801
2222.000000	20.114491
2221.000000	20.025385
2220.000000	20.093728
2219.000000	20.091227
2218.000000	19.972777
2217.000000	19.876997
2216.000000	19.799103
2215.000000	19.700913
2214.000000	19.753101
2213.000000	19.875645
2212.000000	19.777101
2211.000000	19.608429
2210.000000	19.552146
2209.000000	19.402050
2208.000000	19.262023
2207.000000	19.347272
2206.000000	19.315616
2205.000000	19.285398
2204.000000	19.218739
2203.000000	19.291677
2202.000000	19.247516
2201.000000	19.120797
2200.000000	19.025236
2199.000000	18.840486
2198.000000	18.776309
2197.000000	18.724893
2196.000000	18.669145
2195.000000	18.485048
2194.000000	18.476787
2193.000000	18.502395
2192.000000	18.506769
2191.000000	18.467072
2190.000000	18.266270
2189.000000	18.257861
2188.000000	18.100156
2187.000000	18.093728
2186.000000	18.102010
2185.000000	18.081267
2184.000000	18.018365
2183.000000	18.064677
2182.000000	17.952971
2181.000000	17.916780
2180.000000	17.877510
2179.000000	17.832727
2178.000000	17.801633
2177.000000	17.823314
2176.000000	17.878462
2175.000000	17.911404
2174.000000	18.009001
2173.000000	17.780559
2172.000000	17.905607
2171.000000	18.109068
2170.000000	18.093649
2169.000000	18.248950
2168.000000	18.288227
2167.000000	18.389156
2166.000000	18.561915
2165.000000	18.444761
2164.000000	18.640631
2163.000000	18.640412
2162.000000	18.721785
2161.000000	18.772973
2160.000000	18.967001
2159.000000	19.026757
2158.000000	19.178708
2157.000000	19.178103
2156.000000	19.417131
2155.000000	19.641404
2154.000000	19.747337
2153.000000	19.920942
2152.000000	20.053196
2151.000000	20.040268
2150.000000	20.110369
2149.000000	20.191692
2148.000000	20.333402
2147.000000	20.687428
2146.000000	20.797179
2145.000000	20.956214
2144.000000	21.172056
2143.000000	21.073007
2142.000000	21.372078
2141.000000	21.473667
2140.000000	21.738339
2139.000000	21.780675
2138.000000	22.196142
2137.000000	22.152580
2136.000000	22.042773
2135.000000	22.329435
2134.000000	22.360621
2133.000000	22.278290
2132.000000	22.624228
2131.000000	22.914954
2130.000000	22.832397
2129.000000	22.784129
2128.000000	22.782014
2127.000000	22.789095
2126.000000	22.838317
2125.000000	22.937682
2124.000000	23.132205
2123.000000	22.834174
2122.000000	23.162840
2121.000000	23.267890
2120.000000	23.197496
2119.000000	23.332368
2118.000000	23.594018
2117.000000	23.340159
2116.000000	23.337817
2115.000000	23.613148
2114.000000	23.653336
2113.000000	23.539395
2112.000000	23.751101
2111.000000	23.608818
2110.000000	23.657043
2109.000000	23.754867
2108.000000	23.650522
2107.000000	23.741801
2106.000000	23.767180
2105.000000	23.602270
2104.000000	23.733366
2103.000000	23.867892
2102.000000	23.768651
2101.000000	23.870986
2100.000000	23.721428
2099.000000	23.916555
2098.000000	23.929721
2097.000000	23.929944
2096.000000	23.923319
2095.000000	23.862414
2094.000000	23.943380
2093.000000	23.766211
2092.000000	23.739212
2091.000000	23.641230
2090.000000	23.732199
2089.000000	23.724667
2088.000000	23.710387
2087.000000	23.599331
2086.000000	23.714457
2085.000000	23.664900
2084.000000	23.479584
2083.000000	23.436871
2082.000000	23.437912
2081.000000	23.362299
2080.000000	23.281697
2079.000000	23.244181
2078.000000	23.077631
2077.000000	23.040059
2076.000000	22.925811
2075.000000	22.706206
2074.000000	22.680390
2073.000000	22.670692
2072.000000	22.490667
2071.000000	22.397077
2070.000000	22.261583
2069.000000	22.092943
2068.000000	21.926675
2067.000000	21.832015
2066.000000	21.697303
2065.000000	21.533697
2064.000000	21.432275
2063.000000	21.338065
2062.000000	21.195729
2061.000000	21.054288
2060.000000	20.908373
2059.000000	20.751994
2058.000000	20.613914
2057.000000	20.533629
2056.000000	20.425625
2055.000000	20.244405
2054.000000	20.146013
2053.000000	20.043964
2052.000000	19.970639
2051.000000	19.922936
2050.000000	19.762869
2049.000000	19.608389
2048.000000	19.621163
2047.000000	19.622333
2046.000000	19.523717
2045.000000	19.486297
2044.000000	19.489954
2043.000000	19.563705
2042.000000	19.587316
2041.000000	19.566826
2040.000000	19.633197
2039.000000	19.677999
2038.000000	19.700330
2037.000000	19.725310
2036.000000	19.780297
2035.000000	19.950207
2034.000000	20.042845
2033.000000	20.094324
2032.000000	20.259108
2031.000000	20.374508
2030.000000	20.439814
2029.000000	20.561675
2028.000000	20.772977
2027.000000	20.926006
2026.000000	20.986052
2025.000000	21.099293
2024.000000	21.187679
2023.000000	21.267432
2022.000000	21.358691
2021.000000	21.420209
2020.000000	21.467310
2019.000000	21.522243
2018.000000	21.539048
2017.000000	21.570596
2016.000000	21.579939
2015.000000	21.574758
2014.000000	21.563739
2013.000000	21.575143
2012.000000	21.602207
2011.000000	21.570350
2010.000000	21.537375
2009.000000	21.492845
2008.000000	21.423112
2007.000000	21.364228
2006.000000	21.252386
2005.000000	21.240715
2004.000000	21.217659
2003.000000	21.121228
2002.000000	21.067849
2001.000000	21.006146
2000.000000	20.923734
1999.000000	20.861992
1998.000000	20.758114
1997.000000	20.650479
1996.000000	20.590367
1995.000000	20.480475
1994.000000	20.328757
1993.000000	20.228874
1992.000000	20.195188
1991.000000	20.089163
1990.000000	20.037755
1989.000000	19.949643
1988.000000	19.888547
1987.000000	19.788611
1986.000000	19.705863
1985.000000	19.591698
1984.000000	19.494553
1983.000000	19.453865
1982.000000	19.394009
1981.000000	19.332160
1980.000000	19.263194
1979.000000	19.156856
1978.000000	19.080261
1977.000000	18.940390
1976.000000	18.899692
1975.000000	18.851101
1974.000000	18.719530
1973.000000	18.700076
1972.000000	18.624304
1971.000000	18.519678
1970.000000	18.488832
1969.000000	18.400191
1968.000000	18.370912
1967.000000	18.311410
1966.000000	18.228192
1965.000000	18.171290
1964.000000	18.094991
1963.000000	18.031886
1962.000000	18.007881
1961.000000	17.884210
1960.000000	17.835112
1959.000000	17.774733
1958.000000	17.736071
1957.000000	17.705727
1956.000000	17.620278
1955.000000	17.618001
1954.000000	17.477754
1953.000000	17.447596
1952.000000	17.443012
1951.000000	17.419464
1950.000000	17.416913
1949.000000	17.380191
1948.000000	17.444599
1947.000000	17.380423
1946.000000	17.329273
1945.000000	17.344741
1944.000000	17.317150
1943.000000	17.371642
1942.000000	17.372899
1941.000000	17.421298
1940.000000	17.498508
1939.000000	17.594936
1938.000000	17.656019
1937.000000	17.859460
1936.000000	17.931873
1935.000000	18.004681
1934.000000	18.041708
1933.000000	18.216628
1932.000000	18.256663
1931.000000	18.364042
1930.000000	18.573270
1929.000000	18.662951
1928.000000	18.901327
1927.000000	19.137468
1926.000000	19.322011
1925.000000	19.478719
1924.000000	19.826908
1923.000000	20.001560
1922.000000	20.260994
1921.000000	20.542699
1920.000000	20.759984
1919.000000	20.961481
1918.000000	21.234078
1917.000000	21.703957
1916.000000	21.892171
1915.000000	22.440432
1914.000000	22.805367
1913.000000	23.126406
1912.000000	23.380622
1911.000000	23.793138
1910.000000	24.233498
1909.000000	24.623109
1908.000000	25.107827
1907.000000	25.579082
1906.000000	26.045478
1905.000000	26.627200
1904.000000	27.115847
1903.000000	27.616818
1902.000000	28.109318
1901.000000	28.692650
1900.000000	29.216444
1899.000000	29.819059
1898.000000	30.322029
1897.000000	30.919897
1896.000000	31.445277
1895.000000	31.953405
1894.000000	32.553943
1893.000000	33.078400
1892.000000	33.609802
1891.000000	34.135983
1890.000000	34.670988
1889.000000	35.192254
1888.000000	35.700612
1887.000000	36.138122
1886.000000	36.670234
1885.000000	37.147510
1884.000000	37.564599
1883.000000	37.975158
1882.000000	38.363859
1881.000000	38.855810
1880.000000	39.261331
1879.000000	39.640450
1878.000000	39.974658
1877.000000	40.300426
1876.000000	40.603505
1875.000000	40.928746
1874.000000	41.210143
1873.000000	41.441832
1872.000000	41.700553
1871.000000	41.979953
1870.000000	42.127236
1869.000000	42.403638
1868.000000	42.531378
1867.000000	42.665611
1866.000000	42.802336
1865.000000	42.854583
1864.000000	42.964786
1863.000000	43.067453
1862.000000	43.209665
1861.000000	43.211014
1860.000000	43.310744
1859.000000	43.365262
1858.000000	43.427543
1857.000000	43.427961
1856.000000	43.468088
1855.000000	43.479529
1854.000000	43.514048
1853.000000	43.563386
1852.000000	43.549137
1851.000000	43.572713
1850.000000	43.586721
1849.000000	43.575401
1848.000000	43.526573
1847.000000	43.519389
1846.000000	43.525359
1845.000000	43.478877
1844.000000	43.429910
1843.000000	43.405985
1842.000000	43.377724
1841.000000	43.343064
1840.000000	43.273784
1839.000000	43.227572
1838.000000	43.180071
1837.000000	43.074498
1836.000000	43.022547
1835.000000	42.979483
1834.000000	42.897428
1833.000000	42.838136
1832.000000	42.780536
1831.000000	42.712926
1830.000000	42.641871
1829.000000	42.593295
1828.000000	42.524698
1827.000000	42.466374
1826.000000	42.411647
1825.000000	42.360953
1824.000000	42.313667
1823.000000	42.277231
1822.000000	42.218885
1821.000000	42.145271
1820.000000	42.077763
1819.000000	42.048338
1818.000000	42.003650
1817.000000	41.925359
1816.000000	41.884369
1815.000000	41.855213
1814.000000	41.807022
1813.000000	41.760438
1812.000000	41.686411
1811.000000	41.640815
1810.000000	41.620877
1809.000000	41.564156
1808.000000	41.537354
1807.000000	41.496088
1806.000000	41.419282
1805.000000	41.373937
1804.000000	41.329285
1803.000000	41.285686
1802.000000	41.233763
1801.000000	41.189950
1800.000000	41.152659
1799.000000	41.109241
1798.000000	41.092825
1797.000000	41.071258
1796.000000	41.010309
1795.000000	40.995913
1794.000000	41.003234
1793.000000	40.946022
1792.000000	40.904086
1791.000000	40.898038
1790.000000	40.860308
1789.000000	40.799275
1788.000000	40.763950
1787.000000	40.716770
1786.000000	40.688393
1785.000000	40.665466
1784.000000	40.595797
1783.000000	40.550576
1782.000000	40.481314
1781.000000	40.412956
1780.000000	40.363485
1779.000000	40.316916
1778.000000	40.240934
1777.000000	40.135091
1776.000000	40.059920
1775.000000	39.972928
1774.000000	39.870161
1773.000000	39.800027
1772.000000	39.694100
1771.000000	39.586501
1770.000000	39.511248
1769.000000	39.405086
1768.000000	39.333617
1767.000000	39.250490
1766.000000	39.141200
1765.000000	39.049053
1764.000000	38.991463
1763.000000	38.902749
1762.000000	38.774797
1761.000000	38.712724
1760.000000	38.641459
1759.000000	38.553775
1758.000000	38.433660
1757.000000	38.360956
1756.000000	38.283298
1755.000000	38.213814
1754.000000	38.112797
1753.000000	38.007942
1752.000000	37.934871
1751.000000	37.832399
1750.000000	37.750789
1749.000000	37.674574
1748.000000	37.545017
1747.000000	37.440987
1746.000000	37.368151
1745.000000	37.259290
1744.000000	37.125695
1743.000000	37.047878
1742.000000	36.990089
1741.000000	36.895167
1740.000000	36.836969
1739.000000	36.688267
1738.000000	36.619008
1737.000000	36.557483
1736.000000	36.556747
1735.000000	36.511113
1734.000000	36.472672
1733.000000	36.464400
1732.000000	36.464386
1731.000000	36.480212
1730.000000	36.457107
1729.000000	36.513225
1728.000000	36.604424
1727.000000	36.656224
1726.000000	36.760334
1725.000000	36.851581
1724.000000	36.983773
1723.000000	37.119509
1722.000000	37.227883
1721.000000	37.350706
1720.000000	37.513565
1719.000000	37.632552
1718.000000	37.782654
1717.000000	37.914606
1716.000000	38.047647
1715.000000	38.155286
1714.000000	38.276949
1713.000000	38.415756
1712.000000	38.539431
1711.000000	38.625965
1710.000000	38.696526
1709.000000	38.770780
1708.000000	38.863883
1707.000000	38.946223
1706.000000	39.009921
1705.000000	39.054990
1704.000000	39.115081
1703.000000	39.155985
1702.000000	39.152006
1701.000000	39.239720
1700.000000	39.270082
1699.000000	39.313550
1698.000000	39.379946
1697.000000	39.468217
1696.000000	39.501997
1695.000000	39.585133
1694.000000	39.647183
1693.000000	39.748089
1692.000000	39.844395
1691.000000	39.982765
1690.000000	40.133660
1689.000000	40.265523
1688.000000	40.447685
1687.000000	40.629736
1686.000000	40.845697
1685.000000	41.072744
1684.000000	41.300102
1683.000000	41.569812
1682.000000	41.822405
1681.000000	42.059824
1680.000000	42.337637
1679.000000	42.586147
1678.000000	42.851169
1677.000000	43.130345
1676.000000	43.432569
1675.000000	43.743471
1674.000000	43.975866
1673.000000	44.234713
1672.000000	44.498646
1671.000000	44.733051
1670.000000	44.957041
1669.000000	45.238117
1668.000000	45.412663
1667.000000	45.614553
1666.000000	45.785709
1665.000000	45.943217
1664.000000	46.071025
1663.000000	46.223500
1662.000000	46.359587
1661.000000	46.458791
1660.000000	46.563925
1659.000000	46.674126
1658.000000	46.741650
1657.000000	46.816868
1656.000000	46.894995
1655.000000	46.940753
1654.000000	46.979750
1653.000000	47.000462
1652.000000	47.024906
1651.000000	47.036009
1650.000000	47.041235
1649.000000	47.051691
1648.000000	47.062350
1647.000000	47.039778
1646.000000	47.007976
1645.000000	46.993705
1644.000000	46.977748
1643.000000	46.956464
1642.000000	46.912349
1641.000000	46.868608
1640.000000	46.828283
1639.000000	46.787266
1638.000000	46.767868
1637.000000	46.716811
1636.000000	46.639344
1635.000000	46.598885
1634.000000	46.545449
1633.000000	46.479045
1632.000000	46.433497
1631.000000	46.366110
1630.000000	46.277427
1629.000000	46.222882
1628.000000	46.180504
1627.000000	46.118408
1626.000000	46.054882
1625.000000	45.984559
1624.000000	45.904211
1623.000000	45.836123
1622.000000	45.782349
1621.000000	45.698075
1620.000000	45.624124
1619.000000	45.549849
1618.000000	45.460015
1617.000000	45.402197
1616.000000	45.319526
1615.000000	45.228424
1614.000000	45.157500
1613.000000	45.082860
1612.000000	44.998291
1611.000000	44.907581
1610.000000	44.819093
1609.000000	44.729959
1608.000000	44.653361
1607.000000	44.567181
1606.000000	44.464635
1605.000000	44.363253
1604.000000	44.264224
1603.000000	44.173465
1602.000000	44.086620
1601.000000	43.990804
1600.000000	43.904703
1599.000000	43.812273
1598.000000	43.724235
1597.000000	43.647404
1596.000000	43.566994
1595.000000	43.475800
1594.000000	43.398060
1593.000000	43.323132
1592.000000	43.239876
1591.000000	43.153796
1590.000000	43.078585
1589.000000	43.005273
1588.000000	42.933806
1587.000000	42.876736
1586.000000	42.807524
1585.000000	42.725803
1584.000000	42.660174
1583.000000	42.587376
1582.000000	42.505877
1581.000000	42.448638
1580.000000	42.380760
1579.000000	42.293883
1578.000000	42.246494
1577.000000	42.200186
1576.000000	42.134209
1575.000000	42.062963
1574.000000	41.985586
1573.000000	41.943723
1572.000000	41.899234
1571.000000	41.818862
1570.000000	41.766371
1569.000000	41.702801
1568.000000	41.645326
1567.000000	41.613052
1566.000000	41.562664
1565.000000	41.508125
1564.000000	41.474451
1563.000000	41.438540
1562.000000	41.388483
1561.000000	41.358234
1560.000000	41.326647
1559.000000	41.298115
1558.000000	41.261379
1557.000000	41.230873
1556.000000	41.186804
1555.000000	41.148816
1554.000000	41.099963
1553.000000	41.056710
1552.000000	41.012205
1551.000000	40.956891
1550.000000	40.915866
1549.000000	40.866895
1548.000000	40.795917
1547.000000	40.709461
1546.000000	40.617806
1545.000000	40.535431
1544.000000	40.432188
1543.000000	40.331425
1542.000000	40.231465
1541.000000	40.115752
1540.000000	40.004928
1539.000000	39.895914
1538.000000	39.775560
1537.000000	39.642808
1536.000000	39.510611
1535.000000	39.378341
1534.000000	39.276903
1533.000000	39.167379
1532.000000	39.044342
1531.000000	38.919781
1530.000000	38.818401
1529.000000	38.691806
1528.000000	38.578735
1527.000000	38.475822
1526.000000	38.370980
1525.000000	38.285526
1524.000000	38.198583
1523.000000	38.116980
1522.000000	38.041854
1521.000000	37.963131
1520.000000	37.899357
1519.000000	37.843697
1518.000000	37.776912
1517.000000	37.682083
1516.000000	37.657433
1515.000000	37.617377
1514.000000	37.575984
1513.000000	37.524380
1512.000000	37.481881
1511.000000	37.434622
1510.000000	37.413682
1509.000000	37.409099
1508.000000	37.345609
1507.000000	37.324869
1506.000000	37.321402
1505.000000	37.310355
1504.000000	37.297242
1503.000000	37.300992
1502.000000	37.275314
1501.000000	37.296962
1500.000000	37.294965
1499.000000	37.300628
1498.000000	37.329325
1497.000000	37.369320
1496.000000	37.390847
1495.000000	37.450038
1494.000000	37.485430
1493.000000	37.524660
1492.000000	37.571555
1491.000000	37.632999
1490.000000	37.709806
1489.000000	37.796365
1488.000000	37.899083
1487.000000	37.963350
1486.000000	38.073186
1485.000000	38.124385
1484.000000	38.254456
1483.000000	38.360438
1482.000000	38.430858
1481.000000	38.531823
1480.000000	38.648233
1479.000000	38.768301
1478.000000	38.864835
1477.000000	38.960649
1476.000000	39.063839
1475.000000	39.163728
1474.000000	39.256431
1473.000000	39.348557
1472.000000	39.457014
1471.000000	39.527002
1470.000000	39.603388
1469.000000	39.717693
1468.000000	39.776950
1467.000000	39.881514
1466.000000	39.934232
1465.000000	40.036986
1464.000000	40.115980
1463.000000	40.189939
1462.000000	40.249456
1461.000000	40.312538
1460.000000	40.414114
1459.000000	40.504244
1458.000000	40.580344
1457.000000	40.658567
1456.000000	40.749950
1455.000000	40.829152
1454.000000	40.914585
1453.000000	41.012934
1452.000000	41.100484
1451.000000	41.210566
1450.000000	41.320102
1449.000000	41.404587
1448.000000	41.508673
1447.000000	41.608890
1446.000000	41.709555
1445.000000	41.816678
1444.000000	41.943911
1443.000000	42.047284
1442.000000	42.151717
1441.000000	42.278416
1440.000000	42.424559
1439.000000	42.546569
1438.000000	42.688689
1437.000000	42.826600
1436.000000	42.978144
1435.000000	43.126754
1434.000000	43.264347
1433.000000	43.439116
1432.000000	43.588769
1431.000000	43.755632
1430.000000	43.917324
1429.000000	44.112190
1428.000000	44.280236
1427.000000	44.476473
1426.000000	44.679734
1425.000000	44.875840
1424.000000	45.074047
1423.000000	45.295014
1422.000000	45.516544
1421.000000	45.750711
1420.000000	45.996456
1419.000000	46.218635
1418.000000	46.443837
1417.000000	46.703357
1416.000000	46.968523
1415.000000	47.221390
1414.000000	47.461754
1413.000000	47.710248
1412.000000	47.981065
1411.000000	48.235287
1410.000000	48.483993
1409.000000	48.753943
1408.000000	49.022275
1407.000000	49.259135
1406.000000	49.518113
1405.000000	49.782621
1404.000000	50.029008
1403.000000	50.279206
1402.000000	50.516191
1401.000000	50.752045
1400.000000	51.000581
1399.000000	51.232369
1398.000000	51.444638
1397.000000	51.677258
1396.000000	51.901986
1395.000000	52.118089
1394.000000	52.340774
1393.000000	52.544172
1392.000000	52.740180
1391.000000	52.939335
1390.000000	53.125729
1389.000000	53.318334
1388.000000	53.504837
1387.000000	53.670271
1386.000000	53.835016
1385.000000	53.996242
1384.000000	54.158496
1383.000000	54.308200
1382.000000	54.436494
1381.000000	54.578639
1380.000000	54.720666
1379.000000	54.849624
1378.000000	54.970806
1377.000000	55.092437
1376.000000	55.190693
1375.000000	55.286274
1374.000000	55.391651
1373.000000	55.500116
1372.000000	55.596626
1371.000000	55.680230
1370.000000	55.763301
1369.000000	55.862682
1368.000000	55.958114
1367.000000	56.042410
1366.000000	56.130836
1365.000000	56.223052
1364.000000	56.322495
1363.000000	56.419183
1362.000000	56.505338
1361.000000	56.603817
1360.000000	56.708262
1359.000000	56.821938
1358.000000	56.920128
1357.000000	57.009469
1356.000000	57.116367
1355.000000	57.217569
1354.000000	57.337989
1353.000000	57.439542
1352.000000	57.519047
1351.000000	57.614755
1350.000000	57.700189
1349.000000	57.791494
1348.000000	57.914204
1347.000000	58.019149
1346.000000	58.117521
1345.000000	58.208180
1344.000000	58.304610
1343.000000	58.392516
1342.000000	58.453252
1341.000000	58.535904
1340.000000	58.615794
1339.000000	58.709377
1338.000000	58.787486
1337.000000	58.852441
1336.000000	58.925565
1335.000000	58.982519
1334.000000	59.021711
1333.000000	59.083827
1332.000000	59.147390
1331.000000	59.206447
1330.000000	59.271693
1329.000000	59.335116
1328.000000	59.386533
1327.000000	59.461393
1326.000000	59.487553
1325.000000	59.503561
1324.000000	59.530433
1323.000000	59.582250
1322.000000	59.595558
1321.000000	59.621729
1320.000000	59.637335
1319.000000	59.663889
1318.000000	59.688587
1317.000000	59.709913
1316.000000	59.731562
1315.000000	59.777741
1314.000000	59.773412
1313.000000	59.798725
1312.000000	59.829027
1311.000000	59.850198
1310.000000	59.862921
1309.000000	59.883055
1308.000000	59.911029
1307.000000	59.906563
1306.000000	59.923984
1305.000000	59.935369
1304.000000	59.994615
1303.000000	59.995222
1302.000000	59.989189
1301.000000	59.988117
1300.000000	59.991861
1299.000000	60.001721
1298.000000	60.006396
1297.000000	60.003765
1296.000000	59.989394
1295.000000	59.999069
1294.000000	60.005223
1293.000000	59.993765
1292.000000	59.982330
1291.000000	60.012206
1290.000000	60.008441
1289.000000	59.992775
1288.000000	59.969378
1287.000000	59.958744
1286.000000	59.950851
1285.000000	59.939929
1284.000000	59.955592
1283.000000	59.902747
1282.000000	59.900154
1281.000000	59.918148
1280.000000	59.910493
1279.000000	59.895908
1278.000000	59.912925
1277.000000	59.904742
1276.000000	59.913485
1275.000000	59.915393
1274.000000	59.926274
1273.000000	59.939095
1272.000000	59.916263
1271.000000	59.920171
1270.000000	59.918901
1269.000000	59.940344
1268.000000	59.958742
1267.000000	59.954092
1266.000000	59.999212
1265.000000	59.980113
1264.000000	60.021127
1263.000000	60.012411
1262.000000	60.029953
1261.000000	60.025021
1260.000000	60.051642
1259.000000	60.070941
1258.000000	60.091868
1257.000000	60.081416
1256.000000	60.090459
1255.000000	60.088190
1254.000000	60.102237
1253.000000	60.087967
1252.000000	60.085253
1251.000000	60.088176
1250.000000	60.091299
1249.000000	60.059443
1248.000000	60.041753
1247.000000	60.048767
1246.000000	60.002687
1245.000000	60.001091
1244.000000	59.983205
1243.000000	59.954314
1242.000000	59.913066
1241.000000	59.899801
1240.000000	59.851781
1239.000000	59.821964
1238.000000	59.787519
1237.000000	59.720988
1236.000000	59.700226
1235.000000	59.654781
1234.000000	59.609600
1233.000000	59.569056
1232.000000	59.514917
1231.000000	59.479467
1230.000000	59.446319
1229.000000	59.406596
1228.000000	59.345981
1227.000000	59.277408
1226.000000	59.246708
1225.000000	59.201176
1224.000000	59.178503
1223.000000	59.111906
1222.000000	59.058251
1221.000000	59.013929
1220.000000	58.974625
1219.000000	58.926699
1218.000000	58.873555
1217.000000	58.799134
1216.000000	58.750997
1215.000000	58.703192
1214.000000	58.660898
1213.000000	58.637708
1212.000000	58.577509
1211.000000	58.522540
1210.000000	58.475852
1209.000000	58.443362
1208.000000	58.362064
1207.000000	58.304628
1206.000000	58.277964
1205.000000	58.199171
1204.000000	58.150871
1203.000000	58.098373
1202.000000	58.061034
1201.000000	57.999147
1200.000000	57.963743
1199.000000	57.921513
1198.000000	57.874623
1197.000000	57.824684
1196.000000	57.783649
1195.000000	57.751349
1194.000000	57.710331
1193.000000	57.674955
1192.000000	57.636634
1191.000000	57.633877
1190.000000	57.610669
1189.000000	57.581224
1188.000000	57.584677
1187.000000	57.588751
1186.000000	57.599574
1185.000000	57.616286
1184.000000	57.639796
1183.000000	57.670826
1182.000000	57.711162
1181.000000	57.748641
1180.000000	57.796012
1179.000000	57.868599
1178.000000	57.938614
1177.000000	58.016576
1176.000000	58.105973
1175.000000	58.197424
1174.000000	58.290327
1173.000000	58.377678
1172.000000	58.475498
1171.000000	58.577832
1170.000000	58.681919
1169.000000	58.785421
1168.000000	58.896262
1167.000000	59.019532
1166.000000	59.144759
1165.000000	59.263774
1164.000000	59.388085
1163.000000	59.498871
1162.000000	59.604020
1161.000000	59.727925
1160.000000	59.840157
1159.000000	59.944157
1158.000000	60.051669
1157.000000	60.160371
1156.000000	60.274150
1155.000000	60.381770
1154.000000	60.474508
1153.000000	60.555812
1152.000000	60.646308
1151.000000	60.738211
1150.000000	60.818442
1149.000000	60.899806
1148.000000	60.976974
1147.000000	61.054353
1146.000000	61.143555
1145.000000	61.208869
1144.000000	61.267827
1143.000000	61.351310
1142.000000	61.425576
1141.000000	61.498537
1140.000000	61.567388
1139.000000	61.626918
1138.000000	61.701133
1137.000000	61.759052
1136.000000	61.809403
1135.000000	61.865230
1134.000000	61.934574
1133.000000	61.985396
1132.000000	62.023740
1131.000000	62.080813
1130.000000	62.141949
1129.000000	62.178283
1128.000000	62.220222
1127.000000	62.263221
1126.000000	62.300940
1125.000000	62.327854
1124.000000	62.367575
1123.000000	62.381279
1122.000000	62.396749
1121.000000	62.425514
1120.000000	62.450094
1119.000000	62.482837
1118.000000	62.487106
1117.000000	62.486971
1116.000000	62.509115
1115.000000	62.524078
1114.000000	62.541180
1113.000000	62.556789
1112.000000	62.559017
1111.000000	62.558632
1110.000000	62.559774
1109.000000	62.583169
1108.000000	62.596613
1107.000000	62.607407
1106.000000	62.618897
1105.000000	62.615596
1104.000000	62.580513
1103.000000	62.597019
1102.000000	62.603331
1101.000000	62.615533
1100.000000	62.612404
1099.000000	62.630796
1098.000000	62.625964
1097.000000	62.621907
1096.000000	62.615049
1095.000000	62.609716
1094.000000	62.628179
1093.000000	62.618035
1092.000000	62.632290
1091.000000	62.632832
1090.000000	62.612647
1089.000000	62.609598
1088.000000	62.615154
1087.000000	62.616664
1086.000000	62.619439
1085.000000	62.613374
1084.000000	62.614778
1083.000000	62.576913
1082.000000	62.575967
1081.000000	62.586708
1080.000000	62.570754
1079.000000	62.573469
1078.000000	62.571617
1077.000000	62.532696
1076.000000	62.551847
1075.000000	62.516202
1074.000000	62.507764
1073.000000	62.523428
1072.000000	62.520195
1071.000000	62.485721
1070.000000	62.482523
1069.000000	62.471000
1068.000000	62.462181
1067.000000	62.460181
1066.000000	62.435789
1065.000000	62.413834
1064.000000	62.402913
1063.000000	62.400377
1062.000000	62.377328
1061.000000	62.386349
1060.000000	62.369395
1059.000000	62.373842
1058.000000	62.359388
1057.000000	62.361702
1056.000000	62.349983
1055.000000	62.293729
1054.000000	62.294443
1053.000000	62.309905
1052.000000	62.291264
1051.000000	62.286322
1050.000000	62.280941
1049.000000	62.247339
1048.000000	62.255049
1047.000000	62.203281
1046.000000	62.215339
1045.000000	62.185075
1044.000000	62.198033
1043.000000	62.192813
1042.000000	62.172936
1041.000000	62.172785
1040.000000	62.167353
1039.000000	62.147997
1038.000000	62.132454
1037.000000	62.135965
1036.000000	62.135886
1035.000000	62.114688
1034.000000	62.119026
1033.000000	62.095276
1032.000000	62.107524
1031.000000	62.116826
1030.000000	62.064359
1029.000000	62.064199
1028.000000	62.056767
1027.000000	62.070829
1026.000000	62.070856
1025.000000	62.059669
1024.000000	62.067604
1023.000000	62.060176
1022.000000	62.061762
1021.000000	62.044017
1020.000000	62.055123
1019.000000	62.050168
1018.000000	62.075803
1017.000000	62.073050
1016.000000	62.061563
1015.000000	62.042802
1014.000000	62.055164
1013.000000	62.067957
1012.000000	62.077901
1011.000000	62.088957
1010.000000	62.096016
1009.000000	62.093983
1008.000000	62.096442
1007.000000	62.112958
1006.000000	62.122346
1005.000000	62.124203
1004.000000	62.127977
1003.000000	62.134879
1002.000000	62.144481
1001.000000	62.156891
1000.000000	62.141627
999.000000	62.165754
998.000000	62.173918
997.000000	62.159996
996.000000	62.165678
995.000000	62.174743
994.000000	62.180068
993.000000	62.186367
992.000000	62.185327
991.000000	62.173128
990.000000	62.175251
989.000000	62.193283
988.000000	62.184726
987.000000	62.202059
986.000000	62.220471
985.000000	62.226772
984.000000	62.250837
983.000000	62.251484
982.000000	62.254669
981.000000	62.280503
980.000000	62.290422
979.000000	62.292526
978.000000	62.313662
977.000000	62.324333
976.000000	62.314975
975.000000	62.313910
974.000000	62.328278
973.000000	62.333605
972.000000	62.343045
971.000000	62.336248
970.000000	62.352907
969.000000	62.361621
968.000000	62.387262
967.000000	62.390450
966.000000	62.403671
965.000000	62.400893
964.000000	62.410748
963.000000	62.414954
962.000000	62.409823
961.000000	62.433485
960.000000	62.453564
959.000000	62.459979
958.000000	62.492688
957.000000	62.498388
956.000000	62.473483
955.000000	62.479654
954.000000	62.501872
953.000000	62.514452
952.000000	62.520956
951.000000	62.519136
950.000000	62.534794
949.000000	62.553536
948.000000	62.553462
947.000000	62.547523
946.000000	62.546153
945.000000	62.540281
944.000000	62.537377
943.000000	62.540078
942.000000	62.537371
941.000000	62.513386
940.000000	62.524501
939.000000	62.571678
938.000000	62.567644
937.000000	62.521997
936.000000	62.508051
935.000000	62.515664
934.000000	62.511664
933.000000	62.497906
932.000000	62.494534
931.000000	62.512075
930.000000	62.524443
929.000000	62.511334
928.000000	62.482228
927.000000	62.471954
926.000000	62.442592
925.000000	62.421233
924.000000	62.474348
923.000000	62.487906
922.000000	62.462185
921.000000	62.430315
920.000000	62.452189
919.000000	62.450398
918.000000	62.429841
917.000000	62.432683
916.000000	62.429544
915.000000	62.434999
914.000000	62.429818
913.000000	62.421337
912.000000	62.400214
911.000000	62.395653
910.000000	62.414668
909.000000	62.400410
908.000000	62.395781
907.000000	62.407836
906.000000	62.417277
905.000000	62.421150
904.000000	62.439130
903.000000	62.434790
902.000000	62.404431
901.000000	62.428407
900.000000	62.394271
899.000000	62.405928
898.000000	62.411895
897.000000	62.432475
896.000000	62.437124
895.000000	62.469591
894.000000	62.458802
893.000000	62.485369
892.000000	62.441588
891.000000	62.421134
890.000000	62.470121
889.000000	62.540699
888.000000	62.588804
887.000000	62.564094
886.000000	62.530548
885.000000	62.481114
884.000000	62.505944
883.000000	62.585250
882.000000	62.562557
881.000000	62.489383
880.000000	62.536553
879.000000	62.564130
878.000000	62.586325
877.000000	62.513481
876.000000	62.522195
875.000000	62.581770
874.000000	62.533919
873.000000	62.412100
872.000000	62.524295
871.000000	62.580050
870.000000	62.548529
869.000000	62.550776
868.000000	62.361984
867.000000	62.491390
866.000000	62.417835
865.000000	62.482053
864.000000	62.522386
863.000000	62.606301
862.000000	62.430257
861.000000	62.544122
860.000000	62.304560
859.000000	62.122411
858.000000	62.044453
857.000000	62.255670
856.000000	61.691177
855.000000	61.640602
854.000000	61.812658
853.000000	61.822232
852.000000	61.705644
851.000000	61.984541
850.000000	61.705215
849.000000	61.861352
848.000000	62.098732
847.000000	61.814676
846.000000	62.132385
845.000000	61.701372
844.000000	61.749584
843.000000	61.513921
842.000000	61.790117
841.000000	61.718729
840.000000	61.788660
839.000000	61.942318
838.000000	61.707514
837.000000	61.852555
836.000000	61.850432
835.000000	61.661331
834.000000	61.738384
833.000000	61.605741
832.000000	61.790735
831.000000	61.658965
830.000000	61.644967
829.000000	61.573695
828.000000	61.570155
827.000000	61.572971
826.000000	61.663604
825.000000	61.470089
824.000000	61.612636
823.000000	61.489018
822.000000	61.501838
821.000000	61.577060
820.000000	61.527594
819.000000	61.566326
818.000000	61.274931
817.000000	61.479273
816.000000	61.552981
815.000000	61.435403
814.000000	61.499486
813.000000	61.484806
812.000000	61.485681
811.000000	61.292379
810.000000	61.435480
809.000000	61.494165
808.000000	61.428866
807.000000	61.350564
806.000000	61.485100
805.000000	61.373177
804.000000	61.469863
803.000000	61.377208
802.000000	61.322973
801.000000	61.302536
800.000000	61.378846
799.000000	61.356152
798.000000	61.297760
797.000000	61.236122
796.000000	61.301130
795.000000	61.258809
794.000000	61.211215
793.000000	61.228431
792.000000	61.102609
791.000000	61.177401
790.000000	61.174410
789.000000	61.152551
788.000000	61.021097
787.000000	61.138837
786.000000	61.100595
785.000000	61.048478
784.000000	61.059399
783.000000	61.109886
782.000000	61.098851
781.000000	61.103653
780.000000	61.156937
779.000000	61.087715
778.000000	61.054471
777.000000	61.024076
776.000000	61.013927
775.000000	60.964903
774.000000	60.935075
773.000000	61.007932
772.000000	60.933131
771.000000	61.037649
770.000000	60.972739
769.000000	60.780555
768.000000	60.784083
767.000000	60.779418
766.000000	60.756345
765.000000	60.737501
764.000000	60.738760
763.000000	60.771572
762.000000	60.773440
761.000000	60.703350
760.000000	60.699700
759.000000	60.777865
758.000000	60.615250
757.000000	60.643733
756.000000	60.549638
755.000000	60.602458
754.000000	60.610605
753.000000	60.610667
752.000000	60.498317
751.000000	60.467217
750.000000	60.477508
749.000000	60.484031
748.000000	60.367831
747.000000	60.375221
746.000000	60.402659
745.000000	60.437708
744.000000	60.416227
743.000000	60.376221
742.000000	60.299390
741.000000	60.309240
740.000000	60.269074
739.000000	60.208747
738.000000	60.237195
737.000000	60.242884
736.000000	60.126656
735.000000	60.052164
734.000000	60.053369
733.000000	60.003785
732.000000	60.034309
731.000000	60.059576
730.000000	59.969416
729.000000	59.923962
728.000000	59.857843
727.000000	59.904585
726.000000	59.868659
725.000000	59.713780
724.000000	59.723022
723.000000	59.728782
722.000000	59.748218
721.000000	59.755062
720.000000	59.709687
719.000000	59.601860
718.000000	59.538709
717.000000	59.562479
716.000000	59.481171
715.000000	59.461590
714.000000	59.450002
713.000000	59.422016
712.000000	59.446504
711.000000	59.419801
710.000000	59.375898
709.000000	59.303660
708.000000	59.283871
707.000000	59.274242
706.000000	59.256317
705.000000	59.209429
704.000000	59.188826
703.000000	59.194994
702.000000	59.189604
701.000000	59.106488
700.000000	59.017125
699.000000	59.030663
698.000000	58.965453
697.000000	58.887449
696.000000	58.912273
695.000000	58.877392
694.000000	58.840835
693.000000	58.786620
692.000000	58.759824
691.000000	58.701623
690.000000	58.681588
689.000000	58.681885
688.000000	58.525551
687.000000	58.499399
686.000000	58.517261
685.000000	58.468665
684.000000	58.444704
683.000000	58.397981
682.000000	58.353015
681.000000	58.282421
680.000000	58.244635
679.000000	58.280214
678.000000	58.200338
677.000000	58.122104
676.000000	58.098983
675.000000	58.048122
674.000000	58.011604
673.000000	57.980326
672.000000	57.875225
671.000000	57.868962
670.000000	57.838365
669.000000	57.762819
668.000000	57.716644
667.000000	57.773434
666.000000	57.774830
665.000000	57.677657
664.000000	57.565594
663.000000	57.564594
662.000000	57.575074
661.000000	57.500945
660.000000	57.411650
659.000000	57.368084
658.000000	57.314047
657.000000	57.298805
656.000000	57.268661
655.000000	57.200632
654.000000	57.164465
653.000000	57.072305
652.000000	57.059401
651.000000	57.019895
650.000000	56.953406
649.000000	56.890700
648.000000	56.866569
647.000000	56.835038
646.000000	56.716323
645.000000	56.665226
644.000000	56.675648
643.000000	56.680202
642.000000	56.604305
641.000000	56.485629
640.000000	56.430649
639.000000	56.423391
638.000000	56.381873
637.000000	56.345637
636.000000	56.269582
635.000000	56.245548
634.000000	56.162189
633.000000	56.162754
632.000000	56.097694
631.000000	56.049948
630.000000	55.944615
629.000000	55.938765
628.000000	55.848016
627.000000	55.812488
626.000000	55.776936
625.000000	55.735166
624.000000	55.647625
623.000000	55.559297
622.000000	55.498892
621.000000	55.427065
620.000000	55.419783
619.000000	55.331935
618.000000	55.274154
617.000000	55.258417
616.000000	55.205840
615.000000	55.136385
614.000000	55.054665
613.000000	55.046337
612.000000	54.977467
611.000000	54.916840
610.000000	54.855734
609.000000	54.774445
608.000000	54.715933
607.000000	54.632817
606.000000	54.554972
605.000000	54.568037
604.000000	54.478814
603.000000	54.459904
602.000000	54.404633
601.000000	54.357917
600.000000	54.229152
599.000000	54.183941
598.000000	54.111393
597.000000	54.076408
596.000000	54.000045
595.000000	53.931445
594.000000	53.924393
593.000000	53.844375
592.000000	53.710777
591.000000	53.686213
590.000000	53.606219
589.000000	53.592588
588.000000	53.477102
587.000000	53.396115
586.000000	53.363748
585.000000	53.369330
584.000000	53.193450
583.000000	53.165050
582.000000	53.107246
581.000000	53.065717
580.000000	52.971642
579.000000	52.902054
578.000000	52.814511
577.000000	52.811408
576.000000	52.681162
575.000000	52.635845
574.000000	52.513976
573.000000	52.477035
572.000000	52.381563
571.000000	52.386459
570.000000	52.225737
569.000000	52.204530
568.000000	52.099155
567.000000	52.067132
566.000000	51.978194
565.000000	51.905058
564.000000	51.822840
563.000000	51.768779
562.000000	51.702659
561.000000	51.632035
560.000000	51.520525
559.000000	51.443352
558.000000	51.430480
557.000000	51.373026
556.000000	51.298476
555.000000	51.203903
554.000000	51.100552
553.000000	51.051175
552.000000	50.947570
551.000000	50.885221
550.000000	50.809943
549.000000	50.747465
548.000000	50.672305
547.000000	50.556423
546.000000	50.451432
545.000000	50.406989
544.000000	50.314219
543.000000	50.229353
542.000000	50.144759
541.000000	50.057447
540.000000	49.915607
539.000000	49.824147
538.000000	49.767648
537.000000	49.665225
536.000000	49.571001
535.000000	49.509177
534.000000	49.393855
533.000000	49.286318
532.000000	49.199799
531.000000	49.094866
530.000000	49.035730
529.000000	48.948481
528.000000	48.831256
527.000000	48.702942
526.000000	48.633119
525.000000	48.542463
524.000000	48.427896
523.000000	48.363199
522.000000	48.243579
521.000000	48.111825
520.000000	48.061799
519.000000	47.978599
518.000000	47.840489
517.000000	47.746692
516.000000	47.633853
515.000000	47.513612
514.000000	47.420221
513.000000	47.338132
512.000000	47.199954
511.000000	47.113207
510.000000	46.984157
509.000000	46.872009
508.000000	46.764680
507.000000	46.630024
506.000000	46.515882
505.000000	46.403127
504.000000	46.265742
503.000000	46.156810
502.000000	46.041666
501.000000	45.917884
500.000000	45.807242
499.000000	45.694067
498.000000	45.511249
497.000000	45.388505
496.000000	45.226266
495.000000	45.117947
494.000000	44.991392
493.000000	44.866343
492.000000	44.712453
491.000000	44.541890
490.000000	44.395087
489.000000	44.256441
488.000000	44.085545
487.000000	43.901426
486.000000	43.741101
485.000000	43.603066
484.000000	43.468082
483.000000	43.311560
482.000000	43.130405
481.000000	42.992482
480.000000	42.811694
479.000000	42.635275
478.000000	42.467690
477.000000	42.314118
476.000000	42.171487
475.000000	42.017479
474.000000	41.847511
473.000000	41.664483
472.000000	41.446178
471.000000	41.302397
470.000000	41.144884
469.000000	40.926387
468.000000	40.741487
467.000000	40.562786
466.000000	40.361323
465.000000	40.184523
464.000000	39.996213
463.000000	39.810449
462.000000	39.615229
461.000000	39.422887
460.000000	39.223235
459.000000	38.991798
458.000000	38.796470
457.000000	38.591011
456.000000	38.341868
455.000000	38.149941
454.000000	37.934235
453.000000	37.706519
452.000000	37.505304
451.000000	37.243368
450.000000	36.998406
449.000000	36.796649
448.000000	36.567909
447.000000	36.335540
446.000000	36.109593
445.000000	35.874810
444.000000	35.648993
443.000000	35.420905
442.000000	35.171493
441.000000	34.936121
440.000000	34.724510
439.000000	34.460181
438.000000	34.195006
437.000000	33.941949
436.000000	33.702072
435.000000	33.485982
434.000000	33.266941
433.000000	33.022182
432.000000	32.728691
431.000000	32.457240
430.000000	32.226376
429.000000	31.966708
428.000000	31.741953
427.000000	31.516707
426.000000	31.270274
425.000000	31.011580
424.000000	30.742704
423.000000	30.489294
422.000000	30.253066
421.000000	30.011371
420.000000	29.774603
419.000000	29.599915
418.000000	29.356745
417.000000	29.124899
416.000000	28.912021
415.000000	28.741199
414.000000	28.559511
413.000000	28.381802
412.000000	28.238380
411.000000	28.064473
410.000000	27.942271
409.000000	27.789873
408.000000	27.665725
407.000000	27.617201
406.000000	27.480347
405.000000	27.304122
404.000000	27.219147
403.000000	27.095466
402.000000	26.991972
401.000000	26.869920
400.000000	26.701612
399.000000	26.563166
398.000000	26.462643
397.000000	26.356391
396.000000	26.208850
395.000000	26.068089
394.000000	25.964011
393.000000	25.745355
392.000000	25.608327
391.000000	25.467005
390.000000	25.361941
389.000000	25.150363
388.000000	24.949514
387.000000	24.815372
386.000000	24.646801
385.000000	24.426260
384.000000	24.329094
383.000000	24.085158
382.000000	23.921734
381.000000	23.733086
380.000000	23.560870
379.000000	23.356073
378.000000	23.083508
377.000000	22.970313
376.000000	22.884741
375.000000	22.690734
374.000000	22.358824
373.000000	22.292907
372.000000	22.012456
371.000000	21.904622
370.000000	21.738586
369.000000	21.545854
368.000000	21.409389
367.000000	21.221314
366.000000	21.062540
365.000000	20.884147
364.000000	20.696456
363.000000	20.591391
362.000000	20.374802
361.000000	20.283220
360.000000	20.009492
359.000000	19.827268
358.000000	19.720288
357.000000	19.603871
356.000000	19.387897
355.000000	19.260910
354.000000	19.074201
353.000000	19.031833
352.000000	18.776453
351.000000	18.593424
350.000000	18.428708
349.000000	18.315347
348.000000	18.133538
347.000000	18.045368
346.000000	17.848200
345.000000	17.717637
344.000000	17.610188
343.000000	17.387131
342.000000	17.207799
341.000000	17.131493
340.000000	16.865287
339.000000	16.740446
338.000000	16.549271
337.000000	16.419372
336.000000	16.262705
335.000000	16.142552
334.000000	15.922343
333.000000	15.874803
332.000000	15.644811
331.000000	15.550854
330.000000	15.479211
329.000000	15.274808
328.000000	15.078686
327.000000	15.100175
326.000000	14.976830
325.000000	14.753006
324.000000	14.575176
323.000000	14.381235
322.000000	14.346211
321.000000	14.302367
320.000000	14.189642
319.000000	14.138166
318.000000	13.996252
317.000000	13.813200
316.000000	13.714151
315.000000	13.607631
314.000000	13.466558
313.000000	13.354738
312.000000	13.266002
311.000000	13.043996
310.000000	12.907973
309.000000	12.749880
308.000000	12.542058
307.000000	12.354682
306.000000	12.239822
305.000000	11.959936
304.000000	11.758577
303.000000	11.579867
302.000000	11.374985
301.000000	11.134495
300.000000	10.977057
299.000000	10.843915
298.000000	10.662705
297.000000	10.504357
296.000000	10.374813
295.000000	10.371325
294.000000	10.361123
293.000000	10.343638
292.000000	10.334639
291.000000	10.378722
290.000000	10.311273
289.000000	10.325768
288.000000	10.324854
287.000000	10.464447
286.000000	10.484878
285.000000	10.568704
284.000000	10.631932
283.000000	10.750260
282.000000	10.801268
281.000000	10.814567
280.000000	10.890762
279.000000	10.915312
278.000000	10.951271
277.000000	11.054440
276.000000	11.155029
275.000000	11.156171
274.000000	11.190574
273.000000	11.278061
272.000000	11.343544
271.000000	11.381629
270.000000	11.463813
269.000000	11.506782
268.000000	11.533272
267.000000	11.531300
266.000000	11.627680
265.000000	11.760736
264.000000	11.798437
263.000000	11.843874
262.000000	11.890472
261.000000	11.963455
260.000000	12.077675
259.000000	12.180166
258.000000	12.264717
257.000000	12.297042
256.000000	12.397906
255.000000	12.525201
254.000000	12.605505
253.000000	12.725516
252.000000	12.889132
251.000000	13.002378
250.000000	13.068440
249.000000	13.156834
248.000000	13.324599
247.000000	13.435224
246.000000	13.523269
245.000000	13.678391
244.000000	13.859021
243.000000	14.006844
242.000000	14.194716
241.000000	14.448247
240.000000	14.658315
239.000000	14.960344
238.000000	15.292253
237.000000	15.572667
236.000000	15.982546
235.000000	16.383407
234.000000	16.686826
233.000000	17.038319
232.000000	17.324527
231.000000	17.524370
230.000000	17.751864
229.000000	17.895609
228.000000	17.969341
227.000000	18.091598
226.000000	18.253246
225.000000	18.334761
224.000000	18.484046
223.000000	18.640335
222.000000	18.772151
221.000000	18.920274
220.000000	19.128768
219.000000	19.363181
218.000000	19.548788
217.000000	19.824610
216.000000	20.224004
215.000000	20.528668
214.000000	20.829512
213.000000	21.225046
212.000000	21.554322
211.000000	22.150943
210.000000	22.790210
209.000000	23.147625
208.000000	23.669703
207.000000	24.273471
206.000000	24.950943
205.000000	25.793585
204.000000	26.438072
203.000000	27.112778
202.000000	28.057315
201.000000	29.021348
200.000000	30.367725
