PE UV       SUBTECH     SPECTRUM    ASCII       PEDS        4.00        
   -1
RDChevreUK 12.Sample.asc
18/03/05
13:35:56.00
18/03/05
13:35:56.00
Administrator

200.000000
1
Lambda 750
750N8071901
PerkinElmer UV WinLab 6.0.4.0738 / 1.61.00 Lambda 900

0
0
3350/servo 860.8/2
0
0
UV/VIS
1
1
1
CommonBeamDepol,150mm sphere / downward view
0
0
0
0
Program
Program
3350/servo 860.8/2
3350/0.2 860.8/0.2
3350/0.2 860.8/0.2
0
1
 
 
 
0
 
860.8
319.2
860.8
Front
100
on
 
 
0
0
0
 
0
 
 
 
0
 
 
0
0
0
0
0
 
 
 
 
0
0


0
0
#HDR
-1
-1
#GR
nm
%R
1.0
0.0
2350.000000
-1.000000
2151
8
62.931119
9.815558
#DATA
2350.000000	13.207420
2349.000000	12.847870
2348.000000	12.722266
2347.000000	13.443690
2346.000000	13.736394
2345.000000	13.248699
2344.000000	12.945679
2343.000000	13.060159
2342.000000	13.070719
2341.000000	13.080907
2340.000000	13.646298
2339.000000	13.621054
2338.000000	13.792682
2337.000000	13.805832
2336.000000	14.086624
2335.000000	13.867278
2334.000000	13.953130
2333.000000	14.181074
2332.000000	14.478922
2331.000000	13.879196
2330.000000	13.564551
2329.000000	14.186522
2328.000000	13.801645
2327.000000	14.137310
2326.000000	13.816619
2325.000000	13.727700
2324.000000	13.676046
2323.000000	13.753068
2322.000000	13.794589
2321.000000	13.527587
2320.000000	13.503747
2319.000000	13.347854
2318.000000	13.473418
2317.000000	13.589460
2316.000000	13.511653
2315.000000	13.595251
2314.000000	13.202890
2313.000000	13.138017
2312.000000	13.023233
2311.000000	13.112657
2310.000000	13.101884
2309.000000	13.137030
2308.000000	12.722539
2307.000000	12.730018
2306.000000	13.046928
2305.000000	12.795660
2304.000000	12.781885
2303.000000	12.678381
2302.000000	12.407941
2301.000000	12.768130
2300.000000	12.595361
2299.000000	12.696400
2298.000000	12.426762
2297.000000	12.393964
2296.000000	12.441907
2295.000000	12.528142
2294.000000	12.665533
2293.000000	12.463365
2292.000000	12.428197
2291.000000	12.291029
2290.000000	12.212225
2289.000000	12.244019
2288.000000	12.323491
2287.000000	12.472391
2286.000000	12.181406
2285.000000	12.077858
2284.000000	12.099366
2283.000000	12.051961
2282.000000	11.981112
2281.000000	12.240964
2280.000000	12.428623
2279.000000	12.397236
2278.000000	12.135777
2277.000000	12.186564
2276.000000	12.315066
2275.000000	12.303144
2274.000000	12.272821
2273.000000	12.410538
2272.000000	12.569859
2271.000000	12.415034
2270.000000	12.245088
2269.000000	12.524767
2268.000000	12.581419
2267.000000	12.649294
2266.000000	12.644254
2265.000000	12.860429
2264.000000	13.144544
2263.000000	13.051829
2262.000000	13.053826
2261.000000	13.215906
2260.000000	13.333124
2259.000000	13.522056
2258.000000	13.851224
2257.000000	13.942052
2256.000000	13.966085
2255.000000	14.079701
2254.000000	14.203369
2253.000000	14.368201
2252.000000	14.636164
2251.000000	14.731220
2250.000000	14.764060
2249.000000	15.008420
2248.000000	15.111848
2247.000000	15.270680
2246.000000	15.384997
2245.000000	15.610975
2244.000000	15.800337
2243.000000	15.944617
2242.000000	16.153264
2241.000000	16.283043
2240.000000	16.360305
2239.000000	16.477416
2238.000000	16.539787
2237.000000	16.572800
2236.000000	16.689318
2235.000000	16.835438
2234.000000	16.951844
2233.000000	16.795482
2232.000000	16.780430
2231.000000	16.927399
2230.000000	17.041922
2229.000000	17.127359
2228.000000	17.173913
2227.000000	17.222534
2226.000000	17.033985
2225.000000	16.922668
2224.000000	16.930575
2223.000000	16.823192
2222.000000	16.963805
2221.000000	17.035750
2220.000000	16.903453
2219.000000	16.851021
2218.000000	16.887288
2217.000000	16.948511
2216.000000	17.070970
2215.000000	16.976980
2214.000000	16.774967
2213.000000	16.799107
2212.000000	16.783904
2211.000000	16.467759
2210.000000	16.396324
2209.000000	16.445746
2208.000000	16.220838
2207.000000	16.191182
2206.000000	16.164764
2205.000000	16.202011
2204.000000	16.279539
2203.000000	16.093669
2202.000000	16.043630
2201.000000	15.903818
2200.000000	15.937128
2199.000000	15.957897
2198.000000	15.898710
2197.000000	15.810765
2196.000000	15.573961
2195.000000	15.735638
2194.000000	15.632414
2193.000000	15.456121
2192.000000	15.502922
2191.000000	15.445729
2190.000000	15.334449
2189.000000	15.308270
2188.000000	15.282914
2187.000000	15.222026
2186.000000	15.243319
2185.000000	15.219642
2184.000000	15.197553
2183.000000	15.136178
2182.000000	15.077146
2181.000000	14.938611
2180.000000	15.005355
2179.000000	14.828798
2178.000000	14.811420
2177.000000	15.054981
2176.000000	14.824393
2175.000000	15.142199
2174.000000	14.894404
2173.000000	14.986536
2172.000000	15.159779
2171.000000	15.343613
2170.000000	15.266794
2169.000000	15.163730
2168.000000	15.308154
2167.000000	15.368141
2166.000000	15.349015
2165.000000	15.416957
2164.000000	15.648682
2163.000000	15.553751
2162.000000	15.546235
2161.000000	15.633819
2160.000000	15.920341
2159.000000	15.954309
2158.000000	16.037014
2157.000000	16.243347
2156.000000	16.351840
2155.000000	16.444804
2154.000000	16.660782
2153.000000	16.637797
2152.000000	16.831787
2151.000000	16.876429
2150.000000	17.294822
2149.000000	17.047204
2148.000000	17.154756
2147.000000	17.346541
2146.000000	17.562426
2145.000000	17.852863
2144.000000	17.895896
2143.000000	17.988646
2142.000000	18.149586
2141.000000	18.374766
2140.000000	18.535718
2139.000000	18.531308
2138.000000	18.702138
2137.000000	18.894177
2136.000000	18.765998
2135.000000	18.950557
2134.000000	19.141125
2133.000000	18.879688
2132.000000	18.970352
2131.000000	19.120106
2130.000000	19.457190
2129.000000	19.560412
2128.000000	19.306135
2127.000000	19.501864
2126.000000	19.581887
2125.000000	19.607114
2124.000000	19.806303
2123.000000	19.769258
2122.000000	19.945325
2121.000000	20.017696
2120.000000	20.116450
2119.000000	20.106952
2118.000000	20.148008
2117.000000	20.068340
2116.000000	20.245057
2115.000000	20.224800
2114.000000	20.342986
2113.000000	20.059819
2112.000000	20.198142
2111.000000	20.290641
2110.000000	20.189354
2109.000000	20.332480
2108.000000	20.501251
2107.000000	20.483107
2106.000000	20.411569
2105.000000	20.411761
2104.000000	20.423100
2103.000000	20.518626
2102.000000	20.586093
2101.000000	20.481039
2100.000000	20.641110
2099.000000	20.555424
2098.000000	20.498619
2097.000000	20.620233
2096.000000	20.504446
2095.000000	20.467249
2094.000000	20.512792
2093.000000	20.497926
2092.000000	20.440711
2091.000000	20.512844
2090.000000	20.518230
2089.000000	20.484322
2088.000000	20.443990
2087.000000	20.393319
2086.000000	20.354855
2085.000000	20.341951
2084.000000	20.251785
2083.000000	20.179505
2082.000000	20.108014
2081.000000	19.989991
2080.000000	19.955292
2079.000000	19.960130
2078.000000	19.768804
2077.000000	19.664406
2076.000000	19.665150
2075.000000	19.629096
2074.000000	19.394258
2073.000000	19.175985
2072.000000	19.217780
2071.000000	19.139300
2070.000000	19.039529
2069.000000	18.922078
2068.000000	18.799774
2067.000000	18.670206
2066.000000	18.486381
2065.000000	18.369267
2064.000000	18.209692
2063.000000	18.013445
2062.000000	17.938873
2061.000000	17.759410
2060.000000	17.636873
2059.000000	17.540585
2058.000000	17.477252
2057.000000	17.352848
2056.000000	17.244119
2055.000000	17.152352
2054.000000	17.017830
2053.000000	16.878014
2052.000000	16.701073
2051.000000	16.620889
2050.000000	16.572927
2049.000000	16.512434
2048.000000	16.428226
2047.000000	16.389757
2046.000000	16.411502
2045.000000	16.376710
2044.000000	16.353440
2043.000000	16.328907
2042.000000	16.336668
2041.000000	16.460883
2040.000000	16.513419
2039.000000	16.489196
2038.000000	16.542336
2037.000000	16.602354
2036.000000	16.667949
2035.000000	16.762140
2034.000000	16.838715
2033.000000	16.977194
2032.000000	17.091499
2031.000000	17.174579
2030.000000	17.293310
2029.000000	17.410537
2028.000000	17.494287
2027.000000	17.599511
2026.000000	17.716444
2025.000000	17.806889
2024.000000	17.906122
2023.000000	18.024837
2022.000000	18.130581
2021.000000	18.197793
2020.000000	18.260219
2019.000000	18.308549
2018.000000	18.327044
2017.000000	18.351789
2016.000000	18.374191
2015.000000	18.420575
2014.000000	18.452793
2013.000000	18.457030
2012.000000	18.437457
2011.000000	18.430259
2010.000000	18.339271
2009.000000	18.307580
2008.000000	18.262468
2007.000000	18.192915
2006.000000	18.186016
2005.000000	18.152732
2004.000000	18.025284
2003.000000	17.938833
2002.000000	17.928119
2001.000000	17.855188
2000.000000	17.765953
1999.000000	17.677042
1998.000000	17.581135
1997.000000	17.548290
1996.000000	17.495493
1995.000000	17.441527
1994.000000	17.312088
1993.000000	17.228137
1992.000000	17.161933
1991.000000	17.079166
1990.000000	17.031279
1989.000000	16.919704
1988.000000	16.838534
1987.000000	16.814681
1986.000000	16.683645
1985.000000	16.583614
1984.000000	16.500828
1983.000000	16.423655
1982.000000	16.334695
1981.000000	16.324260
1980.000000	16.211160
1979.000000	16.119105
1978.000000	16.087355
1977.000000	16.005405
1976.000000	15.927392
1975.000000	15.824233
1974.000000	15.738284
1973.000000	15.720897
1972.000000	15.653882
1971.000000	15.579048
1970.000000	15.537985
1969.000000	15.508998
1968.000000	15.422303
1967.000000	15.417638
1966.000000	15.347095
1965.000000	15.242911
1964.000000	15.185631
1963.000000	15.115556
1962.000000	15.065964
1961.000000	14.997482
1960.000000	14.921243
1959.000000	14.857190
1958.000000	14.881223
1957.000000	14.801599
1956.000000	14.725778
1955.000000	14.724898
1954.000000	14.691560
1953.000000	14.650845
1952.000000	14.596468
1951.000000	14.600521
1950.000000	14.652801
1949.000000	14.587066
1948.000000	14.579995
1947.000000	14.557330
1946.000000	14.438592
1945.000000	14.571243
1944.000000	14.461310
1943.000000	14.547003
1942.000000	14.574861
1941.000000	14.518914
1940.000000	14.666677
1939.000000	14.712293
1938.000000	14.777967
1937.000000	14.903212
1936.000000	15.008516
1935.000000	15.063371
1934.000000	15.123172
1933.000000	15.282144
1932.000000	15.379611
1931.000000	15.509365
1930.000000	15.566124
1929.000000	15.716906
1928.000000	15.915877
1927.000000	16.147828
1926.000000	16.257127
1925.000000	16.470642
1924.000000	16.678792
1923.000000	16.991445
1922.000000	17.246615
1921.000000	17.481198
1920.000000	17.567355
1919.000000	17.899516
1918.000000	18.170408
1917.000000	18.471116
1916.000000	18.715064
1915.000000	19.169208
1914.000000	19.482752
1913.000000	19.850447
1912.000000	20.186201
1911.000000	20.556804
1910.000000	20.988021
1909.000000	21.262140
1908.000000	21.792831
1907.000000	22.223901
1906.000000	22.685854
1905.000000	23.216438
1904.000000	23.693567
1903.000000	24.175693
1902.000000	24.752963
1901.000000	25.335857
1900.000000	25.816635
1899.000000	26.406693
1898.000000	26.939000
1897.000000	27.551877
1896.000000	28.073001
1895.000000	28.580945
1894.000000	29.161046
1893.000000	29.697824
1892.000000	30.304244
1891.000000	30.794230
1890.000000	31.343323
1889.000000	31.854903
1888.000000	32.401748
1887.000000	32.846795
1886.000000	33.371437
1885.000000	33.856705
1884.000000	34.307703
1883.000000	34.823159
1882.000000	35.207873
1881.000000	35.559177
1880.000000	36.058123
1879.000000	36.451439
1878.000000	36.779440
1877.000000	37.202083
1876.000000	37.594785
1875.000000	37.911289
1874.000000	38.151943
1873.000000	38.411909
1872.000000	38.674598
1871.000000	38.962523
1870.000000	39.170398
1869.000000	39.399318
1868.000000	39.544881
1867.000000	39.729424
1866.000000	39.852354
1865.000000	39.936793
1864.000000	40.080222
1863.000000	40.149334
1862.000000	40.294016
1861.000000	40.364718
1860.000000	40.465000
1859.000000	40.532117
1858.000000	40.519508
1857.000000	40.566754
1856.000000	40.621937
1855.000000	40.702525
1854.000000	40.709794
1853.000000	40.721560
1852.000000	40.742890
1851.000000	40.719809
1850.000000	40.726272
1849.000000	40.722600
1848.000000	40.721791
1847.000000	40.693930
1846.000000	40.658595
1845.000000	40.639856
1844.000000	40.635076
1843.000000	40.588203
1842.000000	40.534991
1841.000000	40.482635
1840.000000	40.417448
1839.000000	40.408812
1838.000000	40.329483
1837.000000	40.240788
1836.000000	40.188118
1835.000000	40.098996
1834.000000	39.998865
1833.000000	39.968750
1832.000000	39.930757
1831.000000	39.859519
1830.000000	39.794472
1829.000000	39.738994
1828.000000	39.681315
1827.000000	39.610459
1826.000000	39.554015
1825.000000	39.485136
1824.000000	39.421761
1823.000000	39.360231
1822.000000	39.291694
1821.000000	39.221312
1820.000000	39.172218
1819.000000	39.132155
1818.000000	39.088905
1817.000000	39.031143
1816.000000	38.977106
1815.000000	38.901589
1814.000000	38.837386
1813.000000	38.811900
1812.000000	38.796920
1811.000000	38.747510
1810.000000	38.694136
1809.000000	38.647058
1808.000000	38.575766
1807.000000	38.530146
1806.000000	38.485490
1805.000000	38.404872
1804.000000	38.360329
1803.000000	38.334656
1802.000000	38.288095
1801.000000	38.240356
1800.000000	38.205220
1799.000000	38.176587
1798.000000	38.130197
1797.000000	38.082253
1796.000000	38.043237
1795.000000	38.010997
1794.000000	37.985916
1793.000000	37.951064
1792.000000	37.905870
1791.000000	37.856703
1790.000000	37.815809
1789.000000	37.797550
1788.000000	37.751315
1787.000000	37.705704
1786.000000	37.668879
1785.000000	37.628378
1784.000000	37.584108
1783.000000	37.523982
1782.000000	37.450534
1781.000000	37.383923
1780.000000	37.325437
1779.000000	37.277654
1778.000000	37.199354
1777.000000	37.099203
1776.000000	36.999137
1775.000000	36.909976
1774.000000	36.806077
1773.000000	36.741300
1772.000000	36.640075
1771.000000	36.542737
1770.000000	36.441059
1769.000000	36.335486
1768.000000	36.228446
1767.000000	36.134029
1766.000000	36.056620
1765.000000	35.955466
1764.000000	35.883061
1763.000000	35.786218
1762.000000	35.719559
1761.000000	35.608581
1760.000000	35.505467
1759.000000	35.428315
1758.000000	35.321392
1757.000000	35.236410
1756.000000	35.189049
1755.000000	35.126033
1754.000000	34.980085
1753.000000	34.865691
1752.000000	34.787243
1751.000000	34.708297
1750.000000	34.590194
1749.000000	34.509325
1748.000000	34.389402
1747.000000	34.289659
1746.000000	34.183474
1745.000000	34.088317
1744.000000	34.010714
1743.000000	33.944203
1742.000000	33.802539
1741.000000	33.693994
1740.000000	33.633255
1739.000000	33.532271
1738.000000	33.459055
1737.000000	33.407232
1736.000000	33.373207
1735.000000	33.322369
1734.000000	33.318037
1733.000000	33.265302
1732.000000	33.227974
1731.000000	33.264795
1730.000000	33.289241
1729.000000	33.329476
1728.000000	33.413024
1727.000000	33.462333
1726.000000	33.574332
1725.000000	33.666728
1724.000000	33.794030
1723.000000	33.927922
1722.000000	34.067371
1721.000000	34.193624
1720.000000	34.292304
1719.000000	34.465307
1718.000000	34.596116
1717.000000	34.745299
1716.000000	34.873735
1715.000000	34.986542
1714.000000	35.188289
1713.000000	35.269032
1712.000000	35.417661
1711.000000	35.495979
1710.000000	35.584638
1709.000000	35.656919
1708.000000	35.755036
1707.000000	35.797094
1706.000000	35.864360
1705.000000	35.932296
1704.000000	36.014341
1703.000000	36.046947
1702.000000	36.055290
1701.000000	36.137836
1700.000000	36.137672
1699.000000	36.197400
1698.000000	36.271756
1697.000000	36.339276
1696.000000	36.432877
1695.000000	36.438356
1694.000000	36.521396
1693.000000	36.659455
1692.000000	36.770166
1691.000000	36.926508
1690.000000	37.078442
1689.000000	37.221684
1688.000000	37.408204
1687.000000	37.579613
1686.000000	37.822639
1685.000000	38.027710
1684.000000	38.285804
1683.000000	38.550646
1682.000000	38.841572
1681.000000	39.104023
1680.000000	39.354406
1679.000000	39.657596
1678.000000	39.958242
1677.000000	40.254366
1676.000000	40.575377
1675.000000	40.888744
1674.000000	41.183307
1673.000000	41.460240
1672.000000	41.757261
1671.000000	42.027873
1670.000000	42.273140
1669.000000	42.556339
1668.000000	42.751246
1667.000000	42.973161
1666.000000	43.191621
1665.000000	43.350148
1664.000000	43.521681
1663.000000	43.646109
1662.000000	43.778006
1661.000000	43.927450
1660.000000	44.046254
1659.000000	44.137557
1658.000000	44.264857
1657.000000	44.323622
1656.000000	44.392707
1655.000000	44.430409
1654.000000	44.503591
1653.000000	44.544537
1652.000000	44.561675
1651.000000	44.578114
1650.000000	44.587189
1649.000000	44.571068
1648.000000	44.544800
1647.000000	44.559280
1646.000000	44.524863
1645.000000	44.508651
1644.000000	44.500407
1643.000000	44.450364
1642.000000	44.414469
1641.000000	44.393081
1640.000000	44.336581
1639.000000	44.285735
1638.000000	44.246299
1637.000000	44.188378
1636.000000	44.136711
1635.000000	44.087203
1634.000000	44.029865
1633.000000	43.950269
1632.000000	43.901991
1631.000000	43.815193
1630.000000	43.745694
1629.000000	43.690598
1628.000000	43.626697
1627.000000	43.549618
1626.000000	43.482333
1625.000000	43.424958
1624.000000	43.329289
1623.000000	43.261399
1622.000000	43.199054
1621.000000	43.093913
1620.000000	43.014486
1619.000000	42.935336
1618.000000	42.854853
1617.000000	42.776896
1616.000000	42.690932
1615.000000	42.593881
1614.000000	42.500383
1613.000000	42.410736
1612.000000	42.303958
1611.000000	42.208286
1610.000000	42.119310
1609.000000	42.029650
1608.000000	41.948794
1607.000000	41.849326
1606.000000	41.728837
1605.000000	41.631908
1604.000000	41.524873
1603.000000	41.436609
1602.000000	41.349221
1601.000000	41.235989
1600.000000	41.143368
1599.000000	41.036586
1598.000000	40.946502
1597.000000	40.868606
1596.000000	40.766903
1595.000000	40.674273
1594.000000	40.601611
1593.000000	40.513416
1592.000000	40.418720
1591.000000	40.336371
1590.000000	40.261832
1589.000000	40.169968
1588.000000	40.075921
1587.000000	40.007669
1586.000000	39.933191
1585.000000	39.853840
1584.000000	39.784220
1583.000000	39.707757
1582.000000	39.630482
1581.000000	39.569940
1580.000000	39.515665
1579.000000	39.448259
1578.000000	39.384697
1577.000000	39.308248
1576.000000	39.227779
1575.000000	39.166948
1574.000000	39.090941
1573.000000	39.014952
1572.000000	38.949268
1571.000000	38.885446
1570.000000	38.856840
1569.000000	38.796030
1568.000000	38.723023
1567.000000	38.645777
1566.000000	38.583152
1565.000000	38.548750
1564.000000	38.508187
1563.000000	38.472008
1562.000000	38.429852
1561.000000	38.397866
1560.000000	38.350379
1559.000000	38.295374
1558.000000	38.264861
1557.000000	38.250292
1556.000000	38.201740
1555.000000	38.181636
1554.000000	38.151507
1553.000000	38.092992
1552.000000	38.027615
1551.000000	37.980765
1550.000000	37.920811
1549.000000	37.850955
1548.000000	37.791961
1547.000000	37.712319
1546.000000	37.607878
1545.000000	37.516708
1544.000000	37.432588
1543.000000	37.327201
1542.000000	37.212343
1541.000000	37.088596
1540.000000	36.966722
1539.000000	36.846359
1538.000000	36.725895
1537.000000	36.594141
1536.000000	36.446354
1535.000000	36.330879
1534.000000	36.194516
1533.000000	36.088181
1532.000000	35.949446
1531.000000	35.835224
1530.000000	35.709975
1529.000000	35.584014
1528.000000	35.474433
1527.000000	35.366518
1526.000000	35.254499
1525.000000	35.165535
1524.000000	35.061071
1523.000000	34.991765
1522.000000	34.896226
1521.000000	34.823338
1520.000000	34.744458
1519.000000	34.710930
1518.000000	34.630823
1517.000000	34.562870
1516.000000	34.498629
1515.000000	34.447836
1514.000000	34.379213
1513.000000	34.327264
1512.000000	34.295611
1511.000000	34.260658
1510.000000	34.241009
1509.000000	34.222634
1508.000000	34.180490
1507.000000	34.157975
1506.000000	34.133416
1505.000000	34.113333
1504.000000	34.117229
1503.000000	34.139681
1502.000000	34.109042
1501.000000	34.105566
1500.000000	34.116056
1499.000000	34.120814
1498.000000	34.150333
1497.000000	34.173745
1496.000000	34.181642
1495.000000	34.241536
1494.000000	34.294285
1493.000000	34.346856
1492.000000	34.407621
1491.000000	34.461095
1490.000000	34.521065
1489.000000	34.615494
1488.000000	34.707126
1487.000000	34.795714
1486.000000	34.871194
1485.000000	34.995082
1484.000000	35.072340
1483.000000	35.204032
1482.000000	35.294034
1481.000000	35.408775
1480.000000	35.535821
1479.000000	35.634864
1478.000000	35.712895
1477.000000	35.817284
1476.000000	35.938468
1475.000000	36.027430
1474.000000	36.123661
1473.000000	36.228918
1472.000000	36.327150
1471.000000	36.403554
1470.000000	36.506241
1469.000000	36.607982
1468.000000	36.694163
1467.000000	36.771098
1466.000000	36.851487
1465.000000	36.946026
1464.000000	37.022297
1463.000000	37.110450
1462.000000	37.183225
1461.000000	37.272636
1460.000000	37.340198
1459.000000	37.435314
1458.000000	37.528412
1457.000000	37.596276
1456.000000	37.709002
1455.000000	37.812303
1454.000000	37.894294
1453.000000	37.970421
1452.000000	38.087421
1451.000000	38.197990
1450.000000	38.295916
1449.000000	38.402694
1448.000000	38.516839
1447.000000	38.619187
1446.000000	38.727636
1445.000000	38.853383
1444.000000	38.960944
1443.000000	39.096190
1442.000000	39.212729
1441.000000	39.343864
1440.000000	39.499877
1439.000000	39.631663
1438.000000	39.777647
1437.000000	39.937572
1436.000000	40.081741
1435.000000	40.245251
1434.000000	40.404592
1433.000000	40.589810
1432.000000	40.762070
1431.000000	40.936161
1430.000000	41.112851
1429.000000	41.323454
1428.000000	41.526149
1427.000000	41.727020
1426.000000	41.930418
1425.000000	42.162852
1424.000000	42.397967
1423.000000	42.637771
1422.000000	42.881887
1421.000000	43.135904
1420.000000	43.384880
1419.000000	43.634270
1418.000000	43.908955
1417.000000	44.202780
1416.000000	44.476945
1415.000000	44.740087
1414.000000	45.024354
1413.000000	45.321286
1412.000000	45.614958
1411.000000	45.896194
1410.000000	46.177091
1409.000000	46.481821
1408.000000	46.784745
1407.000000	47.071272
1406.000000	47.363925
1405.000000	47.653811
1404.000000	47.911937
1403.000000	48.196254
1402.000000	48.480533
1401.000000	48.766267
1400.000000	49.034181
1399.000000	49.294346
1398.000000	49.558900
1397.000000	49.813806
1396.000000	50.063342
1395.000000	50.305888
1394.000000	50.565296
1393.000000	50.813751
1392.000000	51.035444
1391.000000	51.263941
1390.000000	51.498769
1389.000000	51.704181
1388.000000	51.911334
1387.000000	52.117272
1386.000000	52.311612
1385.000000	52.516930
1384.000000	52.709419
1383.000000	52.874893
1382.000000	53.025383
1381.000000	53.189517
1380.000000	53.353235
1379.000000	53.502672
1378.000000	53.640019
1377.000000	53.776614
1376.000000	53.904356
1375.000000	54.021138
1374.000000	54.139058
1373.000000	54.252061
1372.000000	54.361381
1371.000000	54.472523
1370.000000	54.579501
1369.000000	54.681180
1368.000000	54.794561
1367.000000	54.903596
1366.000000	55.000454
1365.000000	55.120433
1364.000000	55.239807
1363.000000	55.341135
1362.000000	55.449488
1361.000000	55.580817
1360.000000	55.699826
1359.000000	55.830535
1358.000000	55.952459
1357.000000	56.064744
1356.000000	56.196877
1355.000000	56.296412
1354.000000	56.434180
1353.000000	56.569494
1352.000000	56.677806
1351.000000	56.804610
1350.000000	56.911692
1349.000000	57.020946
1348.000000	57.152888
1347.000000	57.273464
1346.000000	57.388377
1345.000000	57.494857
1344.000000	57.612609
1343.000000	57.718549
1342.000000	57.815250
1341.000000	57.912734
1340.000000	58.005053
1339.000000	58.122565
1338.000000	58.207747
1337.000000	58.279592
1336.000000	58.381466
1335.000000	58.445841
1334.000000	58.517430
1333.000000	58.581598
1332.000000	58.664385
1331.000000	58.730359
1330.000000	58.778661
1329.000000	58.852221
1328.000000	58.930176
1327.000000	59.015843
1326.000000	59.071188
1325.000000	59.105208
1324.000000	59.148607
1323.000000	59.156808
1322.000000	59.201437
1321.000000	59.242345
1320.000000	59.250146
1319.000000	59.280955
1318.000000	59.308934
1317.000000	59.343030
1316.000000	59.371553
1315.000000	59.420061
1314.000000	59.429898
1313.000000	59.456522
1312.000000	59.485603
1311.000000	59.512932
1310.000000	59.553522
1309.000000	59.574089
1308.000000	59.565873
1307.000000	59.595948
1306.000000	59.607556
1305.000000	59.617681
1304.000000	59.636072
1303.000000	59.647102
1302.000000	59.678840
1301.000000	59.687714
1300.000000	59.695659
1299.000000	59.699199
1298.000000	59.683753
1297.000000	59.692424
1296.000000	59.685684
1295.000000	59.678573
1294.000000	59.697932
1293.000000	59.675658
1292.000000	59.674868
1291.000000	59.687916
1290.000000	59.679721
1289.000000	59.665300
1288.000000	59.661739
1287.000000	59.629542
1286.000000	59.624169
1285.000000	59.622880
1284.000000	59.585260
1283.000000	59.578437
1282.000000	59.582676
1281.000000	59.587078
1280.000000	59.578860
1279.000000	59.578698
1278.000000	59.577268
1277.000000	59.562135
1276.000000	59.586776
1275.000000	59.589649
1274.000000	59.587874
1273.000000	59.589683
1272.000000	59.592897
1271.000000	59.587434
1270.000000	59.576677
1269.000000	59.605071
1268.000000	59.625204
1267.000000	59.633079
1266.000000	59.635876
1265.000000	59.635520
1264.000000	59.719389
1263.000000	59.721843
1262.000000	59.707788
1261.000000	59.741766
1260.000000	59.747146
1259.000000	59.743522
1258.000000	59.775768
1257.000000	59.774288
1256.000000	59.799879
1255.000000	59.790955
1254.000000	59.787521
1253.000000	59.784367
1252.000000	59.786222
1251.000000	59.775123
1250.000000	59.786902
1249.000000	59.761419
1248.000000	59.739420
1247.000000	59.726615
1246.000000	59.713456
1245.000000	59.700497
1244.000000	59.679538
1243.000000	59.634651
1242.000000	59.584868
1241.000000	59.538526
1240.000000	59.497545
1239.000000	59.473691
1238.000000	59.419141
1237.000000	59.343060
1236.000000	59.294254
1235.000000	59.256350
1234.000000	59.201271
1233.000000	59.138031
1232.000000	59.104692
1231.000000	59.057953
1230.000000	59.028262
1229.000000	58.942236
1228.000000	58.869815
1227.000000	58.839069
1226.000000	58.777679
1225.000000	58.726069
1224.000000	58.694944
1223.000000	58.635554
1222.000000	58.573017
1221.000000	58.509872
1220.000000	58.435411
1219.000000	58.391339
1218.000000	58.334560
1217.000000	58.265566
1216.000000	58.200396
1215.000000	58.135817
1214.000000	58.061847
1213.000000	58.022086
1212.000000	57.960564
1211.000000	57.907973
1210.000000	57.837430
1209.000000	57.777697
1208.000000	57.702560
1207.000000	57.627482
1206.000000	57.570898
1205.000000	57.506211
1204.000000	57.450926
1203.000000	57.365675
1202.000000	57.300549
1201.000000	57.260110
1200.000000	57.192980
1199.000000	57.135657
1198.000000	57.089645
1197.000000	57.038356
1196.000000	56.982414
1195.000000	56.936303
1194.000000	56.877803
1193.000000	56.839422
1192.000000	56.814287
1191.000000	56.787992
1190.000000	56.765095
1189.000000	56.744324
1188.000000	56.744711
1187.000000	56.756188
1186.000000	56.760215
1185.000000	56.772546
1184.000000	56.786273
1183.000000	56.832840
1182.000000	56.891539
1181.000000	56.941217
1180.000000	57.006787
1179.000000	57.084242
1178.000000	57.167588
1177.000000	57.260606
1176.000000	57.351222
1175.000000	57.453306
1174.000000	57.561016
1173.000000	57.674442
1172.000000	57.791939
1171.000000	57.915034
1170.000000	58.046968
1169.000000	58.166953
1168.000000	58.303238
1167.000000	58.450495
1166.000000	58.595963
1165.000000	58.741979
1164.000000	58.892135
1163.000000	59.031871
1162.000000	59.169594
1161.000000	59.314313
1160.000000	59.453618
1159.000000	59.584237
1158.000000	59.714544
1157.000000	59.843146
1156.000000	59.971459
1155.000000	60.087660
1154.000000	60.197844
1153.000000	60.323663
1152.000000	60.445103
1151.000000	60.547783
1150.000000	60.652544
1149.000000	60.769575
1148.000000	60.860125
1147.000000	60.951666
1146.000000	61.052514
1145.000000	61.132707
1144.000000	61.227696
1143.000000	61.326227
1142.000000	61.418152
1141.000000	61.506562
1140.000000	61.593970
1139.000000	61.664026
1138.000000	61.745961
1137.000000	61.831253
1136.000000	61.907053
1135.000000	61.976695
1134.000000	62.052448
1133.000000	62.122279
1132.000000	62.181621
1131.000000	62.238481
1130.000000	62.310538
1129.000000	62.370892
1128.000000	62.413200
1127.000000	62.468295
1126.000000	62.512603
1125.000000	62.545518
1124.000000	62.578714
1123.000000	62.614793
1122.000000	62.653369
1121.000000	62.691231
1120.000000	62.718428
1119.000000	62.745139
1118.000000	62.750948
1117.000000	62.760060
1116.000000	62.792193
1115.000000	62.805018
1114.000000	62.820510
1113.000000	62.841599
1112.000000	62.850375
1111.000000	62.851944
1110.000000	62.853145
1109.000000	62.858125
1108.000000	62.875671
1107.000000	62.892326
1106.000000	62.891991
1105.000000	62.886451
1104.000000	62.886735
1103.000000	62.897750
1102.000000	62.898619
1101.000000	62.907448
1100.000000	62.922763
1099.000000	62.927447
1098.000000	62.923448
1097.000000	62.908148
1096.000000	62.914463
1095.000000	62.911337
1094.000000	62.908721
1093.000000	62.919765
1092.000000	62.931119
1091.000000	62.929099
1090.000000	62.910182
1089.000000	62.909167
1088.000000	62.917847
1087.000000	62.911662
1086.000000	62.913406
1085.000000	62.897681
1084.000000	62.871964
1083.000000	62.870081
1082.000000	62.866499
1081.000000	62.865764
1080.000000	62.844567
1079.000000	62.854312
1078.000000	62.829337
1077.000000	62.814748
1076.000000	62.799398
1075.000000	62.798488
1074.000000	62.788705
1073.000000	62.780614
1072.000000	62.769188
1071.000000	62.754617
1070.000000	62.737033
1069.000000	62.722162
1068.000000	62.709642
1067.000000	62.687237
1066.000000	62.677898
1065.000000	62.673335
1064.000000	62.651166
1063.000000	62.641644
1062.000000	62.619128
1061.000000	62.605994
1060.000000	62.582425
1059.000000	62.585286
1058.000000	62.592511
1057.000000	62.568697
1056.000000	62.541145
1055.000000	62.515823
1054.000000	62.513671
1053.000000	62.512284
1052.000000	62.487844
1051.000000	62.471763
1050.000000	62.473891
1049.000000	62.433968
1048.000000	62.432557
1047.000000	62.388712
1046.000000	62.392148
1045.000000	62.356385
1044.000000	62.332767
1043.000000	62.365754
1042.000000	62.346640
1041.000000	62.321650
1040.000000	62.308806
1039.000000	62.297683
1038.000000	62.270261
1037.000000	62.280939
1036.000000	62.271354
1035.000000	62.250315
1034.000000	62.257388
1033.000000	62.246874
1032.000000	62.238821
1031.000000	62.223401
1030.000000	62.215053
1029.000000	62.201646
1028.000000	62.205977
1027.000000	62.202035
1026.000000	62.195335
1025.000000	62.198449
1024.000000	62.205763
1023.000000	62.184732
1022.000000	62.185399
1021.000000	62.166318
1020.000000	62.174649
1019.000000	62.179955
1018.000000	62.192140
1017.000000	62.209341
1016.000000	62.212879
1015.000000	62.214427
1014.000000	62.195495
1013.000000	62.219322
1012.000000	62.239120
1011.000000	62.215759
1010.000000	62.240280
1009.000000	62.239166
1008.000000	62.251155
1007.000000	62.255028
1006.000000	62.270904
1005.000000	62.266546
1004.000000	62.278537
1003.000000	62.278949
1002.000000	62.289393
1001.000000	62.306926
1000.000000	62.308349
999.000000	62.311582
998.000000	62.328347
997.000000	62.325542
996.000000	62.349545
995.000000	62.336163
994.000000	62.343774
993.000000	62.366321
992.000000	62.378778
991.000000	62.359302
990.000000	62.377185
989.000000	62.385358
988.000000	62.378152
987.000000	62.396763
986.000000	62.398932
985.000000	62.427155
984.000000	62.436796
983.000000	62.454117
982.000000	62.472494
981.000000	62.467774
980.000000	62.473376
979.000000	62.494219
978.000000	62.505248
977.000000	62.514413
976.000000	62.519516
975.000000	62.501566
974.000000	62.519425
973.000000	62.555786
972.000000	62.544602
971.000000	62.548010
970.000000	62.576984
969.000000	62.594427
968.000000	62.612858
967.000000	62.610150
966.000000	62.625963
965.000000	62.635153
964.000000	62.646707
963.000000	62.654138
962.000000	62.681013
961.000000	62.679824
960.000000	62.680878
959.000000	62.695803
958.000000	62.711469
957.000000	62.732904
956.000000	62.726191
955.000000	62.715985
954.000000	62.751542
953.000000	62.759797
952.000000	62.751572
951.000000	62.756483
950.000000	62.766041
949.000000	62.776285
948.000000	62.762748
947.000000	62.759599
946.000000	62.756583
945.000000	62.757703
944.000000	62.771829
943.000000	62.767185
942.000000	62.750095
941.000000	62.758204
940.000000	62.763625
939.000000	62.759260
938.000000	62.758856
937.000000	62.752600
936.000000	62.748053
935.000000	62.731338
934.000000	62.728885
933.000000	62.707958
932.000000	62.698873
931.000000	62.714585
930.000000	62.713974
929.000000	62.695211
928.000000	62.688926
927.000000	62.686010
926.000000	62.649934
925.000000	62.638422
924.000000	62.663010
923.000000	62.659627
922.000000	62.631093
921.000000	62.640467
920.000000	62.669740
919.000000	62.637481
918.000000	62.604639
917.000000	62.598580
916.000000	62.595208
915.000000	62.609635
914.000000	62.596269
913.000000	62.610852
912.000000	62.604651
911.000000	62.543702
910.000000	62.523094
909.000000	62.564764
908.000000	62.583901
907.000000	62.563380
906.000000	62.518849
905.000000	62.530306
904.000000	62.568832
903.000000	62.569856
902.000000	62.566459
901.000000	62.583666
900.000000	62.581908
899.000000	62.586077
898.000000	62.567987
897.000000	62.615041
896.000000	62.562853
895.000000	62.577307
894.000000	62.590946
893.000000	62.604421
892.000000	62.606088
891.000000	62.600296
890.000000	62.599899
889.000000	62.617106
888.000000	62.663086
887.000000	62.671250
886.000000	62.694014
885.000000	62.675148
884.000000	62.679529
883.000000	62.738502
882.000000	62.694251
881.000000	62.576030
880.000000	62.668809
879.000000	62.738949
878.000000	62.738615
877.000000	62.590466
876.000000	62.609856
875.000000	62.671833
874.000000	62.717508
873.000000	62.526188
872.000000	62.674708
871.000000	62.685295
870.000000	62.615079
869.000000	62.676283
868.000000	62.657428
867.000000	62.710308
866.000000	62.526367
865.000000	62.554728
864.000000	62.696232
863.000000	62.628290
862.000000	62.603498
861.000000	62.481801
860.000000	62.446602
859.000000	61.796185
858.000000	61.788403
857.000000	62.086177
856.000000	61.921018
855.000000	61.629292
854.000000	61.811951
853.000000	61.878257
852.000000	61.716455
851.000000	61.967775
850.000000	61.729842
849.000000	61.859671
848.000000	61.998645
847.000000	61.907302
846.000000	62.009060
845.000000	61.684006
844.000000	61.818217
843.000000	61.734852
842.000000	61.807463
841.000000	61.858458
840.000000	61.879830
839.000000	61.836109
838.000000	61.615559
837.000000	61.600190
836.000000	61.707507
835.000000	61.603027
834.000000	61.729338
833.000000	61.727211
832.000000	61.626590
831.000000	61.612643
830.000000	61.695769
829.000000	61.383483
828.000000	61.426803
827.000000	61.354269
826.000000	61.566426
825.000000	61.374849
824.000000	61.513265
823.000000	61.492525
822.000000	61.445444
821.000000	61.621330
820.000000	61.548978
819.000000	61.478459
818.000000	61.525414
817.000000	61.465267
816.000000	61.410405
815.000000	61.284701
814.000000	61.318582
813.000000	61.364431
812.000000	61.303446
811.000000	61.271686
810.000000	61.349703
809.000000	61.253821
808.000000	61.286234
807.000000	61.262292
806.000000	61.163601
805.000000	61.232832
804.000000	61.348849
803.000000	61.098090
802.000000	61.234779
801.000000	61.106506
800.000000	61.133548
799.000000	61.054974
798.000000	61.146784
797.000000	61.126268
796.000000	61.008069
795.000000	61.119590
794.000000	60.890398
793.000000	61.074749
792.000000	60.936354
791.000000	60.877356
790.000000	60.928681
789.000000	60.965255
788.000000	60.840499
787.000000	60.836268
786.000000	60.849559
785.000000	60.804125
784.000000	60.813776
783.000000	60.797627
782.000000	60.730843
781.000000	60.811738
780.000000	60.824579
779.000000	60.781869
778.000000	60.671403
777.000000	60.662365
776.000000	60.620845
775.000000	60.628723
774.000000	60.641091
773.000000	60.616247
772.000000	60.561285
771.000000	60.718393
770.000000	60.604350
769.000000	60.495334
768.000000	60.444367
767.000000	60.518696
766.000000	60.376487
765.000000	60.431206
764.000000	60.372855
763.000000	60.302306
762.000000	60.264139
761.000000	60.237545
760.000000	60.330890
759.000000	60.381451
758.000000	60.239492
757.000000	60.177585
756.000000	60.166455
755.000000	60.113091
754.000000	60.202643
753.000000	60.121058
752.000000	60.048461
751.000000	60.107847
750.000000	60.074306
749.000000	60.068728
748.000000	59.975482
747.000000	59.848878
746.000000	59.868196
745.000000	59.845636
744.000000	59.839126
743.000000	59.825482
742.000000	59.715608
741.000000	59.732734
740.000000	59.661417
739.000000	59.677894
738.000000	59.674581
737.000000	59.619033
736.000000	59.529645
735.000000	59.492364
734.000000	59.533616
733.000000	59.456050
732.000000	59.490949
731.000000	59.442971
730.000000	59.374861
729.000000	59.320239
728.000000	59.279190
727.000000	59.225174
726.000000	59.173467
725.000000	59.092706
724.000000	59.060692
723.000000	59.100820
722.000000	59.128715
721.000000	59.071214
720.000000	59.055163
719.000000	59.005849
718.000000	58.912948
717.000000	58.926115
716.000000	58.914532
715.000000	58.903446
714.000000	58.810037
713.000000	58.769403
712.000000	58.750964
711.000000	58.695418
710.000000	58.701165
709.000000	58.622457
708.000000	58.541048
707.000000	58.526191
706.000000	58.517163
705.000000	58.491434
704.000000	58.446047
703.000000	58.408464
702.000000	58.353832
701.000000	58.297063
700.000000	58.251829
699.000000	58.245221
698.000000	58.227039
697.000000	58.172991
696.000000	58.115006
695.000000	58.043458
694.000000	58.010844
693.000000	57.979648
692.000000	57.909422
691.000000	57.869836
690.000000	57.865959
689.000000	57.812185
688.000000	57.710194
687.000000	57.623380
686.000000	57.599975
685.000000	57.568451
684.000000	57.533558
683.000000	57.488928
682.000000	57.396848
681.000000	57.286860
680.000000	57.333528
679.000000	57.326919
678.000000	57.232495
677.000000	57.182148
676.000000	57.123720
675.000000	57.066347
674.000000	57.067389
673.000000	57.006981
672.000000	56.909185
671.000000	56.883540
670.000000	56.827810
669.000000	56.746195
668.000000	56.688089
667.000000	56.705779
666.000000	56.695412
665.000000	56.602882
664.000000	56.530326
663.000000	56.506862
662.000000	56.420536
661.000000	56.340996
660.000000	56.309457
659.000000	56.297552
658.000000	56.227175
657.000000	56.154315
656.000000	56.108239
655.000000	56.053284
654.000000	55.989355
653.000000	55.907833
652.000000	55.919945
651.000000	55.848231
650.000000	55.767583
649.000000	55.732029
648.000000	55.674367
647.000000	55.606450
646.000000	55.510234
645.000000	55.422412
644.000000	55.450758
643.000000	55.403300
642.000000	55.342269
641.000000	55.245606
640.000000	55.248594
639.000000	55.209765
638.000000	55.097097
637.000000	55.010384
636.000000	54.973179
635.000000	54.921823
634.000000	54.861350
633.000000	54.794824
632.000000	54.765949
631.000000	54.704539
630.000000	54.601492
629.000000	54.580884
628.000000	54.490232
627.000000	54.422794
626.000000	54.390309
625.000000	54.290491
624.000000	54.262111
623.000000	54.152267
622.000000	54.162047
621.000000	54.056800
620.000000	53.940428
619.000000	53.850809
618.000000	53.849777
617.000000	53.832896
616.000000	53.764277
615.000000	53.632653
614.000000	53.581011
613.000000	53.539350
612.000000	53.456190
611.000000	53.401878
610.000000	53.300275
609.000000	53.201546
608.000000	53.166420
607.000000	53.085595
606.000000	53.004066
605.000000	52.926253
604.000000	52.907554
603.000000	52.803068
602.000000	52.748777
601.000000	52.681324
600.000000	52.630583
599.000000	52.522242
598.000000	52.421348
597.000000	52.382376
596.000000	52.276844
595.000000	52.191817
594.000000	52.216217
593.000000	52.089764
592.000000	52.007390
591.000000	51.904952
590.000000	51.815546
589.000000	51.750264
588.000000	51.693161
587.000000	51.628676
586.000000	51.550642
585.000000	51.491472
584.000000	51.362483
583.000000	51.291174
582.000000	51.267198
581.000000	51.193849
580.000000	51.071850
579.000000	51.055905
578.000000	50.931975
577.000000	50.897480
576.000000	50.778699
575.000000	50.692367
574.000000	50.568763
573.000000	50.505760
572.000000	50.427019
571.000000	50.348944
570.000000	50.251590
569.000000	50.176465
568.000000	50.056611
567.000000	50.006187
566.000000	49.891340
565.000000	49.859898
564.000000	49.717131
563.000000	49.638357
562.000000	49.627453
561.000000	49.508366
560.000000	49.349808
559.000000	49.280927
558.000000	49.245730
557.000000	49.177040
556.000000	49.125725
555.000000	49.018796
554.000000	48.884192
553.000000	48.799275
552.000000	48.730463
551.000000	48.646881
550.000000	48.541284
549.000000	48.461556
548.000000	48.399368
547.000000	48.260236
546.000000	48.133813
545.000000	48.047466
544.000000	47.961509
543.000000	47.861872
542.000000	47.772346
541.000000	47.658002
540.000000	47.493304
539.000000	47.432236
538.000000	47.350760
537.000000	47.213811
536.000000	47.103874
535.000000	47.021181
534.000000	46.903757
533.000000	46.778113
532.000000	46.673648
531.000000	46.582842
530.000000	46.483338
529.000000	46.364560
528.000000	46.229036
527.000000	46.139678
526.000000	46.041886
525.000000	45.939558
524.000000	45.783264
523.000000	45.724240
522.000000	45.589433
521.000000	45.458944
520.000000	45.346358
519.000000	45.245309
518.000000	45.120869
517.000000	45.002622
516.000000	44.881644
515.000000	44.763563
514.000000	44.640870
513.000000	44.528283
512.000000	44.401168
511.000000	44.297737
510.000000	44.153238
509.000000	44.043774
508.000000	43.890705
507.000000	43.757948
506.000000	43.638198
505.000000	43.526059
504.000000	43.387523
503.000000	43.235991
502.000000	43.090564
501.000000	42.959316
500.000000	42.834142
499.000000	42.727117
498.000000	42.572079
497.000000	42.408695
496.000000	42.244099
495.000000	42.091617
494.000000	41.961095
493.000000	41.797098
492.000000	41.652351
491.000000	41.526085
490.000000	41.328571
489.000000	41.191673
488.000000	41.003492
487.000000	40.822998
486.000000	40.648133
485.000000	40.519859
484.000000	40.401454
483.000000	40.214727
482.000000	40.025750
481.000000	39.865858
480.000000	39.696250
479.000000	39.518279
478.000000	39.341770
477.000000	39.188522
476.000000	39.006014
475.000000	38.842072
474.000000	38.645299
473.000000	38.425680
472.000000	38.253582
471.000000	38.106122
470.000000	37.938594
469.000000	37.734452
468.000000	37.544761
467.000000	37.380879
466.000000	37.184032
465.000000	36.966328
464.000000	36.775344
463.000000	36.621501
462.000000	36.417772
461.000000	36.185495
460.000000	35.973619
459.000000	35.775307
458.000000	35.567919
457.000000	35.344044
456.000000	35.131232
455.000000	34.912616
454.000000	34.710060
453.000000	34.496048
452.000000	34.297839
451.000000	34.055478
450.000000	33.801452
449.000000	33.593167
448.000000	33.378172
447.000000	33.148807
446.000000	32.927294
445.000000	32.703646
444.000000	32.452089
443.000000	32.225052
442.000000	31.979631
441.000000	31.753138
440.000000	31.555164
439.000000	31.319119
438.000000	31.084396
437.000000	30.875199
436.000000	30.619589
435.000000	30.367682
434.000000	30.118942
433.000000	29.921044
432.000000	29.709805
431.000000	29.414867
430.000000	29.139620
429.000000	28.907556
428.000000	28.672505
427.000000	28.407597
426.000000	28.161997
425.000000	27.959037
424.000000	27.692789
423.000000	27.439103
422.000000	27.208632
421.000000	26.958970
420.000000	26.764601
419.000000	26.566063
418.000000	26.315115
417.000000	26.094265
416.000000	25.889333
415.000000	25.726586
414.000000	25.565431
413.000000	25.396462
412.000000	25.210567
411.000000	25.059847
410.000000	24.935692
409.000000	24.806069
408.000000	24.663309
407.000000	24.596210
406.000000	24.444943
405.000000	24.272080
404.000000	24.160103
403.000000	24.053428
402.000000	23.927342
401.000000	23.808477
400.000000	23.655793
399.000000	23.493925
398.000000	23.406820
397.000000	23.243724
396.000000	23.098666
395.000000	22.955343
394.000000	22.811308
393.000000	22.629600
392.000000	22.493471
391.000000	22.339309
390.000000	22.169736
389.000000	21.995343
388.000000	21.844296
387.000000	21.665829
386.000000	21.468650
385.000000	21.298271
384.000000	21.153506
383.000000	21.019673
382.000000	20.848816
381.000000	20.621945
380.000000	20.420082
379.000000	20.221715
378.000000	20.154681
377.000000	19.969746
376.000000	19.780001
375.000000	19.546657
374.000000	19.436868
373.000000	19.305328
372.000000	19.141499
371.000000	18.884395
370.000000	18.715564
369.000000	18.548625
368.000000	18.433287
367.000000	18.219750
366.000000	18.111688
365.000000	17.899985
364.000000	17.821987
363.000000	17.654896
362.000000	17.532336
361.000000	17.382832
360.000000	17.240038
359.000000	17.094515
358.000000	16.868320
357.000000	16.700242
356.000000	16.605115
355.000000	16.482018
354.000000	16.346697
353.000000	16.234870
352.000000	16.140510
351.000000	15.863404
350.000000	15.817908
349.000000	15.738492
348.000000	15.535715
347.000000	15.498958
346.000000	15.243835
345.000000	15.200860
344.000000	14.930689
343.000000	14.911289
342.000000	14.721010
341.000000	14.609481
340.000000	14.510900
339.000000	14.363139
338.000000	14.163672
337.000000	14.096478
336.000000	14.067746
335.000000	13.833244
334.000000	13.605294
333.000000	13.596356
332.000000	13.379717
331.000000	13.387959
330.000000	13.180083
329.000000	13.100260
328.000000	12.940647
327.000000	12.892525
326.000000	12.747340
325.000000	12.728659
324.000000	12.597889
323.000000	12.379595
322.000000	12.386947
321.000000	12.207284
320.000000	12.115681
319.000000	12.014910
318.000000	11.970671
317.000000	11.872733
316.000000	11.783016
315.000000	11.709859
314.000000	11.612347
313.000000	11.545102
312.000000	11.481083
311.000000	11.379887
310.000000	11.159901
309.000000	11.106791
308.000000	10.984390
307.000000	10.877059
306.000000	10.780646
305.000000	10.662882
304.000000	10.565165
303.000000	10.425521
302.000000	10.328380
301.000000	10.105802
300.000000	10.072967
299.000000	10.006620
298.000000	9.929782
297.000000	9.888203
296.000000	9.815558
295.000000	9.845078
294.000000	9.891964
293.000000	9.828779
292.000000	9.914067
291.000000	9.880324
290.000000	9.851134
289.000000	9.890569
288.000000	9.903133
287.000000	9.937944
286.000000	10.034631
285.000000	10.101987
284.000000	10.109652
283.000000	10.202080
282.000000	10.245837
281.000000	10.244200
280.000000	10.349786
279.000000	10.420051
278.000000	10.490204
277.000000	10.490177
276.000000	10.539640
275.000000	10.592651
274.000000	10.685995
273.000000	10.763241
272.000000	10.835123
271.000000	10.848611
270.000000	10.884517
269.000000	10.965539
268.000000	10.969167
267.000000	11.026275
266.000000	11.123152
265.000000	11.209679
264.000000	11.236781
263.000000	11.248833
262.000000	11.356288
261.000000	11.410169
260.000000	11.470690
259.000000	11.591673
258.000000	11.712675
257.000000	11.782060
256.000000	11.793912
255.000000	11.863195
254.000000	12.038738
253.000000	12.154287
252.000000	12.244416
251.000000	12.402544
250.000000	12.430649
249.000000	12.513341
248.000000	12.713707
247.000000	12.784734
246.000000	12.860424
245.000000	13.040569
244.000000	13.241819
243.000000	13.351284
242.000000	13.540754
241.000000	13.766892
240.000000	13.940156
239.000000	14.239538
238.000000	14.573427
237.000000	14.881631
236.000000	15.244496
235.000000	15.603851
234.000000	15.935238
233.000000	16.217808
232.000000	16.515658
231.000000	16.769470
230.000000	16.958776
229.000000	17.074290
228.000000	17.218662
227.000000	17.339350
226.000000	17.387723
225.000000	17.470403
224.000000	17.650221
223.000000	17.848425
222.000000	17.980278
221.000000	18.059445
220.000000	18.293256
219.000000	18.538804
218.000000	18.684243
217.000000	18.987309
216.000000	19.369223
215.000000	19.663235
214.000000	19.980192
213.000000	20.295976
212.000000	20.642810
211.000000	20.972905
210.000000	21.413382
209.000000	21.892155
208.000000	22.274632
207.000000	22.826526
206.000000	23.588628
205.000000	24.317019
204.000000	25.205606
203.000000	25.872842
202.000000	26.820374
201.000000	27.495661
200.000000	28.384479
