PE UV       SUBTECH     SPECTRUM    ASCII       PEDS        4.00        
   -1
RDVeauUK 12.Sample.asc
18/03/05
10:23:52.00
18/03/05
10:23:52.00
Administrator

200.000000
1
Lambda 750
750N8071901
PerkinElmer UV WinLab 6.0.4.0738 / 1.61.00 Lambda 900

0
0
3350/servo 860.8/2
0
0
UV/VIS
1
1
1
CommonBeamDepol,150mm sphere / downward view
0
0
0
0
Program
Program
3350/servo 860.8/2
3350/0.2 860.8/0.2
3350/0.2 860.8/0.2
0
1
 
 
 
0
 
860.8
319.2
860.8
Front
100
on
 
 
0
0
0
 
0
 
 
 
0
 
 
0
0
0
0
0
 
 
 
 
0
0


0
0
#HDR
-1
-1
#GR
nm
%R
1.0
0.0
2350.000000
-1.000000
2151
8
56.248587
9.134551
#DATA
2350.000000	9.991305
2349.000000	10.654476
2348.000000	10.249739
2347.000000	10.857785
2346.000000	10.257996
2345.000000	10.188112
2344.000000	10.125982
2343.000000	10.160815
2342.000000	9.920661
2341.000000	10.069996
2340.000000	10.474172
2339.000000	10.888357
2338.000000	10.683101
2337.000000	11.051177
2336.000000	11.130491
2335.000000	10.830299
2334.000000	11.108837
2333.000000	11.425243
2332.000000	11.064069
2331.000000	11.216782
2330.000000	10.868002
2329.000000	10.901991
2328.000000	10.947068
2327.000000	10.913761
2326.000000	11.155566
2325.000000	11.143356
2324.000000	11.005061
2323.000000	10.974877
2322.000000	10.664051
2321.000000	10.729971
2320.000000	10.790667
2319.000000	10.948239
2318.000000	10.904160
2317.000000	10.990253
2316.000000	10.782298
2315.000000	10.454026
2314.000000	10.280367
2313.000000	10.570312
2312.000000	10.469425
2311.000000	10.402307
2310.000000	10.500746
2309.000000	10.619334
2308.000000	10.118023
2307.000000	9.934720
2306.000000	10.320673
2305.000000	10.471943
2304.000000	10.211249
2303.000000	10.230217
2302.000000	10.364733
2301.000000	10.050218
2300.000000	9.791796
2299.000000	9.851144
2298.000000	9.976156
2297.000000	9.680755
2296.000000	9.646225
2295.000000	9.617820
2294.000000	9.860060
2293.000000	9.767570
2292.000000	9.632308
2291.000000	9.510520
2290.000000	9.503957
2289.000000	9.469379
2288.000000	9.540757
2287.000000	9.542248
2286.000000	9.519797
2285.000000	9.547085
2284.000000	9.524403
2283.000000	9.326149
2282.000000	9.147957
2281.000000	9.229424
2280.000000	9.134551
2279.000000	9.519194
2278.000000	9.690272
2277.000000	9.455660
2276.000000	9.344290
2275.000000	9.328718
2274.000000	9.385062
2273.000000	9.455238
2272.000000	9.566303
2271.000000	9.655620
2270.000000	9.731772
2269.000000	9.836248
2268.000000	9.783588
2267.000000	9.713659
2266.000000	9.716498
2265.000000	9.780424
2264.000000	9.870040
2263.000000	9.778792
2262.000000	9.825809
2261.000000	10.061057
2260.000000	10.140212
2259.000000	10.130135
2258.000000	10.338530
2257.000000	10.649119
2256.000000	10.745485
2255.000000	10.849918
2254.000000	10.848101
2253.000000	10.816822
2252.000000	10.989022
2251.000000	11.166522
2250.000000	11.164905
2249.000000	11.443557
2248.000000	11.732336
2247.000000	11.716165
2246.000000	11.787937
2245.000000	12.005514
2244.000000	12.082034
2243.000000	12.230364
2242.000000	12.392971
2241.000000	12.290919
2240.000000	12.376487
2239.000000	12.653463
2238.000000	12.662747
2237.000000	12.652792
2236.000000	12.722220
2235.000000	12.791102
2234.000000	12.805252
2233.000000	12.795409
2232.000000	12.821004
2231.000000	12.930285
2230.000000	13.000819
2229.000000	13.056732
2228.000000	13.289860
2227.000000	13.302620
2226.000000	13.317566
2225.000000	13.234381
2224.000000	13.107964
2223.000000	13.027362
2222.000000	12.915066
2221.000000	12.863136
2220.000000	12.957922
2219.000000	12.981611
2218.000000	13.014413
2217.000000	12.981939
2216.000000	13.057383
2215.000000	12.985070
2214.000000	12.923442
2213.000000	12.851216
2212.000000	12.776193
2211.000000	12.673458
2210.000000	12.710765
2209.000000	12.687277
2208.000000	12.571395
2207.000000	12.532525
2206.000000	12.534605
2205.000000	12.657768
2204.000000	12.471212
2203.000000	12.422494
2202.000000	12.357252
2201.000000	12.317592
2200.000000	12.336226
2199.000000	12.264162
2198.000000	12.165654
2197.000000	12.001469
2196.000000	11.964684
2195.000000	11.965080
2194.000000	11.880703
2193.000000	11.927647
2192.000000	12.003433
2191.000000	11.766511
2190.000000	11.728397
2189.000000	11.737030
2188.000000	11.637839
2187.000000	11.505502
2186.000000	11.450229
2185.000000	11.421045
2184.000000	11.480421
2183.000000	11.551762
2182.000000	11.648864
2181.000000	11.431460
2180.000000	11.478601
2179.000000	11.319446
2178.000000	11.363375
2177.000000	11.604948
2176.000000	11.445332
2175.000000	11.383935
2174.000000	11.388739
2173.000000	11.374568
2172.000000	11.517089
2171.000000	11.582941
2170.000000	11.537779
2169.000000	11.639481
2168.000000	11.520875
2167.000000	11.558837
2166.000000	11.783228
2165.000000	11.930809
2164.000000	11.971736
2163.000000	11.958480
2162.000000	12.240359
2161.000000	12.084513
2160.000000	12.244669
2159.000000	12.366575
2158.000000	12.297709
2157.000000	12.478990
2156.000000	12.709360
2155.000000	12.707019
2154.000000	12.715874
2153.000000	12.972283
2152.000000	12.942805
2151.000000	12.987122
2150.000000	13.111021
2149.000000	13.388499
2148.000000	13.443109
2147.000000	13.755128
2146.000000	13.694292
2145.000000	13.526274
2144.000000	13.741932
2143.000000	13.818058
2142.000000	14.043388
2141.000000	14.029800
2140.000000	14.075815
2139.000000	14.108807
2138.000000	14.406123
2137.000000	14.152370
2136.000000	14.421504
2135.000000	14.597976
2134.000000	14.689259
2133.000000	14.493738
2132.000000	14.899042
2131.000000	15.118446
2130.000000	15.078845
2129.000000	14.758985
2128.000000	15.069000
2127.000000	15.151252
2126.000000	15.070251
2125.000000	15.170095
2124.000000	15.234817
2123.000000	15.136261
2122.000000	15.297836
2121.000000	15.368299
2120.000000	15.374623
2119.000000	15.463245
2118.000000	15.625909
2117.000000	15.432635
2116.000000	15.550008
2115.000000	15.845305
2114.000000	15.619270
2113.000000	15.768571
2112.000000	15.732526
2111.000000	15.683441
2110.000000	15.566038
2109.000000	15.541765
2108.000000	15.814803
2107.000000	15.836892
2106.000000	15.673949
2105.000000	15.839284
2104.000000	15.776049
2103.000000	15.837534
2102.000000	15.884600
2101.000000	15.912846
2100.000000	16.072234
2099.000000	15.890390
2098.000000	15.824257
2097.000000	15.835842
2096.000000	15.891529
2095.000000	15.833185
2094.000000	15.866962
2093.000000	15.815377
2092.000000	15.919385
2091.000000	15.802528
2090.000000	15.793565
2089.000000	15.806769
2088.000000	15.778893
2087.000000	15.773837
2086.000000	15.782058
2085.000000	15.722301
2084.000000	15.690436
2083.000000	15.591938
2082.000000	15.458330
2081.000000	15.547029
2080.000000	15.484768
2079.000000	15.455981
2078.000000	15.343851
2077.000000	15.260945
2076.000000	15.118096
2075.000000	15.071808
2074.000000	15.105330
2073.000000	15.004425
2072.000000	14.937307
2071.000000	14.811112
2070.000000	14.812640
2069.000000	14.619274
2068.000000	14.492022
2067.000000	14.406308
2066.000000	14.198742
2065.000000	14.130485
2064.000000	14.079724
2063.000000	13.881274
2062.000000	13.859326
2061.000000	13.758515
2060.000000	13.691582
2059.000000	13.559775
2058.000000	13.451513
2057.000000	13.325634
2056.000000	13.239807
2055.000000	13.114706
2054.000000	13.015231
2053.000000	12.829348
2052.000000	12.666306
2051.000000	12.531802
2050.000000	12.566683
2049.000000	12.529476
2048.000000	12.385900
2047.000000	12.401096
2046.000000	12.410777
2045.000000	12.381156
2044.000000	12.361487
2043.000000	12.350413
2042.000000	12.362709
2041.000000	12.348244
2040.000000	12.315166
2039.000000	12.361198
2038.000000	12.401078
2037.000000	12.442528
2036.000000	12.457490
2035.000000	12.508477
2034.000000	12.575024
2033.000000	12.650093
2032.000000	12.787060
2031.000000	12.905338
2030.000000	13.015111
2029.000000	13.114693
2028.000000	13.199284
2027.000000	13.333955
2026.000000	13.448740
2025.000000	13.500056
2024.000000	13.532267
2023.000000	13.598296
2022.000000	13.645934
2021.000000	13.711957
2020.000000	13.764530
2019.000000	13.793296
2018.000000	13.845227
2017.000000	13.892177
2016.000000	13.888091
2015.000000	13.909149
2014.000000	13.950729
2013.000000	13.949044
2012.000000	13.932022
2011.000000	13.901323
2010.000000	13.883175
2009.000000	13.819932
2008.000000	13.720045
2007.000000	13.675557
2006.000000	13.675615
2005.000000	13.649467
2004.000000	13.574091
2003.000000	13.524163
2002.000000	13.429490
2001.000000	13.395072
2000.000000	13.347558
1999.000000	13.313473
1998.000000	13.237568
1997.000000	13.164769
1996.000000	13.121594
1995.000000	13.078353
1994.000000	13.001226
1993.000000	12.922245
1992.000000	12.847503
1991.000000	12.743300
1990.000000	12.688140
1989.000000	12.628711
1988.000000	12.556829
1987.000000	12.443752
1986.000000	12.394891
1985.000000	12.395287
1984.000000	12.317272
1983.000000	12.199663
1982.000000	12.156595
1981.000000	12.148840
1980.000000	12.056507
1979.000000	12.005359
1978.000000	11.951913
1977.000000	11.877508
1976.000000	11.764467
1975.000000	11.773239
1974.000000	11.715319
1973.000000	11.684702
1972.000000	11.612397
1971.000000	11.551900
1970.000000	11.475809
1969.000000	11.451944
1968.000000	11.401889
1967.000000	11.334387
1966.000000	11.345717
1965.000000	11.249648
1964.000000	11.122317
1963.000000	11.119326
1962.000000	11.040695
1961.000000	10.995865
1960.000000	11.035271
1959.000000	10.982810
1958.000000	10.933882
1957.000000	10.947542
1956.000000	10.870980
1955.000000	10.825043
1954.000000	10.768287
1953.000000	10.737404
1952.000000	10.805541
1951.000000	10.801514
1950.000000	10.724996
1949.000000	10.681197
1948.000000	10.705155
1947.000000	10.706301
1946.000000	10.680513
1945.000000	10.705782
1944.000000	10.720924
1943.000000	10.720351
1942.000000	10.786779
1941.000000	10.787858
1940.000000	10.817464
1939.000000	10.870866
1938.000000	11.056347
1937.000000	11.032117
1936.000000	11.119526
1935.000000	11.181157
1934.000000	11.259394
1933.000000	11.379979
1932.000000	11.508106
1931.000000	11.471137
1930.000000	11.560412
1929.000000	11.717072
1928.000000	11.848016
1927.000000	12.004489
1926.000000	12.237534
1925.000000	12.431650
1924.000000	12.608879
1923.000000	12.813931
1922.000000	12.934252
1921.000000	13.171012
1920.000000	13.324630
1919.000000	13.617162
1918.000000	13.738196
1917.000000	14.126515
1916.000000	14.180751
1915.000000	14.633919
1914.000000	14.973359
1913.000000	15.208585
1912.000000	15.434295
1911.000000	15.887930
1910.000000	16.224547
1909.000000	16.459206
1908.000000	16.862110
1907.000000	17.368954
1906.000000	17.652146
1905.000000	18.148698
1904.000000	18.609574
1903.000000	19.002445
1902.000000	19.586306
1901.000000	19.984247
1900.000000	20.416689
1899.000000	20.942568
1898.000000	21.557325
1897.000000	21.988478
1896.000000	22.476978
1895.000000	23.093372
1894.000000	23.505947
1893.000000	23.978721
1892.000000	24.563920
1891.000000	25.041689
1890.000000	25.513619
1889.000000	26.048021
1888.000000	26.516101
1887.000000	26.947436
1886.000000	27.451904
1885.000000	27.950360
1884.000000	28.346473
1883.000000	28.766284
1882.000000	29.210548
1881.000000	29.572066
1880.000000	29.961816
1879.000000	30.294135
1878.000000	30.689930
1877.000000	31.026363
1876.000000	31.341286
1875.000000	31.693427
1874.000000	31.977451
1873.000000	32.269290
1872.000000	32.572300
1871.000000	32.854180
1870.000000	32.971446
1869.000000	33.176237
1868.000000	33.356642
1867.000000	33.579121
1866.000000	33.662223
1865.000000	33.762404
1864.000000	33.847284
1863.000000	33.936824
1862.000000	34.077928
1861.000000	34.152821
1860.000000	34.261483
1859.000000	34.319969
1858.000000	34.358396
1857.000000	34.364756
1856.000000	34.428785
1855.000000	34.467683
1854.000000	34.497755
1853.000000	34.565402
1852.000000	34.541436
1851.000000	34.508404
1850.000000	34.517593
1849.000000	34.517588
1848.000000	34.515628
1847.000000	34.500684
1846.000000	34.470104
1845.000000	34.487140
1844.000000	34.470541
1843.000000	34.427214
1842.000000	34.396207
1841.000000	34.336291
1840.000000	34.315217
1839.000000	34.272886
1838.000000	34.215972
1837.000000	34.158684
1836.000000	34.101705
1835.000000	34.029926
1834.000000	33.938796
1833.000000	33.875116
1832.000000	33.832587
1831.000000	33.767041
1830.000000	33.717094
1829.000000	33.683349
1828.000000	33.617614
1827.000000	33.516550
1826.000000	33.460220
1825.000000	33.433223
1824.000000	33.389308
1823.000000	33.347493
1822.000000	33.285502
1821.000000	33.211831
1820.000000	33.152776
1819.000000	33.079252
1818.000000	33.041517
1817.000000	33.000865
1816.000000	32.945664
1815.000000	32.906676
1814.000000	32.845969
1813.000000	32.798859
1812.000000	32.750166
1811.000000	32.688426
1810.000000	32.648631
1809.000000	32.633011
1808.000000	32.592395
1807.000000	32.517447
1806.000000	32.457500
1805.000000	32.388783
1804.000000	32.331365
1803.000000	32.295446
1802.000000	32.256142
1801.000000	32.237300
1800.000000	32.182211
1799.000000	32.139797
1798.000000	32.126461
1797.000000	32.085969
1796.000000	32.032750
1795.000000	31.990708
1794.000000	31.970269
1793.000000	31.942564
1792.000000	31.902733
1791.000000	31.862708
1790.000000	31.810288
1789.000000	31.786584
1788.000000	31.762000
1787.000000	31.698298
1786.000000	31.663261
1785.000000	31.657176
1784.000000	31.600340
1783.000000	31.547981
1782.000000	31.477421
1781.000000	31.420497
1780.000000	31.383080
1779.000000	31.328013
1778.000000	31.246502
1777.000000	31.175983
1776.000000	31.114711
1775.000000	31.040274
1774.000000	30.974374
1773.000000	30.882423
1772.000000	30.789277
1771.000000	30.707375
1770.000000	30.606127
1769.000000	30.539949
1768.000000	30.480428
1767.000000	30.383742
1766.000000	30.296860
1765.000000	30.202644
1764.000000	30.131193
1763.000000	30.083091
1762.000000	29.999949
1761.000000	29.920563
1760.000000	29.816042
1759.000000	29.750323
1758.000000	29.685006
1757.000000	29.556220
1756.000000	29.500150
1755.000000	29.383226
1754.000000	29.293718
1753.000000	29.227631
1752.000000	29.150708
1751.000000	29.064404
1750.000000	28.982041
1749.000000	28.916766
1748.000000	28.806562
1747.000000	28.692116
1746.000000	28.612345
1745.000000	28.535001
1744.000000	28.483282
1743.000000	28.364109
1742.000000	28.293293
1741.000000	28.216352
1740.000000	28.147732
1739.000000	28.099304
1738.000000	28.040687
1737.000000	27.993114
1736.000000	28.011726
1735.000000	27.943667
1734.000000	27.933746
1733.000000	27.943524
1732.000000	27.945642
1731.000000	27.932099
1730.000000	27.943511
1729.000000	27.985399
1728.000000	28.061659
1727.000000	28.131870
1726.000000	28.247674
1725.000000	28.319852
1724.000000	28.425803
1723.000000	28.549609
1722.000000	28.677737
1721.000000	28.770069
1720.000000	28.893487
1719.000000	29.064510
1718.000000	29.179215
1717.000000	29.262475
1716.000000	29.403893
1715.000000	29.528100
1714.000000	29.653370
1713.000000	29.738257
1712.000000	29.821439
1711.000000	29.924364
1710.000000	30.015766
1709.000000	30.083603
1708.000000	30.139520
1707.000000	30.201124
1706.000000	30.281160
1705.000000	30.277806
1704.000000	30.314510
1703.000000	30.318041
1702.000000	30.323381
1701.000000	30.412329
1700.000000	30.410536
1699.000000	30.378957
1698.000000	30.486511
1697.000000	30.502682
1696.000000	30.562462
1695.000000	30.610322
1694.000000	30.685104
1693.000000	30.756595
1692.000000	30.829282
1691.000000	30.945846
1690.000000	31.063839
1689.000000	31.207995
1688.000000	31.375120
1687.000000	31.537525
1686.000000	31.752969
1685.000000	31.930639
1684.000000	32.160367
1683.000000	32.413861
1682.000000	32.669370
1681.000000	32.922743
1680.000000	33.170818
1679.000000	33.445302
1678.000000	33.709739
1677.000000	33.974661
1676.000000	34.285392
1675.000000	34.546374
1674.000000	34.823287
1673.000000	35.081765
1672.000000	35.356836
1671.000000	35.620424
1670.000000	35.845196
1669.000000	36.134542
1668.000000	36.313454
1667.000000	36.526558
1666.000000	36.706552
1665.000000	36.857935
1664.000000	37.001459
1663.000000	37.147237
1662.000000	37.290770
1661.000000	37.428782
1660.000000	37.549949
1659.000000	37.633111
1658.000000	37.693563
1657.000000	37.768364
1656.000000	37.861452
1655.000000	37.906477
1654.000000	37.930667
1653.000000	37.964659
1652.000000	38.013587
1651.000000	38.008646
1650.000000	38.011378
1649.000000	38.011707
1648.000000	37.971939
1647.000000	37.982869
1646.000000	37.981933
1645.000000	37.969949
1644.000000	37.956194
1643.000000	37.893792
1642.000000	37.819235
1641.000000	37.794449
1640.000000	37.784262
1639.000000	37.728293
1638.000000	37.667293
1637.000000	37.623218
1636.000000	37.567401
1635.000000	37.522514
1634.000000	37.458764
1633.000000	37.371697
1632.000000	37.312588
1631.000000	37.246938
1630.000000	37.177636
1629.000000	37.091257
1628.000000	37.023191
1627.000000	36.977086
1626.000000	36.919819
1625.000000	36.841849
1624.000000	36.778095
1623.000000	36.698829
1622.000000	36.599948
1621.000000	36.519343
1620.000000	36.442504
1619.000000	36.358573
1618.000000	36.263469
1617.000000	36.187920
1616.000000	36.113817
1615.000000	36.033547
1614.000000	35.938098
1613.000000	35.833309
1612.000000	35.739973
1611.000000	35.639784
1610.000000	35.548087
1609.000000	35.462974
1608.000000	35.367254
1607.000000	35.269822
1606.000000	35.160547
1605.000000	35.066432
1604.000000	34.964614
1603.000000	34.872881
1602.000000	34.785224
1601.000000	34.678529
1600.000000	34.577603
1599.000000	34.475955
1598.000000	34.378195
1597.000000	34.283506
1596.000000	34.187984
1595.000000	34.104480
1594.000000	34.028887
1593.000000	33.959541
1592.000000	33.878933
1591.000000	33.787502
1590.000000	33.705471
1589.000000	33.616546
1588.000000	33.534903
1587.000000	33.472207
1586.000000	33.398864
1585.000000	33.329107
1584.000000	33.255827
1583.000000	33.183273
1582.000000	33.119132
1581.000000	33.054226
1580.000000	32.976325
1579.000000	32.918344
1578.000000	32.876077
1577.000000	32.796365
1576.000000	32.712401
1575.000000	32.641710
1574.000000	32.560671
1573.000000	32.498884
1572.000000	32.467681
1571.000000	32.412433
1570.000000	32.344555
1569.000000	32.278364
1568.000000	32.219269
1567.000000	32.162575
1566.000000	32.108223
1565.000000	32.072911
1564.000000	32.027738
1563.000000	31.983874
1562.000000	31.951895
1561.000000	31.920066
1560.000000	31.894139
1559.000000	31.834616
1558.000000	31.800781
1557.000000	31.802019
1556.000000	31.755418
1555.000000	31.732526
1554.000000	31.692271
1553.000000	31.670673
1552.000000	31.617693
1551.000000	31.573034
1550.000000	31.534022
1549.000000	31.466676
1548.000000	31.405500
1547.000000	31.342101
1546.000000	31.264515
1545.000000	31.182217
1544.000000	31.072165
1543.000000	30.996456
1542.000000	30.896203
1541.000000	30.791604
1540.000000	30.653933
1539.000000	30.530640
1538.000000	30.404560
1537.000000	30.292678
1536.000000	30.162727
1535.000000	30.039875
1534.000000	29.914442
1533.000000	29.815177
1532.000000	29.694952
1531.000000	29.576255
1530.000000	29.461579
1529.000000	29.351390
1528.000000	29.227900
1527.000000	29.131786
1526.000000	29.031882
1525.000000	28.958623
1524.000000	28.861194
1523.000000	28.795288
1522.000000	28.702024
1521.000000	28.625200
1520.000000	28.557578
1519.000000	28.531529
1518.000000	28.465339
1517.000000	28.397674
1516.000000	28.328309
1515.000000	28.283837
1514.000000	28.265516
1513.000000	28.208298
1512.000000	28.166211
1511.000000	28.128553
1510.000000	28.106945
1509.000000	28.084427
1508.000000	28.050898
1507.000000	28.044222
1506.000000	28.012482
1505.000000	28.005944
1504.000000	27.971436
1503.000000	27.978356
1502.000000	27.972793
1501.000000	27.950529
1500.000000	27.964376
1499.000000	27.975521
1498.000000	28.002447
1497.000000	28.002033
1496.000000	28.014886
1495.000000	28.061914
1494.000000	28.088204
1493.000000	28.142379
1492.000000	28.171440
1491.000000	28.237986
1490.000000	28.308294
1489.000000	28.373849
1488.000000	28.444726
1487.000000	28.511763
1486.000000	28.585975
1485.000000	28.662550
1484.000000	28.754860
1483.000000	28.873372
1482.000000	28.936824
1481.000000	29.049721
1480.000000	29.149181
1479.000000	29.235478
1478.000000	29.327491
1477.000000	29.440297
1476.000000	29.518889
1475.000000	29.609856
1474.000000	29.703641
1473.000000	29.813740
1472.000000	29.901732
1471.000000	29.976195
1470.000000	30.056282
1469.000000	30.140139
1468.000000	30.229013
1467.000000	30.323921
1466.000000	30.390317
1465.000000	30.470087
1464.000000	30.543813
1463.000000	30.620573
1462.000000	30.702161
1461.000000	30.782084
1460.000000	30.856769
1459.000000	30.925993
1458.000000	31.013061
1457.000000	31.100123
1456.000000	31.165019
1455.000000	31.256635
1454.000000	31.356515
1453.000000	31.444060
1452.000000	31.540529
1451.000000	31.644213
1450.000000	31.747213
1449.000000	31.855064
1448.000000	31.964535
1447.000000	32.071969
1446.000000	32.184973
1445.000000	32.307658
1444.000000	32.434811
1443.000000	32.550538
1442.000000	32.663082
1441.000000	32.786756
1440.000000	32.932143
1439.000000	33.072007
1438.000000	33.203372
1437.000000	33.359860
1436.000000	33.520791
1435.000000	33.690658
1434.000000	33.840991
1433.000000	34.007791
1432.000000	34.188671
1431.000000	34.367667
1430.000000	34.542562
1429.000000	34.728580
1428.000000	34.936625
1427.000000	35.148537
1426.000000	35.350539
1425.000000	35.574400
1424.000000	35.792612
1423.000000	36.037518
1422.000000	36.277365
1421.000000	36.530615
1420.000000	36.789610
1419.000000	37.044511
1418.000000	37.305042
1417.000000	37.580133
1416.000000	37.846909
1415.000000	38.130297
1414.000000	38.412254
1413.000000	38.688347
1412.000000	38.991741
1411.000000	39.257418
1410.000000	39.532875
1409.000000	39.838916
1408.000000	40.157617
1407.000000	40.429019
1406.000000	40.710407
1405.000000	41.004463
1404.000000	41.278732
1403.000000	41.566060
1402.000000	41.834174
1401.000000	42.103683
1400.000000	42.366875
1399.000000	42.636705
1398.000000	42.895520
1397.000000	43.145490
1396.000000	43.394824
1395.000000	43.640077
1394.000000	43.883345
1393.000000	44.129618
1392.000000	44.356862
1391.000000	44.581348
1390.000000	44.812095
1389.000000	45.026817
1388.000000	45.233733
1387.000000	45.437194
1386.000000	45.623155
1385.000000	45.804443
1384.000000	45.989744
1383.000000	46.166741
1382.000000	46.325253
1381.000000	46.472517
1380.000000	46.614346
1379.000000	46.753568
1378.000000	46.890639
1377.000000	47.011142
1376.000000	47.126975
1375.000000	47.236020
1374.000000	47.347392
1373.000000	47.465668
1372.000000	47.567786
1371.000000	47.663054
1370.000000	47.756293
1369.000000	47.863361
1368.000000	47.975796
1367.000000	48.065964
1366.000000	48.163142
1365.000000	48.290194
1364.000000	48.406000
1363.000000	48.498656
1362.000000	48.594639
1361.000000	48.724001
1360.000000	48.850806
1359.000000	48.971124
1358.000000	49.084311
1357.000000	49.190906
1356.000000	49.324000
1355.000000	49.435583
1354.000000	49.557548
1353.000000	49.689897
1352.000000	49.808547
1351.000000	49.936584
1350.000000	50.052391
1349.000000	50.156102
1348.000000	50.293044
1347.000000	50.415995
1346.000000	50.527987
1345.000000	50.631912
1344.000000	50.742094
1343.000000	50.843067
1342.000000	50.936259
1341.000000	51.061100
1340.000000	51.162442
1339.000000	51.264612
1338.000000	51.360283
1337.000000	51.441027
1336.000000	51.518963
1335.000000	51.595917
1334.000000	51.669368
1333.000000	51.748493
1332.000000	51.823892
1331.000000	51.898481
1330.000000	51.957761
1329.000000	52.019753
1328.000000	52.094731
1327.000000	52.187680
1326.000000	52.236734
1325.000000	52.262174
1324.000000	52.309732
1323.000000	52.343369
1322.000000	52.387240
1321.000000	52.431844
1320.000000	52.435335
1319.000000	52.478294
1318.000000	52.517579
1317.000000	52.553158
1316.000000	52.575103
1315.000000	52.586801
1314.000000	52.589359
1313.000000	52.639780
1312.000000	52.701135
1311.000000	52.697981
1310.000000	52.735506
1309.000000	52.742728
1308.000000	52.757905
1307.000000	52.792594
1306.000000	52.803180
1305.000000	52.803226
1304.000000	52.834282
1303.000000	52.841902
1302.000000	52.879794
1301.000000	52.873774
1300.000000	52.887667
1299.000000	52.888576
1298.000000	52.887091
1297.000000	52.891700
1296.000000	52.882919
1295.000000	52.882285
1294.000000	52.888646
1293.000000	52.872835
1292.000000	52.867600
1291.000000	52.873774
1290.000000	52.863342
1289.000000	52.851992
1288.000000	52.849861
1287.000000	52.822340
1286.000000	52.820402
1285.000000	52.785604
1284.000000	52.773096
1283.000000	52.770548
1282.000000	52.773111
1281.000000	52.786533
1280.000000	52.783276
1279.000000	52.774705
1278.000000	52.769960
1277.000000	52.776547
1276.000000	52.774643
1275.000000	52.793911
1274.000000	52.784897
1273.000000	52.780185
1272.000000	52.793839
1271.000000	52.800272
1270.000000	52.811325
1269.000000	52.809039
1268.000000	52.824967
1267.000000	52.824584
1266.000000	52.841346
1265.000000	52.849967
1264.000000	52.917606
1263.000000	52.909620
1262.000000	52.914742
1261.000000	52.923546
1260.000000	52.949303
1259.000000	52.966167
1258.000000	52.991179
1257.000000	53.006754
1256.000000	53.010208
1255.000000	53.014794
1254.000000	53.016583
1253.000000	53.027760
1252.000000	53.036748
1251.000000	53.023972
1250.000000	53.025884
1249.000000	53.012073
1248.000000	52.997460
1247.000000	52.986477
1246.000000	52.947274
1245.000000	52.927179
1244.000000	52.930459
1243.000000	52.893941
1242.000000	52.842817
1241.000000	52.819985
1240.000000	52.782219
1239.000000	52.751847
1238.000000	52.719754
1237.000000	52.646404
1236.000000	52.603175
1235.000000	52.577129
1234.000000	52.531334
1233.000000	52.479453
1232.000000	52.443180
1231.000000	52.420827
1230.000000	52.396384
1229.000000	52.314433
1228.000000	52.268574
1227.000000	52.254305
1226.000000	52.200776
1225.000000	52.160120
1224.000000	52.141918
1223.000000	52.082010
1222.000000	52.045958
1221.000000	52.002412
1220.000000	51.949611
1219.000000	51.903300
1218.000000	51.855732
1217.000000	51.791984
1216.000000	51.741167
1215.000000	51.678488
1214.000000	51.614809
1213.000000	51.575501
1212.000000	51.526236
1211.000000	51.452956
1210.000000	51.389296
1209.000000	51.327550
1208.000000	51.253148
1207.000000	51.163714
1206.000000	51.098044
1205.000000	51.042010
1204.000000	50.963936
1203.000000	50.884780
1202.000000	50.824632
1201.000000	50.774966
1200.000000	50.703534
1199.000000	50.631578
1198.000000	50.573591
1197.000000	50.521195
1196.000000	50.453220
1195.000000	50.392155
1194.000000	50.331832
1193.000000	50.292583
1192.000000	50.261303
1191.000000	50.211925
1190.000000	50.167563
1189.000000	50.137401
1188.000000	50.130287
1187.000000	50.146570
1186.000000	50.132403
1185.000000	50.140204
1184.000000	50.147996
1183.000000	50.184159
1182.000000	50.232710
1181.000000	50.290949
1180.000000	50.343700
1179.000000	50.399178
1178.000000	50.484358
1177.000000	50.562118
1176.000000	50.649483
1175.000000	50.756754
1174.000000	50.856568
1173.000000	50.956317
1172.000000	51.066954
1171.000000	51.185207
1170.000000	51.319208
1169.000000	51.447418
1168.000000	51.570130
1167.000000	51.721242
1166.000000	51.872908
1165.000000	52.006618
1164.000000	52.147487
1163.000000	52.288337
1162.000000	52.433630
1161.000000	52.582009
1160.000000	52.723014
1159.000000	52.856903
1158.000000	52.987003
1157.000000	53.119002
1156.000000	53.248549
1155.000000	53.359807
1154.000000	53.461867
1153.000000	53.575562
1152.000000	53.708689
1151.000000	53.822729
1150.000000	53.922444
1149.000000	54.033031
1148.000000	54.122338
1147.000000	54.223715
1146.000000	54.330989
1145.000000	54.405620
1144.000000	54.481337
1143.000000	54.581418
1142.000000	54.663670
1141.000000	54.753674
1140.000000	54.843848
1139.000000	54.919266
1138.000000	54.995903
1137.000000	55.076367
1136.000000	55.146907
1135.000000	55.213833
1134.000000	55.298559
1133.000000	55.361965
1132.000000	55.411377
1131.000000	55.475097
1130.000000	55.536935
1129.000000	55.597401
1128.000000	55.655355
1127.000000	55.703765
1126.000000	55.745792
1125.000000	55.786346
1124.000000	55.816873
1123.000000	55.843297
1122.000000	55.876074
1121.000000	55.914014
1120.000000	55.956338
1119.000000	55.978816
1118.000000	55.994193
1117.000000	56.004958
1116.000000	56.036422
1115.000000	56.048059
1114.000000	56.061967
1113.000000	56.069862
1112.000000	56.076137
1111.000000	56.081975
1110.000000	56.087821
1109.000000	56.100659
1108.000000	56.127719
1107.000000	56.133411
1106.000000	56.137504
1105.000000	56.120067
1104.000000	56.119492
1103.000000	56.130740
1102.000000	56.131952
1101.000000	56.140994
1100.000000	56.152270
1099.000000	56.163354
1098.000000	56.166136
1097.000000	56.142017
1096.000000	56.146169
1095.000000	56.143026
1094.000000	56.167236
1093.000000	56.164634
1092.000000	56.169721
1091.000000	56.174064
1090.000000	56.144025
1089.000000	56.148238
1088.000000	56.146118
1087.000000	56.150621
1086.000000	56.149786
1085.000000	56.139339
1084.000000	56.125576
1083.000000	56.104517
1082.000000	56.106538
1081.000000	56.095158
1080.000000	56.106011
1079.000000	56.099556
1078.000000	56.063647
1077.000000	56.040642
1076.000000	56.056557
1075.000000	56.031079
1074.000000	56.036965
1073.000000	56.037322
1072.000000	56.005739
1071.000000	55.993782
1070.000000	55.973196
1069.000000	55.969769
1068.000000	55.955836
1067.000000	55.919824
1066.000000	55.928530
1065.000000	55.923336
1064.000000	55.878692
1063.000000	55.870194
1062.000000	55.873328
1061.000000	55.855157
1060.000000	55.843824
1059.000000	55.842854
1058.000000	55.839075
1057.000000	55.807988
1056.000000	55.782742
1055.000000	55.749069
1054.000000	55.766195
1053.000000	55.747895
1052.000000	55.736471
1051.000000	55.712590
1050.000000	55.706507
1049.000000	55.675878
1048.000000	55.677156
1047.000000	55.657574
1046.000000	55.634851
1045.000000	55.624025
1044.000000	55.621129
1043.000000	55.613071
1042.000000	55.613051
1041.000000	55.591925
1040.000000	55.573892
1039.000000	55.570018
1038.000000	55.541394
1037.000000	55.537860
1036.000000	55.507597
1035.000000	55.518084
1034.000000	55.504074
1033.000000	55.488671
1032.000000	55.482831
1031.000000	55.494488
1030.000000	55.475171
1029.000000	55.456922
1028.000000	55.464273
1027.000000	55.452655
1026.000000	55.460681
1025.000000	55.455363
1024.000000	55.457307
1023.000000	55.432090
1022.000000	55.435483
1021.000000	55.436588
1020.000000	55.428338
1019.000000	55.416706
1018.000000	55.423798
1017.000000	55.424490
1016.000000	55.435678
1015.000000	55.443108
1014.000000	55.423368
1013.000000	55.439599
1012.000000	55.467348
1011.000000	55.452044
1010.000000	55.476668
1009.000000	55.475691
1008.000000	55.477667
1007.000000	55.496525
1006.000000	55.512207
1005.000000	55.508021
1004.000000	55.501414
1003.000000	55.532248
1002.000000	55.543731
1001.000000	55.558922
1000.000000	55.563833
999.000000	55.569898
998.000000	55.585332
997.000000	55.597682
996.000000	55.597139
995.000000	55.589872
994.000000	55.606055
993.000000	55.615573
992.000000	55.605857
991.000000	55.626270
990.000000	55.632933
989.000000	55.629761
988.000000	55.632661
987.000000	55.661055
986.000000	55.660887
985.000000	55.686821
984.000000	55.696610
983.000000	55.701252
982.000000	55.717015
981.000000	55.732519
980.000000	55.742910
979.000000	55.753955
978.000000	55.758627
977.000000	55.765147
976.000000	55.789703
975.000000	55.781112
974.000000	55.787746
973.000000	55.818507
972.000000	55.835474
971.000000	55.845334
970.000000	55.853225
969.000000	55.875362
968.000000	55.879473
967.000000	55.889320
966.000000	55.909981
965.000000	55.915655
964.000000	55.923753
963.000000	55.925650
962.000000	55.936907
961.000000	55.952452
960.000000	55.948690
959.000000	55.970974
958.000000	55.988137
957.000000	55.986569
956.000000	55.989762
955.000000	56.001492
954.000000	56.036194
953.000000	56.054178
952.000000	56.051915
951.000000	56.066491
950.000000	56.090893
949.000000	56.078485
948.000000	56.066067
947.000000	56.089488
946.000000	56.113190
945.000000	56.114354
944.000000	56.097471
943.000000	56.095516
942.000000	56.105001
941.000000	56.076673
940.000000	56.081678
939.000000	56.117251
938.000000	56.094947
937.000000	56.069717
936.000000	56.090622
935.000000	56.083333
934.000000	56.058784
933.000000	56.064687
932.000000	56.059972
931.000000	56.063066
930.000000	56.053625
929.000000	56.033212
928.000000	56.040372
927.000000	56.043898
926.000000	56.010770
925.000000	56.005966
924.000000	56.053375
923.000000	56.038510
922.000000	56.002099
921.000000	55.972811
920.000000	55.998701
919.000000	56.009847
918.000000	55.982220
917.000000	55.990804
916.000000	55.983359
915.000000	55.957868
914.000000	55.995310
913.000000	55.978761
912.000000	55.953689
911.000000	55.929181
910.000000	55.930740
909.000000	55.943528
908.000000	55.927301
907.000000	55.917600
906.000000	55.964293
905.000000	55.992815
904.000000	55.959287
903.000000	55.993037
902.000000	55.994166
901.000000	55.969701
900.000000	55.953533
899.000000	55.973815
898.000000	55.972564
897.000000	55.974814
896.000000	55.969730
895.000000	55.974338
894.000000	55.980480
893.000000	55.978507
892.000000	56.007890
891.000000	56.021110
890.000000	56.000752
889.000000	55.992581
888.000000	56.017751
887.000000	56.045887
886.000000	56.055285
885.000000	56.068156
884.000000	56.083140
883.000000	56.095574
882.000000	56.161663
881.000000	56.101684
880.000000	56.137370
879.000000	56.050208
878.000000	56.028518
877.000000	56.137854
876.000000	56.145897
875.000000	56.122242
874.000000	56.209868
873.000000	56.087204
872.000000	56.150052
871.000000	56.137602
870.000000	56.102315
869.000000	56.115050
868.000000	56.192656
867.000000	56.248587
866.000000	56.059375
865.000000	56.087512
864.000000	56.247053
863.000000	56.246825
862.000000	56.047506
861.000000	56.049673
860.000000	56.091786
859.000000	55.056501
858.000000	55.350676
857.000000	55.281549
856.000000	55.488116
855.000000	54.829221
854.000000	55.228713
853.000000	55.349985
852.000000	55.237457
851.000000	55.447882
850.000000	55.487698
849.000000	55.465338
848.000000	55.353295
847.000000	55.059244
846.000000	55.397448
845.000000	55.187789
844.000000	55.170382
843.000000	55.310673
842.000000	55.190899
841.000000	55.498714
840.000000	55.336046
839.000000	55.178915
838.000000	55.395257
837.000000	55.420316
836.000000	55.197601
835.000000	55.196346
834.000000	55.220739
833.000000	55.161857
832.000000	55.187923
831.000000	55.223538
830.000000	55.260168
829.000000	55.313643
828.000000	55.121031
827.000000	55.067311
826.000000	55.176881
825.000000	55.080621
824.000000	55.215458
823.000000	55.315259
822.000000	55.124285
821.000000	55.048872
820.000000	55.009281
819.000000	55.107976
818.000000	55.117115
817.000000	54.909697
816.000000	55.215323
815.000000	55.068324
814.000000	55.089584
813.000000	54.927508
812.000000	55.064392
811.000000	55.025484
810.000000	54.980169
809.000000	55.066204
808.000000	54.983389
807.000000	54.944514
806.000000	54.988599
805.000000	55.009640
804.000000	54.995699
803.000000	54.925488
802.000000	54.967941
801.000000	54.897805
800.000000	55.034202
799.000000	54.874284
798.000000	54.876129
797.000000	54.933854
796.000000	54.894254
795.000000	54.899871
794.000000	54.843127
793.000000	54.886896
792.000000	54.809591
791.000000	54.827053
790.000000	54.903792
789.000000	54.805108
788.000000	54.634561
787.000000	54.792400
786.000000	54.842037
785.000000	54.692839
784.000000	54.632150
783.000000	54.645120
782.000000	54.709381
781.000000	54.693064
780.000000	54.642768
779.000000	54.696280
778.000000	54.646149
777.000000	54.668729
776.000000	54.622796
775.000000	54.621217
774.000000	54.639941
773.000000	54.544912
772.000000	54.469405
771.000000	54.627297
770.000000	54.529281
769.000000	54.525639
768.000000	54.465422
767.000000	54.498351
766.000000	54.418003
765.000000	54.426977
764.000000	54.356777
763.000000	54.346156
762.000000	54.324051
761.000000	54.266535
760.000000	54.345653
759.000000	54.426087
758.000000	54.279086
757.000000	54.232581
756.000000	54.223846
755.000000	54.227856
754.000000	54.189177
753.000000	54.219602
752.000000	54.093019
751.000000	54.087543
750.000000	54.098072
749.000000	54.127549
748.000000	54.065035
747.000000	53.983189
746.000000	53.986484
745.000000	53.979180
744.000000	54.010487
743.000000	53.974310
742.000000	53.876344
741.000000	53.894800
740.000000	53.877022
739.000000	53.815038
738.000000	53.769757
737.000000	53.788593
736.000000	53.778955
735.000000	53.717018
734.000000	53.705135
733.000000	53.706060
732.000000	53.672211
731.000000	53.634428
730.000000	53.574986
729.000000	53.457883
728.000000	53.432401
727.000000	53.481936
726.000000	53.434025
725.000000	53.348723
724.000000	53.335553
723.000000	53.367884
722.000000	53.357140
721.000000	53.322509
720.000000	53.274889
719.000000	53.199953
718.000000	53.148169
717.000000	53.204841
716.000000	53.168428
715.000000	53.132868
714.000000	53.123381
713.000000	53.057539
712.000000	53.062455
711.000000	53.000740
710.000000	52.939996
709.000000	52.926915
708.000000	52.867954
707.000000	52.831848
706.000000	52.849432
705.000000	52.790483
704.000000	52.743221
703.000000	52.736181
702.000000	52.682505
701.000000	52.582738
700.000000	52.541541
699.000000	52.554814
698.000000	52.482246
697.000000	52.431186
696.000000	52.447326
695.000000	52.386487
694.000000	52.319796
693.000000	52.279003
692.000000	52.230945
691.000000	52.157463
690.000000	52.136596
689.000000	52.064930
688.000000	52.001237
687.000000	51.964132
686.000000	51.922992
685.000000	51.910001
684.000000	51.871848
683.000000	51.773634
682.000000	51.727733
681.000000	51.675380
680.000000	51.688295
679.000000	51.701579
678.000000	51.592556
677.000000	51.516719
676.000000	51.463263
675.000000	51.393065
674.000000	51.323535
673.000000	51.278611
672.000000	51.223360
671.000000	51.182084
670.000000	51.122272
669.000000	51.091248
668.000000	51.004403
667.000000	50.989187
666.000000	50.951205
665.000000	50.859958
664.000000	50.830651
663.000000	50.767383
662.000000	50.694039
661.000000	50.613547
660.000000	50.603906
659.000000	50.515668
658.000000	50.461753
657.000000	50.394572
656.000000	50.313215
655.000000	50.271808
654.000000	50.261929
653.000000	50.143130
652.000000	50.076526
651.000000	50.014786
650.000000	49.929509
649.000000	49.869564
648.000000	49.794216
647.000000	49.717834
646.000000	49.617626
645.000000	49.592166
644.000000	49.500921
643.000000	49.450423
642.000000	49.368383
641.000000	49.266706
640.000000	49.224331
639.000000	49.159730
638.000000	49.069470
637.000000	49.016244
636.000000	48.945581
635.000000	48.866163
634.000000	48.764864
633.000000	48.707579
632.000000	48.610775
631.000000	48.574242
630.000000	48.491009
629.000000	48.416977
628.000000	48.351302
627.000000	48.276851
626.000000	48.241053
625.000000	48.146507
624.000000	48.068977
623.000000	47.997543
622.000000	47.965948
621.000000	47.839251
620.000000	47.743203
619.000000	47.641791
618.000000	47.597088
617.000000	47.562619
616.000000	47.478377
615.000000	47.423192
614.000000	47.356230
613.000000	47.306124
612.000000	47.200288
611.000000	47.102060
610.000000	47.044981
609.000000	46.995402
608.000000	46.934347
607.000000	46.845644
606.000000	46.753741
605.000000	46.718147
604.000000	46.636148
603.000000	46.622820
602.000000	46.536188
601.000000	46.532857
600.000000	46.384219
599.000000	46.346730
598.000000	46.246975
597.000000	46.201212
596.000000	46.130525
595.000000	46.026987
594.000000	45.989061
593.000000	45.948905
592.000000	45.807049
591.000000	45.755246
590.000000	45.683507
589.000000	45.630816
588.000000	45.546878
587.000000	45.484686
586.000000	45.396165
585.000000	45.368111
584.000000	45.185510
583.000000	45.188195
582.000000	45.128596
581.000000	45.051824
580.000000	44.915970
579.000000	44.908148
578.000000	44.828208
577.000000	44.741250
576.000000	44.670203
575.000000	44.604728
574.000000	44.506231
573.000000	44.404203
572.000000	44.354176
571.000000	44.311980
570.000000	44.220778
569.000000	44.162353
568.000000	44.038573
567.000000	44.005414
566.000000	43.862320
565.000000	43.879032
564.000000	43.787672
563.000000	43.682587
562.000000	43.677408
561.000000	43.609223
560.000000	43.520718
559.000000	43.446528
558.000000	43.371783
557.000000	43.355602
556.000000	43.261361
555.000000	43.179591
554.000000	43.072539
553.000000	42.997546
552.000000	42.909373
551.000000	42.840299
550.000000	42.776678
549.000000	42.669484
548.000000	42.635940
547.000000	42.533600
546.000000	42.432807
545.000000	42.378110
544.000000	42.288888
543.000000	42.191431
542.000000	42.067115
541.000000	42.004818
540.000000	41.882878
539.000000	41.827675
538.000000	41.766955
537.000000	41.661558
536.000000	41.537650
535.000000	41.486180
534.000000	41.401944
533.000000	41.269211
532.000000	41.184653
531.000000	41.117832
530.000000	41.057629
529.000000	40.976836
528.000000	40.884863
527.000000	40.804548
526.000000	40.699087
525.000000	40.609365
524.000000	40.525887
523.000000	40.454811
522.000000	40.344933
521.000000	40.249587
520.000000	40.175707
519.000000	40.088408
518.000000	40.004291
517.000000	39.943478
516.000000	39.813055
515.000000	39.712710
514.000000	39.623469
513.000000	39.535402
512.000000	39.408394
511.000000	39.298199
510.000000	39.202373
509.000000	39.116124
508.000000	38.990825
507.000000	38.889050
506.000000	38.772069
505.000000	38.655974
504.000000	38.529157
503.000000	38.403444
502.000000	38.270656
501.000000	38.158770
500.000000	38.020379
499.000000	37.896394
498.000000	37.755545
497.000000	37.622891
496.000000	37.473210
495.000000	37.317374
494.000000	37.184581
493.000000	37.084955
492.000000	36.929080
491.000000	36.775770
490.000000	36.596046
489.000000	36.439915
488.000000	36.267279
487.000000	36.107272
486.000000	35.942343
485.000000	35.795095
484.000000	35.658162
483.000000	35.489640
482.000000	35.311260
481.000000	35.137881
480.000000	34.971401
479.000000	34.806328
478.000000	34.615719
477.000000	34.450221
476.000000	34.287099
475.000000	34.088558
474.000000	33.898611
473.000000	33.688625
472.000000	33.497263
471.000000	33.337143
470.000000	33.148187
469.000000	32.944816
468.000000	32.746205
467.000000	32.547438
466.000000	32.344691
465.000000	32.140347
464.000000	31.921217
463.000000	31.735108
462.000000	31.514275
461.000000	31.283942
460.000000	31.057658
459.000000	30.827054
458.000000	30.622358
457.000000	30.403990
456.000000	30.171147
455.000000	29.947209
454.000000	29.703247
453.000000	29.443113
452.000000	29.234091
451.000000	28.976064
450.000000	28.729428
449.000000	28.519087
448.000000	28.240673
447.000000	27.989461
446.000000	27.767104
445.000000	27.516731
444.000000	27.269664
443.000000	27.025056
442.000000	26.741728
441.000000	26.501234
440.000000	26.296096
439.000000	26.034940
438.000000	25.776149
437.000000	25.505403
436.000000	25.256725
435.000000	24.993773
434.000000	24.723889
433.000000	24.478512
432.000000	24.242151
431.000000	23.972739
430.000000	23.693370
429.000000	23.442372
428.000000	23.174835
427.000000	22.891879
426.000000	22.662042
425.000000	22.423790
424.000000	22.166187
423.000000	21.895980
422.000000	21.635892
421.000000	21.359183
420.000000	21.127182
419.000000	20.896352
418.000000	20.660159
417.000000	20.433685
416.000000	20.234863
415.000000	20.023481
414.000000	19.855735
413.000000	19.715445
412.000000	19.555012
411.000000	19.378349
410.000000	19.267487
409.000000	19.205909
408.000000	19.129485
407.000000	19.065654
406.000000	18.995426
405.000000	18.900382
404.000000	18.874010
403.000000	18.846972
402.000000	18.793113
401.000000	18.744733
400.000000	18.711361
399.000000	18.675050
398.000000	18.631246
397.000000	18.594224
396.000000	18.546680
395.000000	18.491922
394.000000	18.476600
393.000000	18.406222
392.000000	18.391333
391.000000	18.355985
390.000000	18.255728
389.000000	18.209981
388.000000	18.127489
387.000000	18.070684
386.000000	17.990920
385.000000	17.893645
384.000000	17.873856
383.000000	17.806969
382.000000	17.682058
381.000000	17.608369
380.000000	17.457178
379.000000	17.302300
378.000000	17.185550
377.000000	17.196934
376.000000	17.075645
375.000000	16.963109
374.000000	16.812804
373.000000	16.755603
372.000000	16.704886
371.000000	16.464431
370.000000	16.427019
369.000000	16.350075
368.000000	16.203472
367.000000	16.128868
366.000000	16.065625
365.000000	15.953101
364.000000	15.852602
363.000000	15.709426
362.000000	15.608417
361.000000	15.575010
360.000000	15.427637
359.000000	15.309097
358.000000	15.233987
357.000000	15.168581
356.000000	15.020797
355.000000	14.945592
354.000000	14.838665
353.000000	14.790915
352.000000	14.710163
351.000000	14.623127
350.000000	14.573130
349.000000	14.426740
348.000000	14.320729
347.000000	14.378775
346.000000	14.273406
345.000000	14.207076
344.000000	14.030318
343.000000	13.907934
342.000000	13.882936
341.000000	13.777190
340.000000	13.779839
339.000000	13.686821
338.000000	13.645525
337.000000	13.513897
336.000000	13.539134
335.000000	13.325987
334.000000	13.356914
333.000000	13.278256
332.000000	13.184240
331.000000	13.184127
330.000000	13.092164
329.000000	12.938810
328.000000	12.904082
327.000000	12.922349
326.000000	12.845180
325.000000	12.677067
324.000000	12.673463
323.000000	12.566390
322.000000	12.604705
321.000000	12.555964
320.000000	12.512406
319.000000	12.510427
318.000000	12.526612
317.000000	12.451680
316.000000	12.390841
315.000000	12.262603
314.000000	12.302808
313.000000	12.290461
312.000000	12.192439
311.000000	12.079799
310.000000	12.073774
309.000000	12.025211
308.000000	11.846611
307.000000	11.814038
306.000000	11.828783
305.000000	11.781644
304.000000	11.753400
303.000000	11.604138
302.000000	11.609178
301.000000	11.524955
300.000000	11.472942
299.000000	11.349084
298.000000	11.265036
297.000000	11.116451
296.000000	10.965550
295.000000	10.879843
294.000000	10.704096
293.000000	10.550185
292.000000	10.456553
291.000000	10.315337
290.000000	10.299581
289.000000	10.185068
288.000000	10.174300
287.000000	10.180953
286.000000	10.293801
285.000000	10.310151
284.000000	10.398561
283.000000	10.535981
282.000000	10.540423
281.000000	10.591922
280.000000	10.700415
279.000000	10.791639
278.000000	10.880858
277.000000	10.966139
276.000000	11.107632
275.000000	11.157994
274.000000	11.233862
273.000000	11.356300
272.000000	11.524771
271.000000	11.602071
270.000000	11.680502
269.000000	11.734545
268.000000	11.809264
267.000000	11.943031
266.000000	12.114000
265.000000	12.228596
264.000000	12.312695
263.000000	12.418972
262.000000	12.544569
261.000000	12.685723
260.000000	12.802464
259.000000	12.985240
258.000000	13.093134
257.000000	13.171082
256.000000	13.337612
255.000000	13.447126
254.000000	13.560698
253.000000	13.650550
252.000000	13.698444
251.000000	13.721221
250.000000	13.730239
249.000000	13.692240
248.000000	13.684294
247.000000	13.632754
246.000000	13.577599
245.000000	13.565017
244.000000	13.583030
243.000000	13.547259
242.000000	13.597643
241.000000	13.708964
240.000000	13.771008
239.000000	13.963485
238.000000	14.139363
237.000000	14.285426
236.000000	14.516641
235.000000	14.806262
234.000000	15.042026
233.000000	15.242286
232.000000	15.414501
231.000000	15.522298
230.000000	15.744347
229.000000	15.916624
228.000000	15.975692
227.000000	16.097628
226.000000	16.280632
225.000000	16.531681
224.000000	16.789037
223.000000	17.028545
222.000000	17.298736
221.000000	17.507899
220.000000	17.683150
219.000000	17.949902
218.000000	18.207488
217.000000	18.430155
216.000000	18.752429
215.000000	19.064683
214.000000	19.338452
213.000000	19.785322
212.000000	20.122024
211.000000	20.507789
210.000000	20.898019
209.000000	21.253054
208.000000	21.659816
207.000000	22.001197
206.000000	22.510538
205.000000	23.343307
204.000000	24.074142
203.000000	24.544235
202.000000	25.210562
201.000000	25.718213
200.000000	26.275642
