PE UV       SUBTECH     SPECTRUM    ASCII       PEDS        4.00        
   -1
SGRAG5_2.Sample.asc
23/09/07
11:41:15.00
23/09/07
11:41:15.00
Administrator

250.000000
1
Lambda 750
750N8071901
PerkinElmer UV WinLab 6.0.4.0738 / 1.61.00 Lambda 900

0
0
3350/servo 860.8/2
0
0
UV/VIS
1
1
1
CommonBeamDepol,150mm sphere / downward view
0
0
0
0
Program
Program
3350/servo 860.8/2
3350/0.2 860.8/0.2
3350/0.2 860.8/0.2
0
1
 
 
 
0
 
860.8
319.2
860.8
Front
100
on
 
 
0
0
0
 
0
 
 
 
0
 
 
0
0
0
0
0
 
 
 
 
0
0


0
0
#HDR
-1
-1
#GR
nm
%R
1.0
0.0
2500.000000
-10.000000
226
8
85.555664
16.717638
#DATA
2500.000000	33.648910
2490.000000	32.196469
2480.000000	36.518707
2470.000000	37.717444
2460.000000	36.920178
2450.000000	39.496712
2440.000000	39.790057
2430.000000	40.648665
2420.000000	40.621428
2410.000000	40.858980
2400.000000	41.485820
2390.000000	42.347242
2380.000000	42.891005
2370.000000	42.603067
2360.000000	41.586529
2350.000000	42.840305
2340.000000	42.372680
2330.000000	41.095479
2320.000000	41.685432
2310.000000	39.995538
2300.000000	39.529123
2290.000000	40.615361
2280.000000	40.999908
2270.000000	43.413581
2260.000000	46.287414
2250.000000	47.520176
2240.000000	48.317246
2230.000000	47.820924
2220.000000	46.571015
2210.000000	45.838877
2200.000000	45.073701
2190.000000	45.604847
2180.000000	46.124688
2170.000000	47.391844
2160.000000	49.237158
2150.000000	50.528735
2140.000000	51.190110
2130.000000	51.532152
2120.000000	51.430645
2110.000000	50.935978
2100.000000	50.543197
2090.000000	49.589149
2080.000000	47.849023
2070.000000	45.948377
2060.000000	44.711854
2050.000000	45.378501
2040.000000	45.997774
2030.000000	45.857196
2020.000000	44.327542
2010.000000	42.992036
2000.000000	41.310059
1990.000000	39.657825
1980.000000	37.895331
1970.000000	36.940243
1960.000000	36.587589
1950.000000	37.445375
1940.000000	39.958925
1930.000000	43.378729
1920.000000	49.270029
1910.000000	56.216506
1900.000000	61.484029
1890.000000	66.005514
1880.000000	68.316781
1870.000000	69.186896
1860.000000	69.414833
1850.000000	69.211727
1840.000000	68.985524
1830.000000	68.699091
1820.000000	68.280743
1810.000000	68.043667
1800.000000	67.666859
1790.000000	67.397751
1780.000000	67.108506
1770.000000	66.725664
1760.000000	66.399070
1750.000000	66.062939
1740.000000	66.477883
1730.000000	67.509510
1720.000000	68.130901
1710.000000	68.598129
1700.000000	69.330912
1690.000000	70.748238
1680.000000	71.991017
1670.000000	72.430210
1660.000000	72.511714
1650.000000	72.267243
1640.000000	71.900333
1630.000000	71.325359
1620.000000	70.664776
1610.000000	70.050498
1600.000000	69.506366
1590.000000	68.904476
1580.000000	68.486926
1570.000000	68.184290
1560.000000	67.648512
1550.000000	66.715123
1540.000000	65.941170
1530.000000	65.350969
1520.000000	65.042251
1510.000000	64.771333
1500.000000	64.771527
1490.000000	64.817354
1480.000000	65.037087
1470.000000	65.456149
1460.000000	66.236604
1450.000000	67.388234
1440.000000	68.871146
1430.000000	70.800287
1420.000000	73.280566
1410.000000	75.706568
1400.000000	77.498476
1390.000000	78.580186
1380.000000	79.110924
1370.000000	79.576140
1360.000000	80.191920
1350.000000	80.658784
1340.000000	80.945867
1330.000000	81.301083
1320.000000	81.594616
1310.000000	81.754568
1300.000000	81.760589
1290.000000	81.775501
1280.000000	81.772206
1270.000000	81.904663
1260.000000	81.843648
1250.000000	81.783202
1240.000000	81.743589
1230.000000	81.601469
1220.000000	81.369001
1210.000000	81.208839
1200.000000	81.282009
1190.000000	81.603530
1180.000000	81.962582
1170.000000	82.484860
1160.000000	83.018792
1150.000000	83.292834
1140.000000	83.582582
1130.000000	83.705381
1120.000000	83.685171
1110.000000	83.844287
1100.000000	83.954653
1090.000000	84.017323
1080.000000	84.040724
1070.000000	83.974698
1060.000000	83.982027
1050.000000	83.909301
1040.000000	83.935562
1030.000000	83.875697
1020.000000	83.964466
1010.000000	84.143931
1000.000000	84.219606
990.000000	84.291121
980.000000	84.379591
970.000000	84.571892
960.000000	84.626132
950.000000	84.713208
940.000000	84.704588
930.000000	84.864471
920.000000	84.815429
910.000000	84.994274
900.000000	85.053345
890.000000	85.093800
880.000000	85.110227
870.000000	85.248941
860.000000	85.555664
850.000000	84.222084
840.000000	85.225329
830.000000	85.255242
820.000000	85.404525
810.000000	85.217461
800.000000	85.476195
790.000000	85.194252
780.000000	85.062554
770.000000	85.196488
760.000000	85.156536
750.000000	84.893625
740.000000	85.078178
730.000000	85.264440
720.000000	84.947114
710.000000	84.766396
700.000000	84.736568
690.000000	84.462720
680.000000	84.379567
670.000000	84.247232
660.000000	84.050937
650.000000	83.890327
640.000000	83.608822
630.000000	83.322916
620.000000	83.026169
610.000000	82.744995
600.000000	82.456263
590.000000	81.892279
580.000000	81.532543
570.000000	81.120540
560.000000	80.575113
550.000000	79.953510
540.000000	79.384126
530.000000	78.731578
520.000000	78.007454
510.000000	77.304553
500.000000	76.324283
490.000000	75.408531
480.000000	74.367875
470.000000	73.347134
460.000000	71.950804
450.000000	70.405279
440.000000	68.728297
430.000000	66.447831
420.000000	64.185445
410.000000	61.381245
400.000000	58.856314
390.000000	56.117477
380.000000	53.527489
370.000000	50.738117
360.000000	47.389488
350.000000	45.147970
340.000000	40.919586
330.000000	38.554604
320.000000	35.426396
310.000000	33.149826
300.000000	28.567562
290.000000	22.001960
280.000000	18.216672
270.000000	16.765472
260.000000	16.717638
250.000000	17.097733
