PE UV       SUBTECH     SPECTRUM    ASCII       PEDS        4.00        
   -1
TDmshap12.Sample.asc
18/03/19
14:32:12.00
18/03/19
14:32:12.00
Administrator

200.000000
1
Lambda 750
750N8071901
PerkinElmer UV WinLab 6.0.4.0738 / 1.61.00 Lambda 900

0
0
3350/servo 860.8/2
0
0
UV/VIS
1
1
1
CommonBeamDepol,150mm sphere / downward view
0
0
0
0
Program
Program
3350/servo 860.8/2
3350/0.2 860.8/0.2
3350/0.2 860.8/0.2
0
1
 
 
 
0
 
860.8
319.2
860.8
Front
100
on
 
 
0
0
0
 
0
 
 
 
0
 
 
0
0
0
0
0
 
 
 
 
0
0


0
0
#HDR
-1
-1
#GR
nm
%T
1.0
0.0
2350.000000
-1.000000
2151
8
10.234516
-0.024332
#DATA
2350.000000	2.297327
2349.000000	2.250399
2348.000000	2.345865
2347.000000	2.972588
2346.000000	2.212081
2345.000000	2.338842
2344.000000	2.141465
2343.000000	2.025914
2342.000000	2.298821
2341.000000	2.612578
2340.000000	2.579404
2339.000000	2.559436
2338.000000	2.719133
2337.000000	2.649799
2336.000000	2.752487
2335.000000	3.167206
2334.000000	3.514716
2333.000000	3.151632
2332.000000	3.261379
2331.000000	2.976628
2330.000000	2.976871
2329.000000	3.040844
2328.000000	2.900220
2327.000000	2.883521
2326.000000	2.977953
2325.000000	3.288194
2324.000000	3.001880
2323.000000	2.886359
2322.000000	3.010042
2321.000000	2.922205
2320.000000	2.864305
2319.000000	2.880152
2318.000000	2.797772
2317.000000	2.965748
2316.000000	2.898042
2315.000000	2.767110
2314.000000	2.481505
2313.000000	2.650681
2312.000000	2.445535
2311.000000	2.584026
2310.000000	2.342496
2309.000000	2.612734
2308.000000	2.666182
2307.000000	2.674713
2306.000000	2.717149
2305.000000	2.531292
2304.000000	2.657264
2303.000000	2.770199
2302.000000	2.887062
2301.000000	2.344331
2300.000000	2.315044
2299.000000	2.347584
2298.000000	2.191532
2297.000000	2.151201
2296.000000	2.412593
2295.000000	2.467128
2294.000000	2.467639
2293.000000	2.385887
2292.000000	2.282820
2291.000000	2.553394
2290.000000	2.475529
2289.000000	2.172048
2288.000000	2.440906
2287.000000	2.419778
2286.000000	2.477271
2285.000000	2.390624
2284.000000	2.290173
2283.000000	2.216007
2282.000000	2.095732
2281.000000	2.299201
2280.000000	2.343101
2279.000000	2.385573
2278.000000	2.269892
2277.000000	2.292929
2276.000000	2.428793
2275.000000	2.615087
2274.000000	2.503635
2273.000000	2.341354
2272.000000	2.396965
2271.000000	2.321896
2270.000000	2.288035
2269.000000	2.376790
2268.000000	2.389797
2267.000000	2.419903
2266.000000	2.413677
2265.000000	2.452541
2264.000000	2.558613
2263.000000	2.561624
2262.000000	2.536727
2261.000000	2.541197
2260.000000	2.499922
2259.000000	2.638462
2258.000000	2.683974
2257.000000	2.795248
2256.000000	2.956431
2255.000000	2.929964
2254.000000	2.798995
2253.000000	2.769379
2252.000000	2.834095
2251.000000	2.871582
2250.000000	2.886366
2249.000000	2.969061
2248.000000	3.024844
2247.000000	3.006509
2246.000000	3.111495
2245.000000	3.210384
2244.000000	3.249501
2243.000000	3.445161
2242.000000	3.522813
2241.000000	3.385805
2240.000000	3.459691
2239.000000	3.586818
2238.000000	3.516426
2237.000000	3.341432
2236.000000	3.305717
2235.000000	3.386465
2234.000000	3.398748
2233.000000	3.363098
2232.000000	3.485643
2231.000000	3.640802
2230.000000	3.611686
2229.000000	3.610247
2228.000000	3.671066
2227.000000	3.638755
2226.000000	3.585314
2225.000000	3.451948
2224.000000	3.522804
2223.000000	3.569157
2222.000000	3.540893
2221.000000	3.501794
2220.000000	3.535266
2219.000000	3.471597
2218.000000	3.413172
2217.000000	3.511086
2216.000000	3.546004
2215.000000	3.603698
2214.000000	3.566104
2213.000000	3.646397
2212.000000	3.503353
2211.000000	3.387940
2210.000000	3.360902
2209.000000	3.340420
2208.000000	3.344817
2207.000000	3.382718
2206.000000	3.313975
2205.000000	3.209121
2204.000000	3.244615
2203.000000	3.194511
2202.000000	3.239940
2201.000000	3.282349
2200.000000	3.310440
2199.000000	3.308677
2198.000000	3.379438
2197.000000	3.288770
2196.000000	3.179277
2195.000000	3.263899
2194.000000	3.190317
2193.000000	3.038243
2192.000000	3.018850
2191.000000	2.979324
2190.000000	3.052615
2189.000000	3.127488
2188.000000	2.945365
2187.000000	2.939447
2186.000000	3.074364
2185.000000	2.862681
2184.000000	2.977684
2183.000000	3.000306
2182.000000	2.924452
2181.000000	2.911441
2180.000000	2.877963
2179.000000	2.857414
2178.000000	2.768028
2177.000000	2.837232
2176.000000	2.963637
2175.000000	2.966407
2174.000000	2.903467
2173.000000	2.859187
2172.000000	2.874467
2171.000000	3.079275
2170.000000	3.050650
2169.000000	3.060810
2168.000000	3.108033
2167.000000	3.140538
2166.000000	2.967376
2165.000000	3.082115
2164.000000	3.076777
2163.000000	3.217979
2162.000000	3.228218
2161.000000	3.026384
2160.000000	3.145854
2159.000000	3.075815
2158.000000	3.148890
2157.000000	3.209538
2156.000000	3.170387
2155.000000	3.355812
2154.000000	3.270194
2153.000000	3.368955
2152.000000	3.382098
2151.000000	3.422720
2150.000000	3.379374
2149.000000	3.293831
2148.000000	3.424491
2147.000000	3.254015
2146.000000	3.268001
2145.000000	3.444906
2144.000000	3.604045
2143.000000	3.498433
2142.000000	3.652843
2141.000000	3.840831
2140.000000	3.680697
2139.000000	3.700943
2138.000000	3.837454
2137.000000	3.794751
2136.000000	3.697849
2135.000000	3.596126
2134.000000	3.790519
2133.000000	3.599478
2132.000000	3.792048
2131.000000	3.895536
2130.000000	3.881204
2129.000000	3.954417
2128.000000	4.004722
2127.000000	3.789852
2126.000000	3.691519
2125.000000	3.663155
2124.000000	3.647562
2123.000000	3.812942
2122.000000	3.903498
2121.000000	3.929698
2120.000000	3.925920
2119.000000	3.715104
2118.000000	3.949229
2117.000000	3.781431
2116.000000	3.878001
2115.000000	3.917397
2114.000000	3.974730
2113.000000	3.968941
2112.000000	4.013594
2111.000000	3.997371
2110.000000	3.961402
2109.000000	3.766934
2108.000000	3.873957
2107.000000	3.866173
2106.000000	3.777309
2105.000000	3.808480
2104.000000	3.955030
2103.000000	3.986047
2102.000000	3.984147
2101.000000	4.055605
2100.000000	3.924828
2099.000000	4.064217
2098.000000	3.999107
2097.000000	3.892205
2096.000000	3.918409
2095.000000	4.006909
2094.000000	3.949114
2093.000000	3.920184
2092.000000	3.898664
2091.000000	3.889642
2090.000000	3.853317
2089.000000	3.918216
2088.000000	3.971189
2087.000000	3.867702
2086.000000	3.834581
2085.000000	3.851317
2084.000000	3.862295
2083.000000	3.766335
2082.000000	3.792753
2081.000000	3.865462
2080.000000	3.802511
2079.000000	3.734420
2078.000000	3.712353
2077.000000	3.701400
2076.000000	3.596889
2075.000000	3.626624
2074.000000	3.645870
2073.000000	3.649967
2072.000000	3.617731
2071.000000	3.672880
2070.000000	3.597593
2069.000000	3.474134
2068.000000	3.378580
2067.000000	3.312108
2066.000000	3.366450
2065.000000	3.305088
2064.000000	3.285648
2063.000000	3.308647
2062.000000	3.323326
2061.000000	3.216330
2060.000000	3.187253
2059.000000	3.178876
2058.000000	3.106826
2057.000000	3.065223
2056.000000	3.045615
2055.000000	3.010780
2054.000000	2.997611
2053.000000	2.958315
2052.000000	2.926174
2051.000000	2.885528
2050.000000	2.827504
2049.000000	2.842482
2048.000000	2.768157
2047.000000	2.689404
2046.000000	2.706168
2045.000000	2.738326
2044.000000	2.780204
2043.000000	2.783443
2042.000000	2.724601
2041.000000	2.669810
2040.000000	2.695276
2039.000000	2.709195
2038.000000	2.737268
2037.000000	2.739228
2036.000000	2.723763
2035.000000	2.730756
2034.000000	2.742961
2033.000000	2.785726
2032.000000	2.825244
2031.000000	2.882530
2030.000000	2.941328
2029.000000	2.919658
2028.000000	2.902423
2027.000000	2.951033
2026.000000	2.987895
2025.000000	2.985793
2024.000000	3.002185
2023.000000	3.047809
2022.000000	3.057580
2021.000000	3.033682
2020.000000	3.005333
2019.000000	3.002719
2018.000000	3.055695
2017.000000	3.038072
2016.000000	2.983074
2015.000000	3.002559
2014.000000	2.982084
2013.000000	2.931432
2012.000000	2.978458
2011.000000	3.018128
2010.000000	3.020078
2009.000000	3.010284
2008.000000	2.954782
2007.000000	2.921667
2006.000000	2.901559
2005.000000	2.904768
2004.000000	2.873877
2003.000000	2.842526
2002.000000	2.820758
2001.000000	2.809169
2000.000000	2.809745
1999.000000	2.787509
1998.000000	2.772910
1997.000000	2.760774
1996.000000	2.761331
1995.000000	2.723769
1994.000000	2.681203
1993.000000	2.648763
1992.000000	2.651497
1991.000000	2.648970
1990.000000	2.611036
1989.000000	2.580391
1988.000000	2.549726
1987.000000	2.518072
1986.000000	2.518549
1985.000000	2.506720
1984.000000	2.470125
1983.000000	2.429156
1982.000000	2.407163
1981.000000	2.415898
1980.000000	2.419736
1979.000000	2.414145
1978.000000	2.397409
1977.000000	2.337396
1976.000000	2.341677
1975.000000	2.323504
1974.000000	2.304832
1973.000000	2.299671
1972.000000	2.288411
1971.000000	2.278412
1970.000000	2.244768
1969.000000	2.187258
1968.000000	2.213406
1967.000000	2.198864
1966.000000	2.214579
1965.000000	2.199050
1964.000000	2.174836
1963.000000	2.129455
1962.000000	2.139940
1961.000000	2.133302
1960.000000	2.103209
1959.000000	2.083443
1958.000000	2.091469
1957.000000	2.098109
1956.000000	2.118081
1955.000000	2.154967
1954.000000	2.079659
1953.000000	2.123134
1952.000000	2.075492
1951.000000	2.069183
1950.000000	2.041970
1949.000000	1.976277
1948.000000	2.017385
1947.000000	2.052700
1946.000000	2.033672
1945.000000	2.011276
1944.000000	2.022686
1943.000000	2.040835
1942.000000	2.057294
1941.000000	2.051812
1940.000000	2.086301
1939.000000	2.095274
1938.000000	2.131920
1937.000000	2.093795
1936.000000	2.150751
1935.000000	2.180892
1934.000000	2.156596
1933.000000	2.238575
1932.000000	2.198223
1931.000000	2.219543
1930.000000	2.292899
1929.000000	2.230322
1928.000000	2.289465
1927.000000	2.332650
1926.000000	2.364841
1925.000000	2.383318
1924.000000	2.440512
1923.000000	2.473637
1922.000000	2.498974
1921.000000	2.592084
1920.000000	2.623038
1919.000000	2.690325
1918.000000	2.706214
1917.000000	2.793977
1916.000000	2.816346
1915.000000	3.078736
1914.000000	3.110594
1913.000000	3.111826
1912.000000	3.098506
1911.000000	3.181074
1910.000000	3.230672
1909.000000	3.332221
1908.000000	3.431898
1907.000000	3.630446
1906.000000	3.698654
1905.000000	3.758445
1904.000000	3.896843
1903.000000	3.997708
1902.000000	4.147510
1901.000000	4.226319
1900.000000	4.426397
1899.000000	4.550159
1898.000000	4.732587
1897.000000	4.858062
1896.000000	4.961227
1895.000000	5.130143
1894.000000	5.188174
1893.000000	5.384126
1892.000000	5.490503
1891.000000	5.636374
1890.000000	5.777685
1889.000000	5.879321
1888.000000	5.995919
1887.000000	6.146644
1886.000000	6.306293
1885.000000	6.477128
1884.000000	6.601399
1883.000000	6.793893
1882.000000	6.906476
1881.000000	6.973084
1880.000000	7.045879
1879.000000	7.158525
1878.000000	7.257188
1877.000000	7.382556
1876.000000	7.468914
1875.000000	7.521616
1874.000000	7.643776
1873.000000	7.689699
1872.000000	7.833240
1871.000000	7.881198
1870.000000	7.910152
1869.000000	7.995810
1868.000000	7.986474
1867.000000	8.015891
1866.000000	8.063315
1865.000000	8.074115
1864.000000	8.081459
1863.000000	8.098598
1862.000000	8.140970
1861.000000	8.177026
1860.000000	8.203658
1859.000000	8.182085
1858.000000	8.162767
1857.000000	8.191834
1856.000000	8.214975
1855.000000	8.243770
1854.000000	8.293352
1853.000000	8.339024
1852.000000	8.298421
1851.000000	8.276339
1850.000000	8.288015
1849.000000	8.256069
1848.000000	8.256230
1847.000000	8.270684
1846.000000	8.269600
1845.000000	8.294291
1844.000000	8.289862
1843.000000	8.272107
1842.000000	8.267934
1841.000000	8.224444
1840.000000	8.216191
1839.000000	8.219918
1838.000000	8.211341
1837.000000	8.160102
1836.000000	8.154299
1835.000000	8.138710
1834.000000	8.074060
1833.000000	8.072466
1832.000000	8.083476
1831.000000	8.043228
1830.000000	8.025118
1829.000000	8.020390
1828.000000	7.996377
1827.000000	7.968795
1826.000000	7.977671
1825.000000	7.938440
1824.000000	7.919447
1823.000000	7.925697
1822.000000	7.906911
1821.000000	7.887743
1820.000000	7.846039
1819.000000	7.818285
1818.000000	7.840592
1817.000000	7.821562
1816.000000	7.811066
1815.000000	7.799492
1814.000000	7.788857
1813.000000	7.788131
1812.000000	7.752754
1811.000000	7.747243
1810.000000	7.743662
1809.000000	7.723063
1808.000000	7.700838
1807.000000	7.689245
1806.000000	7.689651
1805.000000	7.665884
1804.000000	7.645513
1803.000000	7.638478
1802.000000	7.623989
1801.000000	7.631903
1800.000000	7.638647
1799.000000	7.611670
1798.000000	7.596186
1797.000000	7.592224
1796.000000	7.588149
1795.000000	7.599601
1794.000000	7.607761
1793.000000	7.586777
1792.000000	7.561818
1791.000000	7.567743
1790.000000	7.557186
1789.000000	7.544439
1788.000000	7.541522
1787.000000	7.542935
1786.000000	7.545509
1785.000000	7.549857
1784.000000	7.551738
1783.000000	7.543611
1782.000000	7.534939
1781.000000	7.514164
1780.000000	7.492183
1779.000000	7.500691
1778.000000	7.458712
1777.000000	7.443151
1776.000000	7.438537
1775.000000	7.404885
1774.000000	7.369482
1773.000000	7.366157
1772.000000	7.336874
1771.000000	7.328357
1770.000000	7.301654
1769.000000	7.276394
1768.000000	7.247291
1767.000000	7.241766
1766.000000	7.209279
1765.000000	7.188509
1764.000000	7.158829
1763.000000	7.146559
1762.000000	7.104323
1761.000000	7.072957
1760.000000	7.070960
1759.000000	7.060083
1758.000000	7.048528
1757.000000	6.990914
1756.000000	6.999928
1755.000000	6.970125
1754.000000	6.970894
1753.000000	6.948432
1752.000000	6.920656
1751.000000	6.883711
1750.000000	6.904124
1749.000000	6.898920
1748.000000	6.861860
1747.000000	6.846291
1746.000000	6.836009
1745.000000	6.799631
1744.000000	6.775733
1743.000000	6.729395
1742.000000	6.731390
1741.000000	6.727263
1740.000000	6.704520
1739.000000	6.674423
1738.000000	6.645719
1737.000000	6.625129
1736.000000	6.644316
1735.000000	6.606223
1734.000000	6.627541
1733.000000	6.626781
1732.000000	6.600316
1731.000000	6.586145
1730.000000	6.590244
1729.000000	6.588422
1728.000000	6.605640
1727.000000	6.620847
1726.000000	6.652420
1725.000000	6.650724
1724.000000	6.683968
1723.000000	6.735698
1722.000000	6.735787
1721.000000	6.780761
1720.000000	6.808860
1719.000000	6.836086
1718.000000	6.838599
1717.000000	6.864568
1716.000000	6.897564
1715.000000	6.929818
1714.000000	6.957583
1713.000000	6.982193
1712.000000	6.997617
1711.000000	6.998611
1710.000000	7.072094
1709.000000	7.047588
1708.000000	7.050067
1707.000000	7.050184
1706.000000	7.086388
1705.000000	7.066636
1704.000000	7.138322
1703.000000	7.104247
1702.000000	7.122685
1701.000000	7.119689
1700.000000	7.137762
1699.000000	7.100646
1698.000000	7.157614
1697.000000	7.138264
1696.000000	7.172023
1695.000000	7.156821
1694.000000	7.190336
1693.000000	7.188829
1692.000000	7.177532
1691.000000	7.205299
1690.000000	7.237344
1689.000000	7.291353
1688.000000	7.327809
1687.000000	7.343045
1686.000000	7.369957
1685.000000	7.417528
1684.000000	7.489561
1683.000000	7.529218
1682.000000	7.581446
1681.000000	7.643729
1680.000000	7.672500
1679.000000	7.743930
1678.000000	7.791745
1677.000000	7.828052
1676.000000	7.883709
1675.000000	7.945563
1674.000000	8.020540
1673.000000	8.062378
1672.000000	8.104259
1671.000000	8.166665
1670.000000	8.218219
1669.000000	8.253285
1668.000000	8.282476
1667.000000	8.326538
1666.000000	8.356032
1665.000000	8.367615
1664.000000	8.384044
1663.000000	8.385134
1662.000000	8.417475
1661.000000	8.471368
1660.000000	8.486847
1659.000000	8.532156
1658.000000	8.558506
1657.000000	8.569387
1656.000000	8.583919
1655.000000	8.585705
1654.000000	8.600920
1653.000000	8.603716
1652.000000	8.616975
1651.000000	8.613049
1650.000000	8.612339
1649.000000	8.599553
1648.000000	8.579457
1647.000000	8.559851
1646.000000	8.542251
1645.000000	8.537348
1644.000000	8.549960
1643.000000	8.534166
1642.000000	8.525492
1641.000000	8.523001
1640.000000	8.484616
1639.000000	8.484767
1638.000000	8.474996
1637.000000	8.472193
1636.000000	8.462526
1635.000000	8.445694
1634.000000	8.421983
1633.000000	8.391850
1632.000000	8.370311
1631.000000	8.346701
1630.000000	8.339104
1629.000000	8.320980
1628.000000	8.309669
1627.000000	8.300959
1626.000000	8.278777
1625.000000	8.253034
1624.000000	8.238439
1623.000000	8.215159
1622.000000	8.190648
1621.000000	8.173045
1620.000000	8.149730
1619.000000	8.150586
1618.000000	8.126766
1617.000000	8.098978
1616.000000	8.082959
1615.000000	8.053620
1614.000000	8.045334
1613.000000	8.032042
1612.000000	7.997503
1611.000000	7.970071
1610.000000	7.951968
1609.000000	7.921185
1608.000000	7.905997
1607.000000	7.888072
1606.000000	7.860534
1605.000000	7.835040
1604.000000	7.808411
1603.000000	7.788169
1602.000000	7.768032
1601.000000	7.744758
1600.000000	7.719584
1599.000000	7.696352
1598.000000	7.681797
1597.000000	7.671200
1596.000000	7.655799
1595.000000	7.625921
1594.000000	7.610620
1593.000000	7.601021
1592.000000	7.579229
1591.000000	7.555316
1590.000000	7.545885
1589.000000	7.520432
1588.000000	7.493669
1587.000000	7.479100
1586.000000	7.456685
1585.000000	7.443827
1584.000000	7.428761
1583.000000	7.404836
1582.000000	7.398949
1581.000000	7.376379
1580.000000	7.357620
1579.000000	7.356999
1578.000000	7.354062
1577.000000	7.324424
1576.000000	7.298938
1575.000000	7.275650
1574.000000	7.261240
1573.000000	7.259657
1572.000000	7.228840
1571.000000	7.205945
1570.000000	7.193671
1569.000000	7.180715
1568.000000	7.162630
1567.000000	7.140030
1566.000000	7.127750
1565.000000	7.107556
1564.000000	7.091123
1563.000000	7.081813
1562.000000	7.072905
1561.000000	7.062175
1560.000000	7.048899
1559.000000	7.036504
1558.000000	7.013027
1557.000000	7.011308
1556.000000	7.007059
1555.000000	7.012449
1554.000000	6.997155
1553.000000	6.968844
1552.000000	6.966991
1551.000000	6.955844
1550.000000	6.933707
1549.000000	6.904491
1548.000000	6.895243
1547.000000	6.876848
1546.000000	6.848382
1545.000000	6.807737
1544.000000	6.793984
1543.000000	6.787281
1542.000000	6.746118
1541.000000	6.709840
1540.000000	6.683982
1539.000000	6.647997
1538.000000	6.612280
1537.000000	6.581524
1536.000000	6.554375
1535.000000	6.526598
1534.000000	6.489853
1533.000000	6.454549
1532.000000	6.432925
1531.000000	6.402555
1530.000000	6.387324
1529.000000	6.339117
1528.000000	6.316689
1527.000000	6.293891
1526.000000	6.262292
1525.000000	6.241011
1524.000000	6.225826
1523.000000	6.196727
1522.000000	6.189850
1521.000000	6.169566
1520.000000	6.157835
1519.000000	6.143043
1518.000000	6.128355
1517.000000	6.107081
1516.000000	6.102108
1515.000000	6.094969
1514.000000	6.073729
1513.000000	6.069763
1512.000000	6.063450
1511.000000	6.058327
1510.000000	6.053315
1509.000000	6.026747
1508.000000	6.030093
1507.000000	6.028991
1506.000000	6.026515
1505.000000	6.020430
1504.000000	6.016101
1503.000000	6.015136
1502.000000	5.995027
1501.000000	6.003231
1500.000000	6.007330
1499.000000	6.033460
1498.000000	6.036312
1497.000000	6.040498
1496.000000	6.048584
1495.000000	6.025407
1494.000000	6.028765
1493.000000	6.029994
1492.000000	6.016639
1491.000000	6.011205
1490.000000	6.017341
1489.000000	6.027282
1488.000000	6.038443
1487.000000	6.038721
1486.000000	6.057408
1485.000000	6.087107
1484.000000	6.092008
1483.000000	6.103295
1482.000000	6.082872
1481.000000	6.114255
1480.000000	6.133302
1479.000000	6.116515
1478.000000	6.146089
1477.000000	6.144003
1476.000000	6.152190
1475.000000	6.165833
1474.000000	6.156456
1473.000000	6.168104
1472.000000	6.190926
1471.000000	6.206885
1470.000000	6.204675
1469.000000	6.221035
1468.000000	6.220424
1467.000000	6.236790
1466.000000	6.275230
1465.000000	6.279564
1464.000000	6.294023
1463.000000	6.295970
1462.000000	6.310236
1461.000000	6.339771
1460.000000	6.342002
1459.000000	6.353750
1458.000000	6.396739
1457.000000	6.389708
1456.000000	6.401743
1455.000000	6.393679
1454.000000	6.407254
1453.000000	6.448340
1452.000000	6.482319
1451.000000	6.479479
1450.000000	6.475230
1449.000000	6.513753
1448.000000	6.550363
1447.000000	6.570668
1446.000000	6.576793
1445.000000	6.577733
1444.000000	6.599566
1443.000000	6.628146
1442.000000	6.672612
1441.000000	6.688466
1440.000000	6.702409
1439.000000	6.728450
1438.000000	6.744560
1437.000000	6.764215
1436.000000	6.787958
1435.000000	6.827632
1434.000000	6.865828
1433.000000	6.899370
1432.000000	6.934059
1431.000000	6.958756
1430.000000	7.005394
1429.000000	7.038582
1428.000000	7.078318
1427.000000	7.130647
1426.000000	7.163750
1425.000000	7.215751
1424.000000	7.276412
1423.000000	7.310057
1422.000000	7.367116
1421.000000	7.416754
1420.000000	7.478116
1419.000000	7.531681
1418.000000	7.566957
1417.000000	7.631027
1416.000000	7.691466
1415.000000	7.756322
1414.000000	7.787697
1413.000000	7.845127
1412.000000	7.903040
1411.000000	7.976092
1410.000000	8.040936
1409.000000	8.094593
1408.000000	8.165789
1407.000000	8.228389
1406.000000	8.292933
1405.000000	8.359253
1404.000000	8.414069
1403.000000	8.454317
1402.000000	8.513567
1401.000000	8.594819
1400.000000	8.660476
1399.000000	8.708393
1398.000000	8.754201
1397.000000	8.814006
1396.000000	8.864342
1395.000000	8.924280
1394.000000	8.982814
1393.000000	9.020242
1392.000000	9.066860
1391.000000	9.110114
1390.000000	9.153812
1389.000000	9.197692
1388.000000	9.242808
1387.000000	9.307855
1386.000000	9.355220
1385.000000	9.369436
1384.000000	9.398419
1383.000000	9.445735
1382.000000	9.474676
1381.000000	9.496002
1380.000000	9.537493
1379.000000	9.558599
1378.000000	9.561733
1377.000000	9.585167
1376.000000	9.605005
1375.000000	9.618405
1374.000000	9.624539
1373.000000	9.645585
1372.000000	9.675933
1371.000000	9.673237
1370.000000	9.669289
1369.000000	9.679708
1368.000000	9.684772
1367.000000	9.693878
1366.000000	9.706989
1365.000000	9.713012
1364.000000	9.727806
1363.000000	9.742487
1362.000000	9.756457
1361.000000	9.794768
1360.000000	9.831884
1359.000000	9.842266
1358.000000	9.841876
1357.000000	9.843864
1356.000000	9.843696
1355.000000	9.869044
1354.000000	9.889664
1353.000000	9.906090
1352.000000	9.932726
1351.000000	9.946998
1350.000000	9.931979
1349.000000	9.944643
1348.000000	9.977467
1347.000000	9.978450
1346.000000	9.980124
1345.000000	9.979224
1344.000000	10.010387
1343.000000	10.033541
1342.000000	10.039167
1341.000000	10.048364
1340.000000	10.051489
1339.000000	10.066045
1338.000000	10.101606
1337.000000	10.122520
1336.000000	10.125915
1335.000000	10.114791
1334.000000	10.116537
1333.000000	10.125566
1332.000000	10.118584
1331.000000	10.147074
1330.000000	10.175867
1329.000000	10.180693
1328.000000	10.162983
1327.000000	10.144684
1326.000000	10.168375
1325.000000	10.194360
1324.000000	10.222701
1323.000000	10.232257
1322.000000	10.218158
1321.000000	10.188665
1320.000000	10.204627
1319.000000	10.207675
1318.000000	10.200423
1317.000000	10.203129
1316.000000	10.219537
1315.000000	10.234516
1314.000000	10.224467
1313.000000	10.207835
1312.000000	10.173488
1311.000000	10.193766
1310.000000	10.211720
1309.000000	10.202235
1308.000000	10.220651
1307.000000	10.207351
1306.000000	10.192738
1305.000000	10.182583
1304.000000	10.169377
1303.000000	10.175687
1302.000000	10.188729
1301.000000	10.207351
1300.000000	10.209271
1299.000000	10.176839
1298.000000	10.161895
1297.000000	10.163642
1296.000000	10.144816
1295.000000	10.148488
1294.000000	10.134728
1293.000000	10.133088
1292.000000	10.141855
1291.000000	10.134424
1290.000000	10.132442
1289.000000	10.126825
1288.000000	10.138336
1287.000000	10.125883
1286.000000	10.102845
1285.000000	10.078582
1284.000000	10.071797
1283.000000	10.072780
1282.000000	10.078971
1281.000000	10.079426
1280.000000	10.067995
1279.000000	10.078963
1278.000000	10.079166
1277.000000	10.084262
1276.000000	10.065038
1275.000000	10.066381
1274.000000	10.062853
1273.000000	10.059464
1272.000000	10.047547
1271.000000	10.050939
1270.000000	10.039982
1269.000000	10.021600
1268.000000	10.027231
1267.000000	10.017087
1266.000000	10.036015
1265.000000	9.997533
1264.000000	10.024153
1263.000000	10.052701
1262.000000	10.043017
1261.000000	10.030866
1260.000000	10.025607
1259.000000	9.994511
1258.000000	10.000455
1257.000000	9.989140
1256.000000	10.028004
1255.000000	10.027143
1254.000000	10.032289
1253.000000	10.022947
1252.000000	10.001931
1251.000000	9.999383
1250.000000	9.990850
1249.000000	9.993621
1248.000000	9.977162
1247.000000	9.983460
1246.000000	9.984282
1245.000000	9.980816
1244.000000	9.972278
1243.000000	9.968577
1242.000000	9.956972
1241.000000	9.913383
1240.000000	9.907414
1239.000000	9.917944
1238.000000	9.904513
1237.000000	9.871976
1236.000000	9.869479
1235.000000	9.875406
1234.000000	9.864706
1233.000000	9.821053
1232.000000	9.807145
1231.000000	9.803767
1230.000000	9.814131
1229.000000	9.770107
1228.000000	9.771945
1227.000000	9.769077
1226.000000	9.765650
1225.000000	9.762918
1224.000000	9.762677
1223.000000	9.757611
1222.000000	9.750160
1221.000000	9.728899
1220.000000	9.723635
1219.000000	9.724398
1218.000000	9.711366
1217.000000	9.694424
1216.000000	9.677930
1215.000000	9.662528
1214.000000	9.641355
1213.000000	9.628664
1212.000000	9.649485
1211.000000	9.631707
1210.000000	9.606462
1209.000000	9.619893
1208.000000	9.601679
1207.000000	9.550929
1206.000000	9.547534
1205.000000	9.536710
1204.000000	9.523402
1203.000000	9.511025
1202.000000	9.518572
1201.000000	9.498672
1200.000000	9.473499
1199.000000	9.448111
1198.000000	9.437694
1197.000000	9.440032
1196.000000	9.433943
1195.000000	9.416257
1194.000000	9.392930
1193.000000	9.366553
1192.000000	9.356046
1191.000000	9.359157
1190.000000	9.336608
1189.000000	9.286831
1188.000000	9.285668
1187.000000	9.301238
1186.000000	9.286660
1185.000000	9.279228
1184.000000	9.274578
1183.000000	9.277302
1182.000000	9.290316
1181.000000	9.299040
1180.000000	9.312588
1179.000000	9.324851
1178.000000	9.334126
1177.000000	9.345229
1176.000000	9.364237
1175.000000	9.381482
1174.000000	9.401756
1173.000000	9.417292
1172.000000	9.430549
1171.000000	9.440029
1170.000000	9.452435
1169.000000	9.463034
1168.000000	9.480870
1167.000000	9.503189
1166.000000	9.520968
1165.000000	9.536923
1164.000000	9.562657
1163.000000	9.589040
1162.000000	9.598248
1161.000000	9.609105
1160.000000	9.633361
1159.000000	9.648722
1158.000000	9.669100
1157.000000	9.687646
1156.000000	9.698402
1155.000000	9.689486
1154.000000	9.677329
1153.000000	9.693363
1152.000000	9.718840
1151.000000	9.739496
1150.000000	9.758499
1149.000000	9.778096
1148.000000	9.791822
1147.000000	9.798637
1146.000000	9.805286
1145.000000	9.822916
1144.000000	9.841154
1143.000000	9.852883
1142.000000	9.865533
1141.000000	9.877195
1140.000000	9.886127
1139.000000	9.895810
1138.000000	9.915235
1137.000000	9.903615
1136.000000	9.894213
1135.000000	9.904565
1134.000000	9.913250
1133.000000	9.925180
1132.000000	9.937390
1131.000000	9.949152
1130.000000	9.947927
1129.000000	9.957327
1128.000000	9.973898
1127.000000	9.983838
1126.000000	9.981125
1125.000000	9.983721
1124.000000	9.985206
1123.000000	10.001723
1122.000000	9.971114
1121.000000	9.951213
1120.000000	9.954494
1119.000000	9.958533
1118.000000	9.962588
1117.000000	9.969389
1116.000000	9.964302
1115.000000	9.957444
1114.000000	9.961014
1113.000000	9.967389
1112.000000	9.975743
1111.000000	9.971273
1110.000000	9.960025
1109.000000	9.964181
1108.000000	9.957326
1107.000000	9.960410
1106.000000	9.978247
1105.000000	9.982830
1104.000000	9.947832
1103.000000	9.937590
1102.000000	9.940558
1101.000000	9.934207
1100.000000	9.935142
1099.000000	9.937350
1098.000000	9.949798
1097.000000	9.968644
1096.000000	9.949217
1095.000000	9.904835
1094.000000	9.888471
1093.000000	9.909268
1092.000000	9.895403
1091.000000	9.904447
1090.000000	9.910687
1089.000000	9.922269
1088.000000	9.886297
1087.000000	9.868123
1086.000000	9.893795
1085.000000	9.897689
1084.000000	9.898287
1083.000000	9.905413
1082.000000	9.898148
1081.000000	9.862697
1080.000000	9.850759
1079.000000	9.845585
1078.000000	9.847071
1077.000000	9.854122
1076.000000	9.859392
1075.000000	9.870938
1074.000000	9.826653
1073.000000	9.820893
1072.000000	9.821177
1071.000000	9.820729
1070.000000	9.824933
1069.000000	9.855636
1068.000000	9.829745
1067.000000	9.806906
1066.000000	9.790277
1065.000000	9.798105
1064.000000	9.791203
1063.000000	9.807312
1062.000000	9.813715
1061.000000	9.777079
1060.000000	9.743284
1059.000000	9.777395
1058.000000	9.768289
1057.000000	9.782380
1056.000000	9.771777
1055.000000	9.759465
1054.000000	9.739603
1053.000000	9.728136
1052.000000	9.759127
1051.000000	9.743955
1050.000000	9.707423
1049.000000	9.728690
1048.000000	9.691764
1047.000000	9.743866
1046.000000	9.757705
1045.000000	9.713134
1044.000000	9.696932
1043.000000	9.688867
1042.000000	9.714835
1041.000000	9.670615
1040.000000	9.679250
1039.000000	9.690103
1038.000000	9.696207
1037.000000	9.679401
1036.000000	9.676284
1035.000000	9.674170
1034.000000	9.675328
1033.000000	9.652760
1032.000000	9.643118
1031.000000	9.653783
1030.000000	9.674403
1029.000000	9.648617
1028.000000	9.643888
1027.000000	9.661289
1026.000000	9.652626
1025.000000	9.646188
1024.000000	9.648190
1023.000000	9.649956
1022.000000	9.614108
1021.000000	9.624889
1020.000000	9.642223
1019.000000	9.616579
1018.000000	9.619228
1017.000000	9.619169
1016.000000	9.610794
1015.000000	9.597716
1014.000000	9.587933
1013.000000	9.594884
1012.000000	9.620115
1011.000000	9.628898
1010.000000	9.614984
1009.000000	9.612335
1008.000000	9.605532
1007.000000	9.613566
1006.000000	9.634088
1005.000000	9.647888
1004.000000	9.654678
1003.000000	9.649969
1002.000000	9.652658
1001.000000	9.662513
1000.000000	9.667983
999.000000	9.667754
998.000000	9.666479
997.000000	9.680845
996.000000	9.676757
995.000000	9.672085
994.000000	9.662780
993.000000	9.663007
992.000000	9.648268
991.000000	9.640913
990.000000	9.652838
989.000000	9.646933
988.000000	9.653200
987.000000	9.666308
986.000000	9.677322
985.000000	9.663070
984.000000	9.648006
983.000000	9.630547
982.000000	9.653994
981.000000	9.663050
980.000000	9.661660
979.000000	9.649836
978.000000	9.652874
977.000000	9.650406
976.000000	9.638898
975.000000	9.634211
974.000000	9.633035
973.000000	9.623880
972.000000	9.633452
971.000000	9.634767
970.000000	9.630964
969.000000	9.650229
968.000000	9.663443
967.000000	9.635398
966.000000	9.624847
965.000000	9.623835
964.000000	9.629724
963.000000	9.624854
962.000000	9.615952
961.000000	9.605613
960.000000	9.622882
959.000000	9.609885
958.000000	9.587250
957.000000	9.595971
956.000000	9.620839
955.000000	9.631033
954.000000	9.633621
953.000000	9.634635
952.000000	9.617530
951.000000	9.601662
950.000000	9.584891
949.000000	9.584177
948.000000	9.588843
947.000000	9.577773
946.000000	9.594024
945.000000	9.603023
944.000000	9.592639
943.000000	9.573544
942.000000	9.573153
941.000000	9.592907
940.000000	9.599890
939.000000	9.591299
938.000000	9.605469
937.000000	9.596466
936.000000	9.559259
935.000000	9.549113
934.000000	9.547742
933.000000	9.562734
932.000000	9.570895
931.000000	9.566463
930.000000	9.569685
929.000000	9.545968
928.000000	9.510844
927.000000	9.525923
926.000000	9.536291
925.000000	9.522012
924.000000	9.517677
923.000000	9.516798
922.000000	9.541552
921.000000	9.513999
920.000000	9.485937
919.000000	9.484099
918.000000	9.493072
917.000000	9.475853
916.000000	9.476680
915.000000	9.483367
914.000000	9.495769
913.000000	9.487263
912.000000	9.477213
911.000000	9.503001
910.000000	9.485005
909.000000	9.478261
908.000000	9.502780
907.000000	9.497040
906.000000	9.471565
905.000000	9.443977
904.000000	9.456965
903.000000	9.417142
902.000000	9.410880
901.000000	9.430604
900.000000	9.461189
899.000000	9.422963
898.000000	9.424731
897.000000	9.454575
896.000000	9.454201
895.000000	9.395350
894.000000	9.450656
893.000000	9.435777
892.000000	9.438929
891.000000	9.457481
890.000000	9.398383
889.000000	9.418920
888.000000	9.466846
887.000000	9.405833
886.000000	9.505226
885.000000	9.423131
884.000000	9.408214
883.000000	9.449015
882.000000	9.473704
881.000000	9.437514
880.000000	9.432942
879.000000	9.420354
878.000000	9.439594
877.000000	9.433119
876.000000	9.489518
875.000000	9.411945
874.000000	9.332959
873.000000	9.384925
872.000000	9.354450
871.000000	9.393299
870.000000	9.315621
869.000000	9.351933
868.000000	9.343445
867.000000	9.358860
866.000000	9.387960
865.000000	9.333485
864.000000	9.295363
863.000000	9.415010
862.000000	9.459743
861.000000	9.382033
860.000000	9.291299
859.000000	9.428468
858.000000	9.457049
857.000000	9.500165
856.000000	9.484388
855.000000	9.517499
854.000000	9.380179
853.000000	9.382361
852.000000	9.471187
851.000000	9.414804
850.000000	9.335992
849.000000	9.372863
848.000000	9.371903
847.000000	9.334547
846.000000	9.320379
845.000000	9.329199
844.000000	9.330378
843.000000	9.283079
842.000000	9.301623
841.000000	9.334188
840.000000	9.323485
839.000000	9.301402
838.000000	9.299461
837.000000	9.250366
836.000000	9.270116
835.000000	9.199199
834.000000	9.248234
833.000000	9.260856
832.000000	9.250020
831.000000	9.228568
830.000000	9.184996
829.000000	9.225835
828.000000	9.184178
827.000000	9.188696
826.000000	9.180758
825.000000	9.210652
824.000000	9.152671
823.000000	9.141643
822.000000	9.131282
821.000000	9.107925
820.000000	9.105962
819.000000	9.126146
818.000000	9.069244
817.000000	9.108270
816.000000	9.029656
815.000000	9.074915
814.000000	9.044219
813.000000	9.054858
812.000000	9.045032
811.000000	9.049519
810.000000	9.043876
809.000000	9.050328
808.000000	9.043487
807.000000	9.036105
806.000000	9.004029
805.000000	9.007981
804.000000	8.975403
803.000000	9.020221
802.000000	8.986821
801.000000	8.952967
800.000000	8.997215
799.000000	8.946923
798.000000	8.970705
797.000000	8.944942
796.000000	8.950136
795.000000	8.928073
794.000000	8.898441
793.000000	8.918322
792.000000	8.891606
791.000000	8.930221
790.000000	8.889139
789.000000	8.872197
788.000000	8.874063
787.000000	8.864655
786.000000	8.846269
785.000000	8.859292
784.000000	8.825227
783.000000	8.802280
782.000000	8.804776
781.000000	8.807842
780.000000	8.780986
779.000000	8.782682
778.000000	8.775596
777.000000	8.760147
776.000000	8.737872
775.000000	8.719308
774.000000	8.719896
773.000000	8.720660
772.000000	8.710075
771.000000	8.697229
770.000000	8.678617
769.000000	8.657825
768.000000	8.654553
767.000000	8.654212
766.000000	8.643196
765.000000	8.643517
764.000000	8.592234
763.000000	8.595077
762.000000	8.612520
761.000000	8.588177
760.000000	8.569396
759.000000	8.562408
758.000000	8.549860
757.000000	8.552488
756.000000	8.505377
755.000000	8.497894
754.000000	8.477897
753.000000	8.476499
752.000000	8.456049
751.000000	8.462817
750.000000	8.468974
749.000000	8.447867
748.000000	8.415579
747.000000	8.414161
746.000000	8.408928
745.000000	8.390412
744.000000	8.373186
743.000000	8.365944
742.000000	8.369070
741.000000	8.347623
740.000000	8.315995
739.000000	8.302065
738.000000	8.294493
737.000000	8.287157
736.000000	8.277124
735.000000	8.269683
734.000000	8.256728
733.000000	8.242105
732.000000	8.229073
731.000000	8.208936
730.000000	8.192215
729.000000	8.198655
728.000000	8.196040
727.000000	8.160929
726.000000	8.136580
725.000000	8.135667
724.000000	8.132199
723.000000	8.121498
722.000000	8.108027
721.000000	8.074896
720.000000	8.045773
719.000000	8.030573
718.000000	8.013969
717.000000	8.024233
716.000000	8.025347
715.000000	8.005984
714.000000	7.973154
713.000000	7.955321
712.000000	7.958497
711.000000	7.951717
710.000000	7.919531
709.000000	7.893308
708.000000	7.882542
707.000000	7.854706
706.000000	7.840635
705.000000	7.840933
704.000000	7.841444
703.000000	7.823276
702.000000	7.799587
701.000000	7.788280
700.000000	7.766722
699.000000	7.744120
698.000000	7.720941
697.000000	7.703347
696.000000	7.690143
695.000000	7.670882
694.000000	7.651512
693.000000	7.631329
692.000000	7.621598
691.000000	7.614077
690.000000	7.588296
689.000000	7.544557
688.000000	7.517533
687.000000	7.503401
686.000000	7.481224
685.000000	7.470803
684.000000	7.455746
683.000000	7.435875
682.000000	7.410848
681.000000	7.399847
680.000000	7.387178
679.000000	7.367839
678.000000	7.341560
677.000000	7.324528
676.000000	7.293282
675.000000	7.283866
674.000000	7.265728
673.000000	7.247132
672.000000	7.217288
671.000000	7.201569
670.000000	7.187959
669.000000	7.173169
668.000000	7.141048
667.000000	7.127954
666.000000	7.105124
665.000000	7.086941
664.000000	7.065394
663.000000	7.051239
662.000000	7.036486
661.000000	7.009450
660.000000	6.996029
659.000000	6.973547
658.000000	6.947191
657.000000	6.936647
656.000000	6.909724
655.000000	6.894212
654.000000	6.874976
653.000000	6.855674
652.000000	6.834494
651.000000	6.807485
650.000000	6.779888
649.000000	6.773728
648.000000	6.753478
647.000000	6.725081
646.000000	6.697088
645.000000	6.683994
644.000000	6.660607
643.000000	6.637773
642.000000	6.627530
641.000000	6.605586
640.000000	6.591714
639.000000	6.562502
638.000000	6.549300
637.000000	6.527240
636.000000	6.514985
635.000000	6.483766
634.000000	6.467716
633.000000	6.441073
632.000000	6.409925
631.000000	6.401688
630.000000	6.375593
629.000000	6.365859
628.000000	6.335727
627.000000	6.320981
626.000000	6.281158
625.000000	6.279120
624.000000	6.242852
623.000000	6.223893
622.000000	6.198180
621.000000	6.172147
620.000000	6.147759
619.000000	6.130190
618.000000	6.121594
617.000000	6.096183
616.000000	6.063293
615.000000	6.040558
614.000000	6.022991
613.000000	5.989127
612.000000	5.970797
611.000000	5.926868
610.000000	5.907552
609.000000	5.891669
608.000000	5.862308
607.000000	5.829492
606.000000	5.807836
605.000000	5.792593
604.000000	5.755054
603.000000	5.728832
602.000000	5.703445
601.000000	5.689000
600.000000	5.666725
599.000000	5.647396
598.000000	5.613950
597.000000	5.582935
596.000000	5.570051
595.000000	5.533200
594.000000	5.510545
593.000000	5.481709
592.000000	5.455921
591.000000	5.428920
590.000000	5.400710
589.000000	5.377618
588.000000	5.355834
587.000000	5.322661
586.000000	5.301547
585.000000	5.263481
584.000000	5.248241
583.000000	5.213023
582.000000	5.199516
581.000000	5.161821
580.000000	5.135130
579.000000	5.108751
578.000000	5.082319
577.000000	5.063540
576.000000	5.035513
575.000000	5.004193
574.000000	4.969682
573.000000	4.945626
572.000000	4.922076
571.000000	4.894753
570.000000	4.870972
569.000000	4.839553
568.000000	4.806863
567.000000	4.780454
566.000000	4.753236
565.000000	4.727898
564.000000	4.699414
563.000000	4.672590
562.000000	4.638151
561.000000	4.626246
560.000000	4.598176
559.000000	4.577891
558.000000	4.549261
557.000000	4.524654
556.000000	4.491678
555.000000	4.460893
554.000000	4.432503
553.000000	4.400362
552.000000	4.374221
551.000000	4.346638
550.000000	4.313839
549.000000	4.284779
548.000000	4.254720
547.000000	4.227995
546.000000	4.197804
545.000000	4.169863
544.000000	4.140651
543.000000	4.106947
542.000000	4.078267
541.000000	4.046965
540.000000	4.017122
539.000000	3.989085
538.000000	3.960768
537.000000	3.932014
536.000000	3.894681
535.000000	3.867653
534.000000	3.834927
533.000000	3.807600
532.000000	3.779633
531.000000	3.746921
530.000000	3.711749
529.000000	3.686811
528.000000	3.655696
527.000000	3.628230
526.000000	3.594022
525.000000	3.558342
524.000000	3.532195
523.000000	3.493057
522.000000	3.459678
521.000000	3.431448
520.000000	3.399911
519.000000	3.364841
518.000000	3.330674
517.000000	3.300520
516.000000	3.274189
515.000000	3.249401
514.000000	3.213221
513.000000	3.179383
512.000000	3.151572
511.000000	3.124170
510.000000	3.092162
509.000000	3.062246
508.000000	3.038033
507.000000	3.003560
506.000000	2.968231
505.000000	2.941369
504.000000	2.912970
503.000000	2.888526
502.000000	2.855397
501.000000	2.825676
500.000000	2.793593
499.000000	2.765396
498.000000	2.739093
497.000000	2.717193
496.000000	2.683566
495.000000	2.654281
494.000000	2.631818
493.000000	2.605462
492.000000	2.580552
491.000000	2.557211
490.000000	2.525159
489.000000	2.494488
488.000000	2.477030
487.000000	2.447866
486.000000	2.421862
485.000000	2.402102
484.000000	2.380324
483.000000	2.359581
482.000000	2.332207
481.000000	2.303687
480.000000	2.273340
479.000000	2.245752
478.000000	2.214810
477.000000	2.182639
476.000000	2.151984
475.000000	2.124865
474.000000	2.103187
473.000000	2.075772
472.000000	2.045910
471.000000	2.019395
470.000000	1.989429
469.000000	1.964324
468.000000	1.938639
467.000000	1.912809
466.000000	1.884948
465.000000	1.856343
464.000000	1.829356
463.000000	1.806020
462.000000	1.780362
461.000000	1.755504
460.000000	1.724791
459.000000	1.692882
458.000000	1.670683
457.000000	1.646070
456.000000	1.622207
455.000000	1.600551
454.000000	1.573045
453.000000	1.543386
452.000000	1.521232
451.000000	1.496009
450.000000	1.470686
449.000000	1.447016
448.000000	1.421815
447.000000	1.392530
446.000000	1.365939
445.000000	1.345628
444.000000	1.323261
443.000000	1.294665
442.000000	1.263716
441.000000	1.239103
440.000000	1.216089
439.000000	1.193744
438.000000	1.168214
437.000000	1.141288
436.000000	1.117417
435.000000	1.086955
434.000000	1.059795
433.000000	1.038581
432.000000	1.018258
431.000000	0.993968
430.000000	0.966346
429.000000	0.944731
428.000000	0.923200
427.000000	0.899977
426.000000	0.882170
425.000000	0.860559
424.000000	0.832545
423.000000	0.813964
422.000000	0.793367
421.000000	0.770407
420.000000	0.756161
419.000000	0.731985
418.000000	0.710237
417.000000	0.693175
416.000000	0.678314
415.000000	0.657929
414.000000	0.643770
413.000000	0.625212
412.000000	0.607779
411.000000	0.594053
410.000000	0.572829
409.000000	0.556086
408.000000	0.544288
407.000000	0.532609
406.000000	0.518058
405.000000	0.502870
404.000000	0.490398
403.000000	0.477051
402.000000	0.465931
401.000000	0.455550
400.000000	0.440004
399.000000	0.427146
398.000000	0.417220
397.000000	0.411093
396.000000	0.400251
395.000000	0.389620
394.000000	0.378484
393.000000	0.366830
392.000000	0.353907
391.000000	0.349670
390.000000	0.345405
389.000000	0.333157
388.000000	0.324106
387.000000	0.307591
386.000000	0.299067
385.000000	0.293747
384.000000	0.288935
383.000000	0.284013
382.000000	0.266769
381.000000	0.258360
380.000000	0.255425
379.000000	0.247519
378.000000	0.248125
377.000000	0.257833
376.000000	0.262187
375.000000	0.252906
374.000000	0.247980
373.000000	0.242093
372.000000	0.224607
371.000000	0.214297
370.000000	0.209527
369.000000	0.199661
368.000000	0.198522
367.000000	0.193746
366.000000	0.184503
365.000000	0.178408
364.000000	0.180533
363.000000	0.175991
362.000000	0.170339
361.000000	0.163925
360.000000	0.158634
359.000000	0.155221
358.000000	0.161184
357.000000	0.149593
356.000000	0.146693
355.000000	0.141598
354.000000	0.135654
353.000000	0.129983
352.000000	0.129024
351.000000	0.132325
350.000000	0.129525
349.000000	0.113767
348.000000	0.118579
347.000000	0.115953
346.000000	0.118331
345.000000	0.119429
344.000000	0.112619
343.000000	0.106042
342.000000	0.111128
341.000000	0.109815
340.000000	0.101288
339.000000	0.102962
338.000000	0.109007
337.000000	0.094201
336.000000	0.091003
335.000000	0.091441
334.000000	0.090864
333.000000	0.095099
332.000000	0.094694
331.000000	0.091526
330.000000	0.091666
329.000000	0.073347
328.000000	0.076554
327.000000	0.078041
326.000000	0.088763
325.000000	0.079160
324.000000	0.075274
323.000000	0.081898
322.000000	0.071029
321.000000	0.066163
320.000000	0.065716
319.000000	0.073598
318.000000	0.085857
317.000000	0.092934
316.000000	0.093798
315.000000	0.085645
314.000000	0.097169
313.000000	0.088477
312.000000	0.089432
311.000000	0.088304
310.000000	0.089102
309.000000	0.084068
308.000000	0.089678
307.000000	0.080862
306.000000	0.080158
305.000000	0.087901
304.000000	0.089002
303.000000	0.088827
302.000000	0.090829
301.000000	0.087581
300.000000	0.077593
299.000000	0.081094
298.000000	0.080607
297.000000	0.083916
296.000000	0.080639
295.000000	0.079380
294.000000	0.082111
293.000000	0.082102
292.000000	0.086278
291.000000	0.079195
290.000000	0.079796
289.000000	0.076786
288.000000	0.073890
287.000000	0.073511
286.000000	0.076797
285.000000	0.074934
284.000000	0.084646
283.000000	0.077581
282.000000	0.078675
281.000000	0.079546
280.000000	0.079914
279.000000	0.080954
278.000000	0.087481
277.000000	0.089502
276.000000	0.091542
275.000000	0.092329
274.000000	0.094437
273.000000	0.096691
272.000000	0.094418
271.000000	0.095677
270.000000	0.099822
269.000000	0.105113
268.000000	0.113648
267.000000	0.111086
266.000000	0.104204
265.000000	0.100984
264.000000	0.114996
263.000000	0.114777
262.000000	0.116782
261.000000	0.120948
260.000000	0.123523
259.000000	0.115842
258.000000	0.117870
257.000000	0.119204
256.000000	0.130921
255.000000	0.131824
254.000000	0.127294
253.000000	0.124318
252.000000	0.124748
251.000000	0.122042
250.000000	0.122372
249.000000	0.128411
248.000000	0.129570
247.000000	0.123793
246.000000	0.120441
245.000000	0.126994
244.000000	0.123243
243.000000	0.117955
242.000000	0.108139
241.000000	0.099957
240.000000	0.096579
239.000000	0.091265
238.000000	0.086899
237.000000	0.086465
236.000000	0.081133
235.000000	0.081265
234.000000	0.077595
233.000000	0.070486
232.000000	0.070259
231.000000	0.068891
230.000000	0.062908
229.000000	0.057353
228.000000	0.061241
227.000000	0.053427
226.000000	0.038728
225.000000	0.041547
224.000000	0.040033
223.000000	0.034952
222.000000	0.035555
221.000000	0.032026
220.000000	0.021460
219.000000	0.015663
218.000000	0.017494
217.000000	0.017017
216.000000	0.015598
215.000000	0.016888
214.000000	0.024076
213.000000	0.023973
212.000000	0.014330
211.000000	0.016892
210.000000	0.022198
209.000000	0.009228
208.000000	-0.002807
207.000000	-0.009095
206.000000	-0.024332
205.000000	-0.013417
204.000000	0.010062
203.000000	0.021638
202.000000	0.006925
201.000000	-0.000885
200.000000	0.030688
