PE IR       SUBTECH     SPECTRUM    ASCII       PEDS        4.00        
   -1
3C-XXX-C019_1.ASC
23/09/07
10:34:25.00
23/09/07
11:30:09.00
uco
Sample 019 By uco Date Thursday, September 07 2023
450.000000
#HDR
-1
-1
#GR
cm-1
%T
1.0
0.0
4000.000000
-1.000000
3551
8
98.877102
88.994659
#DATA
4000.000000	98.778716
3999.000000	98.780145
3998.000000	98.781657
3997.000000	98.783290
3996.000000	98.785091
3995.000000	98.787079
3994.000000	98.789326
3993.000000	98.789522
3992.000000	98.786678
3991.000000	98.781385
3990.000000	98.774557
3989.000000	98.768290
3988.000000	98.763518
3987.000000	98.760841
3986.000000	98.759848
3985.000000	98.759515
3984.000000	98.759285
3983.000000	98.759661
3982.000000	98.761432
3981.000000	98.764376
3980.000000	98.767052
3979.000000	98.767937
3978.000000	98.766631
3977.000000	98.764026
3976.000000	98.761543
3975.000000	98.760181
3974.000000	98.759887
3973.000000	98.759632
3972.000000	98.758346
3971.000000	98.756067
3970.000000	98.754134
3969.000000	98.754174
3968.000000	98.756826
3967.000000	98.761321
3966.000000	98.766057
3965.000000	98.769354
3964.000000	98.770134
3963.000000	98.768420
3962.000000	98.765365
3961.000000	98.762462
3960.000000	98.760275
3959.000000	98.758139
3958.000000	98.755177
3957.000000	98.751466
3956.000000	98.748084
3955.000000	98.746002
3954.000000	98.745267
3953.000000	98.745403
3952.000000	98.746321
3951.000000	98.748336
3950.000000	98.751222
3949.000000	98.753571
3948.000000	98.753508
3947.000000	98.750181
3946.000000	98.744440
3945.000000	98.738138
3944.000000	98.733080
3943.000000	98.730636
3942.000000	98.731703
3941.000000	98.736255
3940.000000	98.742671
3939.000000	98.747891
3938.000000	98.749193
3937.000000	98.746180
3936.000000	98.741073
3935.000000	98.736982
3934.000000	98.736159
3933.000000	98.739444
3932.000000	98.746079
3931.000000	98.753546
3930.000000	98.758499
3929.000000	98.758732
3928.000000	98.754381
3927.000000	98.747546
3926.000000	98.740818
3925.000000	98.736193
3924.000000	98.735011
3923.000000	98.737831
3922.000000	98.743474
3921.000000	98.748483
3920.000000	98.749073
3919.000000	98.744660
3918.000000	98.739118
3917.000000	98.737719
3916.000000	98.742303
3915.000000	98.749616
3914.000000	98.754140
3913.000000	98.752080
3912.000000	98.743742
3911.000000	98.733509
3910.000000	98.726912
3909.000000	98.726510
3908.000000	98.731067
3907.000000	98.737673
3906.000000	98.744094
3905.000000	98.749382
3904.000000	98.753443
3903.000000	98.756380
3902.000000	98.757940
3901.000000	98.757433
3900.000000	98.754305
3899.000000	98.749320
3898.000000	98.744591
3897.000000	98.741867
3896.000000	98.741003
3895.000000	98.740692
3894.000000	98.740613
3893.000000	98.741728
3892.000000	98.744359
3891.000000	98.746929
3890.000000	98.747467
3889.000000	98.745297
3888.000000	98.740863
3887.000000	98.734783
3886.000000	98.729012
3885.000000	98.726757
3884.000000	98.729283
3883.000000	98.734204
3882.000000	98.736935
3881.000000	98.734607
3880.000000	98.729323
3879.000000	98.725328
3878.000000	98.723988
3877.000000	98.723503
3876.000000	98.722194
3875.000000	98.721248
3874.000000	98.723247
3873.000000	98.728078
3872.000000	98.732535
3871.000000	98.733856
3870.000000	98.732716
3869.000000	98.732677
3868.000000	98.736232
3867.000000	98.741462
3866.000000	98.742553
3865.000000	98.736049
3864.000000	98.727003
3863.000000	98.723655
3862.000000	98.727244
3861.000000	98.731920
3860.000000	98.733120
3859.000000	98.732004
3858.000000	98.731716
3857.000000	98.732200
3856.000000	98.730849
3855.000000	98.726027
3854.000000	98.720529
3853.000000	98.720405
3852.000000	98.727226
3851.000000	98.736320
3850.000000	98.741746
3849.000000	98.740160
3848.000000	98.734533
3847.000000	98.730707
3846.000000	98.729542
3845.000000	98.727148
3844.000000	98.720899
3843.000000	98.712762
3842.000000	98.707416
3841.000000	98.708324
3840.000000	98.715705
3839.000000	98.726152
3838.000000	98.735037
3837.000000	98.740326
3836.000000	98.743484
3835.000000	98.745832
3834.000000	98.746623
3833.000000	98.744866
3832.000000	98.741390
3831.000000	98.738138
3830.000000	98.735870
3829.000000	98.733486
3828.000000	98.729746
3827.000000	98.725560
3826.000000	98.723552
3825.000000	98.724701
3824.000000	98.726831
3823.000000	98.726543
3822.000000	98.722890
3821.000000	98.719219
3820.000000	98.718915
3819.000000	98.720931
3818.000000	98.721397
3817.000000	98.717313
3816.000000	98.711185
3815.000000	98.709934
3814.000000	98.716849
3813.000000	98.728448
3812.000000	98.738070
3811.000000	98.742834
3810.000000	98.746543
3809.000000	98.752725
3808.000000	98.758398
3807.000000	98.758414
3806.000000	98.752759
3805.000000	98.746067
3804.000000	98.741460
3803.000000	98.738136
3802.000000	98.735322
3801.000000	98.734522
3800.000000	98.736552
3799.000000	98.739977
3798.000000	98.741566
3797.000000	98.738523
3796.000000	98.732776
3795.000000	98.728850
3794.000000	98.728092
3793.000000	98.728762
3792.000000	98.729408
3791.000000	98.730745
3790.000000	98.734102
3789.000000	98.738842
3788.000000	98.742881
3787.000000	98.745301
3786.000000	98.746951
3785.000000	98.748644
3784.000000	98.749722
3783.000000	98.748667
3782.000000	98.744314
3781.000000	98.736694
3780.000000	98.728259
3779.000000	98.723882
3778.000000	98.727069
3777.000000	98.736114
3776.000000	98.745636
3775.000000	98.751148
3774.000000	98.752130
3773.000000	98.751204
3772.000000	98.750816
3771.000000	98.751297
3770.000000	98.751685
3769.000000	98.751090
3768.000000	98.748993
3767.000000	98.744961
3766.000000	98.739263
3765.000000	98.733847
3764.000000	98.731078
3763.000000	98.731184
3762.000000	98.732168
3761.000000	98.732404
3760.000000	98.733091
3759.000000	98.736915
3758.000000	98.744060
3757.000000	98.751623
3756.000000	98.757157
3755.000000	98.761024
3754.000000	98.764846
3753.000000	98.768723
3752.000000	98.771227
3751.000000	98.770907
3750.000000	98.767551
3749.000000	98.762671
3748.000000	98.758762
3747.000000	98.758964
3746.000000	98.764931
3745.000000	98.773398
3744.000000	98.778649
3743.000000	98.779951
3742.000000	98.781252
3741.000000	98.781995
3740.000000	98.776960
3739.000000	98.768039
3738.000000	98.764129
3737.000000	98.768444
3736.000000	98.776306
3735.000000	98.782347
3734.000000	98.785158
3733.000000	98.785191
3732.000000	98.782052
3731.000000	98.776752
3730.000000	98.773169
3729.000000	98.774015
3728.000000	98.777270
3727.000000	98.778891
3726.000000	98.777061
3725.000000	98.772893
3724.000000	98.768397
3723.000000	98.764833
3722.000000	98.763289
3721.000000	98.765617
3720.000000	98.772484
3719.000000	98.781226
3718.000000	98.787567
3717.000000	98.789241
3716.000000	98.787538
3715.000000	98.785459
3714.000000	98.784536
3713.000000	98.783536
3712.000000	98.780510
3711.000000	98.775865
3710.000000	98.772096
3709.000000	98.769959
3708.000000	98.767419
3707.000000	98.762869
3706.000000	98.757142
3705.000000	98.752378
3704.000000	98.750347
3703.000000	98.751895
3702.000000	98.757407
3701.000000	98.766709
3700.000000	98.778160
3699.000000	98.788549
3698.000000	98.794497
3697.000000	98.794437
3696.000000	98.789656
3695.000000	98.783215
3694.000000	98.777268
3693.000000	98.772079
3692.000000	98.767688
3691.000000	98.764857
3690.000000	98.763295
3689.000000	98.761167
3688.000000	98.758037
3687.000000	98.755663
3686.000000	98.755111
3685.000000	98.754721
3684.000000	98.751839
3683.000000	98.746500
3682.000000	98.741620
3681.000000	98.738987
3680.000000	98.737186
3679.000000	98.733782
3678.000000	98.728393
3677.000000	98.723224
3676.000000	98.721094
3675.000000	98.722427
3674.000000	98.724811
3673.000000	98.726172
3672.000000	98.724212
3671.000000	98.717051
3670.000000	98.707472
3669.000000	98.700102
3668.000000	98.695726
3667.000000	98.691218
3666.000000	98.683671
3665.000000	98.675366
3664.000000	98.672024
3663.000000	98.675356
3662.000000	98.681467
3661.000000	98.685581
3660.000000	98.686033
3659.000000	98.683676
3658.000000	98.679096
3657.000000	98.672287
3656.000000	98.665107
3655.000000	98.661124
3654.000000	98.661377
3653.000000	98.662116
3652.000000	98.657088
3651.000000	98.642737
3650.000000	98.621795
3649.000000	98.602256
3648.000000	98.590698
3647.000000	98.585771
3646.000000	98.581623
3645.000000	98.575741
3644.000000	98.569719
3643.000000	98.565892
3642.000000	98.565645
3641.000000	98.568251
3640.000000	98.570974
3639.000000	98.571477
3638.000000	98.569767
3637.000000	98.567057
3636.000000	98.563302
3635.000000	98.556752
3634.000000	98.546515
3633.000000	98.534716
3632.000000	98.524184
3631.000000	98.514372
3630.000000	98.501166
3629.000000	98.482857
3628.000000	98.465122
3627.000000	98.454887
3626.000000	98.451972
3625.000000	98.450998
3624.000000	98.448966
3623.000000	98.447249
3622.000000	98.446068
3621.000000	98.441942
3620.000000	98.431738
3619.000000	98.417028
3618.000000	98.403005
3617.000000	98.393190
3616.000000	98.386946
3615.000000	98.381141
3614.000000	98.372589
3613.000000	98.360417
3612.000000	98.347234
3611.000000	98.336331
3610.000000	98.327719
3609.000000	98.318978
3608.000000	98.309707
3607.000000	98.302685
3606.000000	98.299678
3605.000000	98.298465
3604.000000	98.295439
3603.000000	98.289285
3602.000000	98.281060
3601.000000	98.271880
3600.000000	98.261648
3599.000000	98.249502
3598.000000	98.234664
3597.000000	98.217167
3596.000000	98.199019
3595.000000	98.184178
3594.000000	98.175317
3593.000000	98.170908
3592.000000	98.166620
3591.000000	98.158917
3590.000000	98.146558
3589.000000	98.130283
3588.000000	98.112537
3587.000000	98.097092
3586.000000	98.086655
3585.000000	98.080313
3584.000000	98.074625
3583.000000	98.066865
3582.000000	98.056743
3581.000000	98.045702
3580.000000	98.035247
3579.000000	98.025852
3578.000000	98.016825
3577.000000	98.006984
3576.000000	97.995407
3575.000000	97.981812
3574.000000	97.966641
3573.000000	97.951245
3572.000000	97.937748
3571.000000	97.927820
3570.000000	97.920934
3569.000000	97.913720
3568.000000	97.901758
3567.000000	97.883914
3566.000000	97.864293
3565.000000	97.847362
3564.000000	97.833313
3563.000000	97.819854
3562.000000	97.805716
3561.000000	97.791324
3560.000000	97.777405
3559.000000	97.763960
3558.000000	97.750623
3557.000000	97.737493
3556.000000	97.724989
3555.000000	97.712753
3554.000000	97.699132
3553.000000	97.682506
3552.000000	97.663636
3551.000000	97.645800
3550.000000	97.631814
3549.000000	97.621473
3548.000000	97.612153
3547.000000	97.601553
3546.000000	97.589822
3545.000000	97.578914
3544.000000	97.569755
3543.000000	97.560686
3542.000000	97.549003
3541.000000	97.533772
3540.000000	97.517067
3539.000000	97.502363
3538.000000	97.491296
3537.000000	97.481825
3536.000000	97.470041
3535.000000	97.454058
3534.000000	97.435737
3533.000000	97.418767
3532.000000	97.405724
3531.000000	97.396571
3530.000000	97.388838
3529.000000	97.379215
3528.000000	97.365883
3527.000000	97.349877
3526.000000	97.333812
3525.000000	97.319196
3524.000000	97.305334
3523.000000	97.290845
3522.000000	97.275532
3521.000000	97.260304
3520.000000	97.245964
3519.000000	97.232776
3518.000000	97.220728
3517.000000	97.209297
3516.000000	97.197192
3515.000000	97.183277
3514.000000	97.168033
3513.000000	97.153404
3512.000000	97.140783
3511.000000	97.129788
3510.000000	97.119599
3509.000000	97.110802
3508.000000	97.104665
3507.000000	97.100804
3506.000000	97.096761
3505.000000	97.089945
3504.000000	97.079479
3503.000000	97.066342
3502.000000	97.052177
3501.000000	97.038157
3500.000000	97.024655
3499.000000	97.011603
3498.000000	96.999056
3497.000000	96.987309
3496.000000	96.976184
3495.000000	96.964344
3494.000000	96.950102
3493.000000	96.933401
3492.000000	96.916495
3491.000000	96.902214
3490.000000	96.891681
3489.000000	96.883798
3488.000000	96.876533
3487.000000	96.868337
3486.000000	96.858634
3485.000000	96.847535
3484.000000	96.835507
3483.000000	96.823460
3482.000000	96.812901
3481.000000	96.805313
3480.000000	96.800878
3479.000000	96.798013
3478.000000	96.794620
3477.000000	96.789609
3476.000000	96.782881
3475.000000	96.774286
3474.000000	96.763368
3473.000000	96.750071
3472.000000	96.734874
3471.000000	96.718253
3470.000000	96.700945
3469.000000	96.684922
3468.000000	96.672933
3467.000000	96.666154
3466.000000	96.662896
3465.000000	96.660219
3464.000000	96.656182
3463.000000	96.650141
3462.000000	96.641860
3461.000000	96.631369
3460.000000	96.619362
3459.000000	96.606906
3458.000000	96.594912
3457.000000	96.584214
3456.000000	96.575566
3455.000000	96.568841
3454.000000	96.562698
3453.000000	96.555834
3452.000000	96.548326
3451.000000	96.541258
3450.000000	96.535332
3449.000000	96.530365
3448.000000	96.525695
3447.000000	96.520245
3446.000000	96.512364
3445.000000	96.500657
3444.000000	96.485417
3443.000000	96.469118
3442.000000	96.455317
3441.000000	96.446525
3440.000000	96.442498
3439.000000	96.440362
3438.000000	96.436762
3437.000000	96.430301
3436.000000	96.421877
3435.000000	96.412703
3434.000000	96.402720
3433.000000	96.391236
3432.000000	96.378370
3431.000000	96.365209
3430.000000	96.353026
3429.000000	96.342867
3428.000000	96.335230
3427.000000	96.329208
3426.000000	96.322348
3425.000000	96.312514
3424.000000	96.300035
3423.000000	96.287262
3422.000000	96.275934
3421.000000	96.265651
3420.000000	96.254987
3419.000000	96.243351
3418.000000	96.231341
3417.000000	96.219888
3416.000000	96.209597
3415.000000	96.200678
3414.000000	96.193131
3413.000000	96.186797
3412.000000	96.181072
3411.000000	96.174719
3410.000000	96.166676
3409.000000	96.157543
3408.000000	96.149638
3407.000000	96.144648
3406.000000	96.141218
3405.000000	96.135398
3404.000000	96.123657
3403.000000	96.105581
3402.000000	96.084253
3401.000000	96.064568
3400.000000	96.050466
3399.000000	96.042449
3398.000000	96.037354
3397.000000	96.031102
3396.000000	96.021898
3395.000000	96.010736
3394.000000	95.999455
3393.000000	95.989188
3392.000000	95.980201
3391.000000	95.972069
3390.000000	95.963821
3389.000000	95.954751
3388.000000	95.945320
3387.000000	95.936678
3386.000000	95.929153
3385.000000	95.921729
3384.000000	95.913078
3383.000000	95.902525
3382.000000	95.890023
3381.000000	95.875981
3380.000000	95.861396
3379.000000	95.847497
3378.000000	95.834857
3377.000000	95.823153
3376.000000	95.811844
3375.000000	95.800615
3374.000000	95.789098
3373.000000	95.776766
3372.000000	95.763417
3371.000000	95.749396
3370.000000	95.735083
3369.000000	95.720345
3368.000000	95.704653
3367.000000	95.687589
3366.000000	95.669302
3365.000000	95.650735
3364.000000	95.633316
3363.000000	95.617989
3362.000000	95.604393
3361.000000	95.591083
3360.000000	95.576598
3359.000000	95.560297
3358.000000	95.542387
3357.000000	95.523413
3356.000000	95.503616
3355.000000	95.482716
3354.000000	95.460569
3353.000000	95.438166
3352.000000	95.417400
3351.000000	95.399243
3350.000000	95.382450
3349.000000	95.364736
3348.000000	95.345187
3347.000000	95.325139
3346.000000	95.306762
3345.000000	95.291051
3344.000000	95.277028
3343.000000	95.262540
3342.000000	95.246004
3341.000000	95.227725
3340.000000	95.209404
3339.000000	95.192175
3338.000000	95.175452
3337.000000	95.157920
3336.000000	95.139135
3335.000000	95.119695
3334.000000	95.100269
3333.000000	95.081132
3332.000000	95.062351
3331.000000	95.043762
3330.000000	95.024997
3329.000000	95.006026
3328.000000	94.987339
3327.000000	94.969138
3326.000000	94.950877
3325.000000	94.932342
3324.000000	94.914748
3323.000000	94.899717
3322.000000	94.887263
3321.000000	94.875808
3320.000000	94.864044
3319.000000	94.851840
3318.000000	94.839355
3317.000000	94.826305
3316.000000	94.812674
3315.000000	94.799508
3314.000000	94.788306
3313.000000	94.779505
3312.000000	94.771519
3311.000000	94.761322
3310.000000	94.746774
3309.000000	94.729197
3308.000000	94.713170
3307.000000	94.702417
3306.000000	94.695626
3305.000000	94.687248
3304.000000	94.672948
3303.000000	94.654076
3302.000000	94.636734
3301.000000	94.626724
3300.000000	94.625248
3299.000000	94.628600
3298.000000	94.631369
3297.000000	94.630059
3296.000000	94.624267
3295.000000	94.615157
3294.000000	94.603762
3293.000000	94.591221
3292.000000	94.579591
3291.000000	94.571033
3290.000000	94.566056
3289.000000	94.563251
3288.000000	94.560838
3287.000000	94.557971
3286.000000	94.554741
3285.000000	94.551674
3284.000000	94.549228
3283.000000	94.547277
3282.000000	94.545300
3281.000000	94.543750
3280.000000	94.544925
3279.000000	94.551187
3278.000000	94.562228
3277.000000	94.575050
3276.000000	94.586958
3275.000000	94.597622
3274.000000	94.607543
3273.000000	94.615651
3272.000000	94.619549
3271.000000	94.617967
3270.000000	94.612357
3269.000000	94.606252
3268.000000	94.603437
3267.000000	94.606193
3266.000000	94.614406
3265.000000	94.626147
3264.000000	94.639400
3263.000000	94.653287
3262.000000	94.667630
3261.000000	94.681721
3260.000000	94.693980
3259.000000	94.702968
3258.000000	94.708889
3257.000000	94.714339
3256.000000	94.723281
3255.000000	94.738232
3254.000000	94.757639
3253.000000	94.776399
3252.000000	94.789841
3251.000000	94.797549
3250.000000	94.803255
3249.000000	94.811135
3248.000000	94.822510
3247.000000	94.835720
3246.000000	94.848169
3245.000000	94.858042
3244.000000	94.864723
3243.000000	94.868723
3242.000000	94.871585
3241.000000	94.875265
3240.000000	94.881054
3239.000000	94.889156
3238.000000	94.899429
3237.000000	94.911966
3236.000000	94.926432
3235.000000	94.941415
3234.000000	94.955431
3233.000000	94.968359
3232.000000	94.980802
3231.000000	94.991887
3230.000000	94.998988
3229.000000	95.000497
3228.000000	94.998265
3227.000000	94.996591
3226.000000	94.999122
3225.000000	95.007077
3224.000000	95.019463
3223.000000	95.033872
3222.000000	95.047568
3221.000000	95.059127
3220.000000	95.069294
3219.000000	95.079488
3218.000000	95.089415
3217.000000	95.097163
3216.000000	95.101739
3215.000000	95.104602
3214.000000	95.108140
3213.000000	95.113230
3212.000000	95.118984
3211.000000	95.124642
3210.000000	95.130975
3209.000000	95.139418
3208.000000	95.150076
3207.000000	95.161092
3206.000000	95.170376
3205.000000	95.177777
3204.000000	95.185055
3203.000000	95.193744
3202.000000	95.203810
3201.000000	95.214746
3200.000000	95.226944
3199.000000	95.240882
3198.000000	95.255303
3197.000000	95.267421
3196.000000	95.275265
3195.000000	95.279333
3194.000000	95.282038
3193.000000	95.286340
3192.000000	95.294621
3191.000000	95.307594
3190.000000	95.323711
3189.000000	95.340236
3188.000000	95.355481
3187.000000	95.369820
3186.000000	95.384752
3185.000000	95.401647
3184.000000	95.421286
3183.000000	95.443280
3182.000000	95.465207
3181.000000	95.483247
3180.000000	95.494901
3179.000000	95.501092
3178.000000	95.505243
3177.000000	95.510465
3176.000000	95.518153
3175.000000	95.528681
3174.000000	95.542253
3173.000000	95.558681
3172.000000	95.576882
3171.000000	95.595025
3170.000000	95.611272
3169.000000	95.624785
3168.000000	95.636417
3167.000000	95.648121
3166.000000	95.661190
3165.000000	95.675162
3164.000000	95.688835
3163.000000	95.701959
3162.000000	95.715217
3161.000000	95.728842
3160.000000	95.742416
3159.000000	95.756209
3158.000000	95.771389
3157.000000	95.787947
3156.000000	95.803320
3155.000000	95.814626
3154.000000	95.822295
3153.000000	95.830311
3152.000000	95.842139
3151.000000	95.857128
3150.000000	95.871649
3149.000000	95.883453
3148.000000	95.894025
3147.000000	95.906573
3146.000000	95.922423
3145.000000	95.939939
3144.000000	95.956519
3143.000000	95.970938
3142.000000	95.983534
3141.000000	95.994839
3140.000000	96.004854
3139.000000	96.013732
3138.000000	96.022335
3137.000000	96.031431
3136.000000	96.040338
3135.000000	96.047037
3134.000000	96.050240
3133.000000	96.051311
3132.000000	96.053703
3131.000000	96.059988
3130.000000	96.069507
3129.000000	96.079111
3128.000000	96.086303
3127.000000	96.091557
3126.000000	96.097500
3125.000000	96.105919
3124.000000	96.115853
3123.000000	96.124615
3122.000000	96.130339
3121.000000	96.133337
3120.000000	96.135249
3119.000000	96.137363
3118.000000	96.139695
3117.000000	96.141368
3116.000000	96.141659
3115.000000	96.140809
3114.000000	96.139823
3113.000000	96.139362
3112.000000	96.139026
3111.000000	96.137969
3110.000000	96.136081
3109.000000	96.134049
3108.000000	96.132123
3107.000000	96.129441
3106.000000	96.125039
3105.000000	96.119337
3104.000000	96.114194
3103.000000	96.111237
3102.000000	96.110075
3101.000000	96.108137
3100.000000	96.102729
3099.000000	96.093727
3098.000000	96.084110
3097.000000	96.077321
3096.000000	96.074143
3095.000000	96.072491
3094.000000	96.070053
3093.000000	96.066129
3092.000000	96.060853
3091.000000	96.054131
3090.000000	96.046306
3089.000000	96.038913
3088.000000	96.033472
3087.000000	96.029791
3086.000000	96.026364
3085.000000	96.022212
3084.000000	96.017586
3083.000000	96.013101
3082.000000	96.008936
3081.000000	96.004755
3080.000000	95.999932
3079.000000	95.994261
3078.000000	95.988951
3077.000000	95.986077
3076.000000	95.985993
3075.000000	95.986086
3074.000000	95.983520
3073.000000	95.978913
3072.000000	95.975847
3071.000000	95.976816
3070.000000	95.981133
3069.000000	95.986682
3068.000000	95.991940
3067.000000	95.995812
3066.000000	95.997338
3065.000000	95.996845
3064.000000	95.996374
3063.000000	95.998116
3062.000000	96.003240
3061.000000	96.012471
3060.000000	96.026217
3059.000000	96.043013
3058.000000	96.059181
3057.000000	96.071732
3056.000000	96.081262
3055.000000	96.090857
3054.000000	96.102436
3053.000000	96.115074
3052.000000	96.126519
3051.000000	96.135429
3050.000000	96.142417
3049.000000	96.149748
3048.000000	96.159747
3047.000000	96.172930
3046.000000	96.187892
3045.000000	96.203266
3044.000000	96.219049
3043.000000	96.235447
3042.000000	96.251379
3041.000000	96.265292
3040.000000	96.277136
3039.000000	96.288511
3038.000000	96.301016
3037.000000	96.315097
3036.000000	96.330217
3035.000000	96.345232
3034.000000	96.358664
3033.000000	96.369487
3032.000000	96.377830
3031.000000	96.384625
3030.000000	96.390856
3029.000000	96.397675
3028.000000	96.406661
3027.000000	96.418768
3026.000000	96.432913
3025.000000	96.446471
3024.000000	96.457464
3023.000000	96.465945
3022.000000	96.473401
3021.000000	96.481500
3020.000000	96.491204
3019.000000	96.502105
3018.000000	96.512377
3017.000000	96.520064
3016.000000	96.524834
3015.000000	96.528081
3014.000000	96.531104
3013.000000	96.533606
3012.000000	96.534112
3011.000000	96.531480
3010.000000	96.525830
3009.000000	96.518318
3008.000000	96.510408
3007.000000	96.503274
3006.000000	96.497620
3005.000000	96.493562
3004.000000	96.490222
3003.000000	96.485651
3002.000000	96.477914
3001.000000	96.466627
3000.000000	96.453020
2999.000000	96.438395
2998.000000	96.423214
2997.000000	96.408013
2996.000000	96.394130
2995.000000	96.382425
2994.000000	96.371504
2993.000000	96.358264
2992.000000	96.340308
2991.000000	96.317265
2990.000000	96.290110
2989.000000	96.260029
2988.000000	96.228145
2987.000000	96.195524
2986.000000	96.163072
2985.000000	96.131625
2984.000000	96.101938
2983.000000	96.073824
2982.000000	96.045182
2981.000000	96.012454
2980.000000	95.972945
2979.000000	95.926975
2978.000000	95.877791
2977.000000	95.829059
2976.000000	95.781898
2975.000000	95.734250
2974.000000	95.683211
2973.000000	95.627814
2972.000000	95.569042
2971.000000	95.507443
2970.000000	95.442229
2969.000000	95.373308
2968.000000	95.303077
2967.000000	95.234958
2966.000000	95.170539
2965.000000	95.109383
2964.000000	95.051375
2963.000000	94.998334
2962.000000	94.952882
2961.000000	94.916504
2960.000000	94.888949
2959.000000	94.869253
2958.000000	94.857303
2957.000000	94.854178
2956.000000	94.860964
2955.000000	94.877049
2954.000000	94.900128
2953.000000	94.927868
2952.000000	94.958623
2951.000000	94.990237
2950.000000	95.018620
2949.000000	95.038619
2948.000000	95.045976
2947.000000	95.038603
2946.000000	95.017011
2945.000000	94.984384
2944.000000	94.945482
2943.000000	94.903470
2942.000000	94.857724
2941.000000	94.805271
2940.000000	94.744751
2939.000000	94.678107
2938.000000	94.608554
2937.000000	94.538115
2936.000000	94.467598
2935.000000	94.398500
2934.000000	94.333943
2933.000000	94.277642
2932.000000	94.231802
2931.000000	94.195780
2930.000000	94.166764
2929.000000	94.141961
2928.000000	94.120720
2927.000000	94.104948
2926.000000	94.097682
2925.000000	94.101070
2924.000000	94.115093
2923.000000	94.138240
2922.000000	94.169383
2921.000000	94.208886
2920.000000	94.257541
2919.000000	94.314726
2918.000000	94.378607
2917.000000	94.447975
2916.000000	94.522873
2915.000000	94.602791
2914.000000	94.685079
2913.000000	94.766119
2912.000000	94.843818
2911.000000	94.918409
2910.000000	94.990884
2909.000000	95.061171
2908.000000	95.128001
2907.000000	95.190148
2906.000000	95.247701
2905.000000	95.302132
2904.000000	95.355146
2903.000000	95.407482
2902.000000	95.459041
2901.000000	95.509868
2900.000000	95.560349
2899.000000	95.610396
2898.000000	95.659121
2897.000000	95.705650
2896.000000	95.749628
2895.000000	95.790717
2894.000000	95.828332
2893.000000	95.862417
2892.000000	95.893900
2891.000000	95.923855
2890.000000	95.952423
2889.000000	95.978724
2888.000000	96.001105
2887.000000	96.017206
2886.000000	96.024911
2885.000000	96.024146
2884.000000	96.017357
2883.000000	96.007446
2882.000000	95.995474
2881.000000	95.980535
2880.000000	95.960964
2879.000000	95.935301
2878.000000	95.903321
2877.000000	95.867499
2876.000000	95.832742
2875.000000	95.803500
2874.000000	95.781417
2873.000000	95.766272
2872.000000	95.758304
2871.000000	95.758126
2870.000000	95.764761
2869.000000	95.774971
2868.000000	95.784640
2867.000000	95.790237
2866.000000	95.789626
2865.000000	95.782687
2864.000000	95.770727
2863.000000	95.754445
2862.000000	95.732878
2861.000000	95.705514
2860.000000	95.674684
2859.000000	95.644470
2858.000000	95.617810
2857.000000	95.596441
2856.000000	95.583140
2855.000000	95.581455
2854.000000	95.592898
2853.000000	95.616171
2852.000000	95.650098
2851.000000	95.695872
2850.000000	95.755470
2849.000000	95.828837
2848.000000	95.913307
2847.000000	96.004756
2846.000000	96.098456
2845.000000	96.189824
2844.000000	96.275246
2843.000000	96.352472
2842.000000	96.420187
2841.000000	96.477958
2840.000000	96.527064
2839.000000	96.570407
2838.000000	96.610777
2837.000000	96.649169
2836.000000	96.684667
2835.000000	96.715475
2834.000000	96.740227
2833.000000	96.759192
2832.000000	96.774575
2831.000000	96.789084
2830.000000	96.804055
2829.000000	96.819449
2828.000000	96.835182
2827.000000	96.851304
2826.000000	96.867026
2825.000000	96.880953
2824.000000	96.892728
2823.000000	96.903403
2822.000000	96.913997
2821.000000	96.924793
2820.000000	96.936132
2819.000000	96.948314
2818.000000	96.960198
2817.000000	96.969532
2816.000000	96.975686
2815.000000	96.980828
2814.000000	96.987343
2813.000000	96.995191
2812.000000	97.002877
2811.000000	97.009911
2810.000000	97.017004
2809.000000	97.024725
2808.000000	97.033461
2807.000000	97.044040
2806.000000	97.056680
2805.000000	97.069526
2804.000000	97.079734
2803.000000	97.086310
2802.000000	97.090808
2801.000000	97.095158
2800.000000	97.099796
2799.000000	97.104091
2798.000000	97.107621
2797.000000	97.110656
2796.000000	97.114177
2795.000000	97.119804
2794.000000	97.129023
2793.000000	97.141744
2792.000000	97.155594
2791.000000	97.166980
2790.000000	97.173448
2789.000000	97.175691
2788.000000	97.177484
2787.000000	97.182935
2786.000000	97.192923
2785.000000	97.204337
2784.000000	97.213176
2783.000000	97.218099
2782.000000	97.220534
2781.000000	97.222192
2780.000000	97.223763
2779.000000	97.225856
2778.000000	97.229552
2777.000000	97.235174
2776.000000	97.241320
2775.000000	97.246117
2774.000000	97.249343
2773.000000	97.252731
2772.000000	97.258147
2771.000000	97.265751
2770.000000	97.274018
2769.000000	97.281318
2768.000000	97.287316
2767.000000	97.292881
2766.000000	97.298872
2765.000000	97.305254
2764.000000	97.311390
2763.000000	97.316821
2762.000000	97.321558
2761.000000	97.325913
2760.000000	97.330404
2759.000000	97.335555
2758.000000	97.341233
2757.000000	97.346210
2756.000000	97.349076
2755.000000	97.349930
2754.000000	97.350744
2753.000000	97.353598
2752.000000	97.358628
2751.000000	97.363996
2750.000000	97.367759
2749.000000	97.369472
2748.000000	97.370129
2747.000000	97.371089
2746.000000	97.373230
2745.000000	97.376736
2744.000000	97.381244
2743.000000	97.386309
2742.000000	97.391910
2741.000000	97.398319
2740.000000	97.405153
2739.000000	97.410906
2738.000000	97.414097
2737.000000	97.415022
2736.000000	97.415780
2735.000000	97.418337
2734.000000	97.423000
2733.000000	97.428963
2732.000000	97.435534
2731.000000	97.442136
2730.000000	97.447761
2729.000000	97.451678
2728.000000	97.454795
2727.000000	97.459246
2726.000000	97.466039
2725.000000	97.473653
2724.000000	97.479531
2723.000000	97.482649
2722.000000	97.484056
2721.000000	97.485281
2720.000000	97.487016
2719.000000	97.489469
2718.000000	97.493165
2717.000000	97.498638
2716.000000	97.505372
2715.000000	97.511589
2714.000000	97.515411
2713.000000	97.516231
2712.000000	97.515069
2711.000000	97.513899
2710.000000	97.514654
2709.000000	97.518218
2708.000000	97.523783
2707.000000	97.529384
2706.000000	97.533703
2705.000000	97.537293
2704.000000	97.541452
2703.000000	97.546042
2702.000000	97.549431
2701.000000	97.550842
2700.000000	97.551702
2699.000000	97.553804
2698.000000	97.556913
2697.000000	97.559290
2696.000000	97.560234
2695.000000	97.560879
2694.000000	97.562345
2693.000000	97.564197
2692.000000	97.565241
2691.000000	97.565093
2690.000000	97.564290
2689.000000	97.563306
2688.000000	97.562224
2687.000000	97.561442
2686.000000	97.562061
2685.000000	97.565078
2684.000000	97.570156
2683.000000	97.575474
2682.000000	97.579111
2681.000000	97.580754
2680.000000	97.581931
2679.000000	97.584401
2678.000000	97.588340
2677.000000	97.592163
2676.000000	97.594070
2675.000000	97.593676
2674.000000	97.592235
2673.000000	97.591475
2672.000000	97.592190
2671.000000	97.593778
2670.000000	97.594979
2669.000000	97.594993
2668.000000	97.594020
2667.000000	97.592992
2666.000000	97.592864
2665.000000	97.593888
2664.000000	97.595327
2663.000000	97.596127
2662.000000	97.596083
2661.000000	97.595932
2660.000000	97.595889
2659.000000	97.594698
2658.000000	97.591156
2657.000000	97.586464
2656.000000	97.584035
2655.000000	97.586604
2654.000000	97.594171
2653.000000	97.604666
2652.000000	97.615382
2651.000000	97.623570
2650.000000	97.627390
2649.000000	97.627758
2648.000000	97.628532
2647.000000	97.633424
2646.000000	97.642628
2645.000000	97.653039
2644.000000	97.661347
2643.000000	97.666177
2642.000000	97.667918
2641.000000	97.667857
2640.000000	97.667714
2639.000000	97.669184
2638.000000	97.673351
2637.000000	97.680290
2636.000000	97.688798
2635.000000	97.696570
2634.000000	97.701706
2633.000000	97.704727
2632.000000	97.708355
2631.000000	97.714587
2630.000000	97.722817
2629.000000	97.731569
2628.000000	97.740824
2627.000000	97.751126
2626.000000	97.761133
2625.000000	97.767940
2624.000000	97.769956
2623.000000	97.768163
2622.000000	97.764681
2621.000000	97.761512
2620.000000	97.760701
2619.000000	97.764042
2618.000000	97.771605
2617.000000	97.781096
2616.000000	97.789228
2615.000000	97.793768
2614.000000	97.794886
2613.000000	97.795376
2612.000000	97.799094
2611.000000	97.807680
2610.000000	97.818494
2609.000000	97.826660
2608.000000	97.829484
2607.000000	97.828436
2606.000000	97.826996
2605.000000	97.827550
2604.000000	97.830394
2603.000000	97.834479
2602.000000	97.838356
2601.000000	97.840912
2600.000000	97.842067
2599.000000	97.843086
2598.000000	97.846111
2597.000000	97.852965
2596.000000	97.863680
2595.000000	97.875759
2594.000000	97.885148
2593.000000	97.888571
2592.000000	97.885680
2591.000000	97.879825
2590.000000	97.876808
2589.000000	97.881231
2588.000000	97.892163
2587.000000	97.903011
2586.000000	97.907623
2585.000000	97.906279
2584.000000	97.903916
2583.000000	97.903036
2582.000000	97.901587
2581.000000	97.898021
2580.000000	97.894548
2579.000000	97.893534
2578.000000	97.893834
2577.000000	97.893445
2576.000000	97.893413
2575.000000	97.896404
2574.000000	97.902888
2573.000000	97.911147
2572.000000	97.919694
2571.000000	97.927595
2570.000000	97.934187
2569.000000	97.940674
2568.000000	97.949961
2567.000000	97.962043
2566.000000	97.971443
2565.000000	97.972609
2564.000000	97.966954
2563.000000	97.961341
2562.000000	97.960329
2561.000000	97.962806
2560.000000	97.965420
2559.000000	97.966267
2558.000000	97.965617
2557.000000	97.965756
2556.000000	97.969669
2555.000000	97.977359
2554.000000	97.984298
2553.000000	97.986138
2552.000000	97.983830
2551.000000	97.981145
2550.000000	97.978650
2549.000000	97.974239
2548.000000	97.968705
2547.000000	97.965990
2546.000000	97.967514
2545.000000	97.970690
2544.000000	97.974118
2543.000000	97.979988
2542.000000	97.989423
2541.000000	97.998825
2540.000000	98.003312
2539.000000	98.001838
2538.000000	97.997267
2537.000000	97.993345
2536.000000	97.992954
2535.000000	97.997273
2534.000000	98.004736
2533.000000	98.011601
2532.000000	98.014410
2531.000000	98.011417
2530.000000	98.002277
2529.000000	97.988490
2528.000000	97.974354
2527.000000	97.964861
2526.000000	97.961428
2525.000000	97.961042
2524.000000	97.960108
2523.000000	97.957797
2522.000000	97.955592
2521.000000	97.955399
2520.000000	97.958450
2519.000000	97.964341
2518.000000	97.970556
2517.000000	97.974360
2516.000000	97.975529
2515.000000	97.975974
2514.000000	97.977002
2513.000000	97.978592
2512.000000	97.980903
2511.000000	97.984188
2510.000000	97.987224
2509.000000	97.988136
2508.000000	97.987197
2507.000000	97.986897
2506.000000	97.989076
2505.000000	97.993877
2504.000000	98.001289
2503.000000	98.011128
2502.000000	98.021200
2501.000000	98.028230
2500.000000	98.031633
2499.000000	98.034455
2498.000000	98.039748
2497.000000	98.047690
2496.000000	98.056464
2495.000000	98.063767
2494.000000	98.067166
2493.000000	98.065746
2492.000000	98.062519
2491.000000	98.062568
2490.000000	98.067441
2489.000000	98.073531
2488.000000	98.077702
2487.000000	98.082159
2486.000000	98.091029
2485.000000	98.103416
2484.000000	98.112684
2483.000000	98.113256
2482.000000	98.106624
2481.000000	98.099922
2480.000000	98.099219
2479.000000	98.104429
2478.000000	98.110293
2477.000000	98.111634
2476.000000	98.107170
2475.000000	98.099121
2474.000000	98.090913
2473.000000	98.085974
2472.000000	98.087028
2471.000000	98.094392
2470.000000	98.105032
2469.000000	98.114454
2468.000000	98.119564
2467.000000	98.119564
2466.000000	98.115432
2465.000000	98.109881
2464.000000	98.106561
2463.000000	98.107406
2462.000000	98.111094
2461.000000	98.115181
2460.000000	98.118904
2459.000000	98.122448
2458.000000	98.124629
2457.000000	98.123511
2456.000000	98.119076
2455.000000	98.113781
2454.000000	98.110808
2453.000000	98.112851
2452.000000	98.121266
2451.000000	98.134292
2450.000000	98.146646
2449.000000	98.152833
2448.000000	98.151114
2447.000000	98.144013
2446.000000	98.136404
2445.000000	98.133866
2444.000000	98.139826
2443.000000	98.151463
2442.000000	98.160546
2441.000000	98.161542
2440.000000	98.157560
2439.000000	98.155240
2438.000000	98.155734
2437.000000	98.154838
2436.000000	98.150840
2435.000000	98.147261
2434.000000	98.147492
2433.000000	98.151124
2432.000000	98.156507
2431.000000	98.163255
2430.000000	98.170780
2429.000000	98.177378
2428.000000	98.182154
2427.000000	98.185436
2426.000000	98.186337
2425.000000	98.182545
2424.000000	98.173999
2423.000000	98.164653
2422.000000	98.159172
2421.000000	98.159106
2420.000000	98.162648
2419.000000	98.166290
2418.000000	98.166331
2417.000000	98.161194
2416.000000	98.153625
2415.000000	98.149331
2414.000000	98.152229
2413.000000	98.161394
2412.000000	98.172557
2411.000000	98.181591
2410.000000	98.186930
2409.000000	98.190169
2408.000000	98.194389
2407.000000	98.200699
2406.000000	98.206587
2405.000000	98.208645
2404.000000	98.206217
2403.000000	98.201201
2402.000000	98.195475
2401.000000	98.190440
2400.000000	98.187780
2399.000000	98.188065
2398.000000	98.189081
2397.000000	98.187966
2396.000000	98.184769
2395.000000	98.181963
2394.000000	98.181026
2393.000000	98.181729
2392.000000	98.184066
2391.000000	98.188168
2390.000000	98.192550
2389.000000	98.195183
2388.000000	98.196419
2387.000000	98.198087
2386.000000	98.199697
2385.000000	98.198191
2384.000000	98.192427
2383.000000	98.185933
2382.000000	98.183837
2381.000000	98.188526
2380.000000	98.198010
2379.000000	98.206886
2378.000000	98.209351
2377.000000	98.203818
2376.000000	98.195332
2375.000000	98.190960
2374.000000	98.192262
2373.000000	98.194701
2372.000000	98.194877
2371.000000	98.194794
2370.000000	98.197643
2369.000000	98.202430
2368.000000	98.204243
2367.000000	98.198760
2366.000000	98.185848
2365.000000	98.170273
2364.000000	98.158460
2363.000000	98.152798
2362.000000	98.151327
2361.000000	98.153562
2360.000000	98.162066
2359.000000	98.177042
2358.000000	98.193890
2357.000000	98.208596
2356.000000	98.220906
2355.000000	98.229918
2354.000000	98.233647
2353.000000	98.232052
2352.000000	98.224479
2351.000000	98.207520
2350.000000	98.180771
2349.000000	98.149819
2348.000000	98.122334
2347.000000	98.105604
2346.000000	98.104170
2345.000000	98.114338
2344.000000	98.127470
2343.000000	98.139679
2342.000000	98.153139
2341.000000	98.168687
2340.000000	98.180412
2339.000000	98.180256
2338.000000	98.166889
2337.000000	98.148331
2336.000000	98.134566
2335.000000	98.130520
2334.000000	98.135223
2333.000000	98.145489
2332.000000	98.155963
2331.000000	98.160811
2330.000000	98.157191
2329.000000	98.147278
2328.000000	98.132150
2327.000000	98.108084
2326.000000	98.073556
2325.000000	98.038599
2324.000000	98.021720
2323.000000	98.032837
2322.000000	98.061686
2321.000000	98.088215
2320.000000	98.102528
2319.000000	98.110151
2318.000000	98.118636
2317.000000	98.128436
2316.000000	98.135162
2315.000000	98.135794
2314.000000	98.130053
2313.000000	98.121720
2312.000000	98.118362
2311.000000	98.126330
2310.000000	98.143728
2309.000000	98.161733
2308.000000	98.173131
2307.000000	98.176920
2306.000000	98.174571
2305.000000	98.167144
2304.000000	98.157426
2303.000000	98.150689
2302.000000	98.149717
2301.000000	98.151664
2300.000000	98.151528
2299.000000	98.147717
2298.000000	98.142074
2297.000000	98.136966
2296.000000	98.133090
2295.000000	98.129645
2294.000000	98.125727
2293.000000	98.122578
2292.000000	98.123655
2291.000000	98.130335
2290.000000	98.138427
2289.000000	98.141489
2288.000000	98.137682
2287.000000	98.130516
2286.000000	98.123778
2285.000000	98.119247
2284.000000	98.119379
2283.000000	98.127456
2282.000000	98.143404
2281.000000	98.161943
2280.000000	98.176148
2279.000000	98.181418
2278.000000	98.177312
2277.000000	98.169184
2276.000000	98.166616
2275.000000	98.175627
2274.000000	98.192821
2273.000000	98.211098
2272.000000	98.229111
2271.000000	98.249405
2270.000000	98.268886
2269.000000	98.278969
2268.000000	98.276183
2267.000000	98.266093
2266.000000	98.255492
2265.000000	98.246787
2264.000000	98.240704
2263.000000	98.237760
2262.000000	98.235491
2261.000000	98.229761
2260.000000	98.220291
2259.000000	98.210476
2258.000000	98.202650
2257.000000	98.199294
2256.000000	98.206918
2255.000000	98.229726
2254.000000	98.258854
2253.000000	98.277491
2252.000000	98.279646
2251.000000	98.276162
2250.000000	98.279907
2249.000000	98.292354
2248.000000	98.306067
2247.000000	98.312530
2246.000000	98.305614
2245.000000	98.285955
2244.000000	98.265316
2243.000000	98.259048
2242.000000	98.270469
2241.000000	98.287907
2240.000000	98.298207
2239.000000	98.297007
2238.000000	98.286259
2237.000000	98.272254
2236.000000	98.267997
2235.000000	98.285871
2234.000000	98.321792
2233.000000	98.354779
2232.000000	98.367638
2231.000000	98.361025
2230.000000	98.343335
2229.000000	98.317387
2228.000000	98.285141
2227.000000	98.257296
2226.000000	98.248017
2225.000000	98.261793
2224.000000	98.290834
2223.000000	98.323429
2222.000000	98.351162
2221.000000	98.370445
2220.000000	98.380700
2219.000000	98.380905
2218.000000	98.369561
2217.000000	98.351725
2216.000000	98.341973
2215.000000	98.350800
2214.000000	98.369032
2213.000000	98.376184
2212.000000	98.366689
2211.000000	98.358236
2210.000000	98.369253
2209.000000	98.395711
2208.000000	98.415526
2207.000000	98.411459
2206.000000	98.386141
2205.000000	98.357701
2204.000000	98.342520
2203.000000	98.340387
2202.000000	98.338670
2201.000000	98.332730
2200.000000	98.334454
2199.000000	98.353806
2198.000000	98.380877
2197.000000	98.398311
2196.000000	98.405140
2195.000000	98.412676
2194.000000	98.421379
2193.000000	98.420272
2192.000000	98.408944
2191.000000	98.400880
2190.000000	98.401964
2189.000000	98.404639
2188.000000	98.407532
2187.000000	98.421694
2186.000000	98.448349
2185.000000	98.467913
2184.000000	98.464541
2183.000000	98.449450
2182.000000	98.445180
2181.000000	98.454215
2180.000000	98.456824
2179.000000	98.437648
2178.000000	98.405864
2177.000000	98.389879
2176.000000	98.412825
2175.000000	98.467773
2174.000000	98.516730
2173.000000	98.521027
2172.000000	98.474689
2171.000000	98.405535
2170.000000	98.349639
2169.000000	98.329300
2168.000000	98.343875
2167.000000	98.370942
2166.000000	98.383880
2165.000000	98.379411
2164.000000	98.381556
2163.000000	98.406234
2162.000000	98.437266
2161.000000	98.459397
2160.000000	98.499591
2159.000000	98.596646
2158.000000	98.728366
2157.000000	98.819966
2156.000000	98.831179
2155.000000	98.786539
2154.000000	98.727807
2153.000000	98.680145
2152.000000	98.655098
2151.000000	98.651642
2150.000000	98.653331
2149.000000	98.644548
2148.000000	98.630512
2147.000000	98.625064
2146.000000	98.623684
2145.000000	98.608227
2144.000000	98.575398
2143.000000	98.539853
2142.000000	98.512163
2141.000000	98.494147
2140.000000	98.492575
2139.000000	98.515229
2138.000000	98.551010
2137.000000	98.573933
2136.000000	98.572848
2135.000000	98.562627
2134.000000	98.560788
2133.000000	98.567966
2132.000000	98.575228
2131.000000	98.576385
2130.000000	98.567837
2129.000000	98.547315
2128.000000	98.518125
2127.000000	98.487817
2126.000000	98.460735
2125.000000	98.436777
2124.000000	98.415859
2123.000000	98.397082
2122.000000	98.376344
2121.000000	98.353233
2120.000000	98.337739
2119.000000	98.340104
2118.000000	98.355155
2117.000000	98.366335
2116.000000	98.364554
2115.000000	98.353274
2114.000000	98.336201
2113.000000	98.312981
2112.000000	98.288633
2111.000000	98.274337
2110.000000	98.273702
2109.000000	98.277969
2108.000000	98.278896
2107.000000	98.278335
2106.000000	98.281387
2105.000000	98.288793
2104.000000	98.299890
2103.000000	98.314932
2102.000000	98.330708
2101.000000	98.340713
2100.000000	98.343111
2099.000000	98.343209
2098.000000	98.347697
2097.000000	98.361745
2096.000000	98.388722
2095.000000	98.422710
2094.000000	98.444647
2093.000000	98.438916
2092.000000	98.413182
2091.000000	98.388939
2090.000000	98.373978
2089.000000	98.357726
2088.000000	98.333883
2087.000000	98.312668
2086.000000	98.305691
2085.000000	98.312412
2084.000000	98.326968
2083.000000	98.346777
2082.000000	98.367464
2081.000000	98.379395
2080.000000	98.377525
2079.000000	98.367907
2078.000000	98.359602
2077.000000	98.356879
2076.000000	98.361497
2075.000000	98.372914
2074.000000	98.383821
2073.000000	98.386028
2072.000000	98.383540
2071.000000	98.388730
2070.000000	98.403182
2069.000000	98.415351
2068.000000	98.420586
2067.000000	98.428500
2066.000000	98.445417
2065.000000	98.463448
2064.000000	98.473325
2063.000000	98.475089
2062.000000	98.470109
2061.000000	98.457352
2060.000000	98.443220
2059.000000	98.440509
2058.000000	98.452262
2057.000000	98.470583
2056.000000	98.493516
2055.000000	98.524716
2054.000000	98.551850
2053.000000	98.549627
2052.000000	98.516198
2051.000000	98.483869
2050.000000	98.478756
2049.000000	98.487088
2048.000000	98.481669
2047.000000	98.468243
2046.000000	98.475612
2045.000000	98.509170
2044.000000	98.543369
2043.000000	98.556114
2042.000000	98.548411
2041.000000	98.534577
2040.000000	98.529273
2039.000000	98.538841
2038.000000	98.553587
2037.000000	98.555000
2036.000000	98.540873
2035.000000	98.533801
2034.000000	98.553271
2033.000000	98.592586
2032.000000	98.635952
2031.000000	98.682143
2030.000000	98.732822
2029.000000	98.773285
2028.000000	98.786578
2027.000000	98.778320
2026.000000	98.770255
2025.000000	98.776669
2024.000000	98.795095
2023.000000	98.811297
2022.000000	98.807229
2021.000000	98.775877
2020.000000	98.735041
2019.000000	98.712827
2018.000000	98.715217
2017.000000	98.720109
2016.000000	98.707360
2015.000000	98.680011
2014.000000	98.650930
2013.000000	98.628451
2012.000000	98.620745
2011.000000	98.637573
2010.000000	98.680622
2009.000000	98.741120
2008.000000	98.806906
2007.000000	98.860889
2006.000000	98.877102
2005.000000	98.841371
2004.000000	98.776793
2003.000000	98.725012
2002.000000	98.700737
2001.000000	98.682181
2000.000000	98.646392
1999.000000	98.597644
1998.000000	98.558527
1997.000000	98.545824
1996.000000	98.560228
1995.000000	98.588510
1994.000000	98.608315
1993.000000	98.599842
1992.000000	98.563453
1991.000000	98.521161
1990.000000	98.495641
1989.000000	98.494706
1988.000000	98.510760
1987.000000	98.524793
1986.000000	98.518766
1985.000000	98.494977
1984.000000	98.474579
1983.000000	98.466682
1982.000000	98.453559
1981.000000	98.423701
1980.000000	98.405615
1979.000000	98.441077
1978.000000	98.530417
1977.000000	98.629615
1976.000000	98.702194
1975.000000	98.741661
1974.000000	98.747256
1973.000000	98.724431
1972.000000	98.705161
1971.000000	98.721753
1970.000000	98.760156
1969.000000	98.775186
1968.000000	98.752926
1967.000000	98.726598
1966.000000	98.726015
1965.000000	98.746748
1964.000000	98.774683
1963.000000	98.803613
1962.000000	98.822057
1961.000000	98.816073
1960.000000	98.792981
1959.000000	98.774549
1958.000000	98.763565
1957.000000	98.744131
1956.000000	98.714458
1955.000000	98.691699
1954.000000	98.683495
1953.000000	98.680702
1952.000000	98.681442
1951.000000	98.698108
1950.000000	98.731883
1949.000000	98.762159
1948.000000	98.769387
1947.000000	98.753691
1946.000000	98.727035
1945.000000	98.700433
1944.000000	98.682927
1943.000000	98.680292
1942.000000	98.689573
1941.000000	98.704593
1940.000000	98.725526
1939.000000	98.750445
1938.000000	98.762940
1937.000000	98.745430
1936.000000	98.704508
1935.000000	98.665079
1934.000000	98.640647
1933.000000	98.627261
1932.000000	98.622651
1931.000000	98.630527
1930.000000	98.644194
1929.000000	98.648134
1928.000000	98.639322
1927.000000	98.631973
1926.000000	98.638842
1925.000000	98.657045
1924.000000	98.677528
1923.000000	98.693957
1922.000000	98.703989
1921.000000	98.710344
1920.000000	98.718284
1919.000000	98.726115
1918.000000	98.720703
1917.000000	98.695364
1916.000000	98.667510
1915.000000	98.657646
1914.000000	98.663369
1913.000000	98.668698
1912.000000	98.668778
1911.000000	98.671616
1910.000000	98.678857
1909.000000	98.683238
1908.000000	98.683517
1907.000000	98.684429
1906.000000	98.683827
1905.000000	98.675437
1904.000000	98.666102
1903.000000	98.668385
1902.000000	98.679646
1901.000000	98.685440
1900.000000	98.681896
1899.000000	98.680260
1898.000000	98.687019
1897.000000	98.695112
1896.000000	98.699805
1895.000000	98.704858
1894.000000	98.709302
1893.000000	98.705527
1892.000000	98.693942
1891.000000	98.685385
1890.000000	98.685363
1889.000000	98.688217
1888.000000	98.691027
1887.000000	98.698804
1886.000000	98.711528
1885.000000	98.720601
1884.000000	98.721932
1883.000000	98.721498
1882.000000	98.722656
1881.000000	98.720820
1880.000000	98.715339
1879.000000	98.714276
1878.000000	98.721526
1877.000000	98.729417
1876.000000	98.731866
1875.000000	98.731879
1874.000000	98.730584
1873.000000	98.724332
1872.000000	98.715399
1871.000000	98.713056
1870.000000	98.721889
1869.000000	98.737335
1868.000000	98.754801
1867.000000	98.772158
1866.000000	98.779677
1865.000000	98.767010
1864.000000	98.740256
1863.000000	98.716486
1862.000000	98.702992
1861.000000	98.693218
1860.000000	98.684536
1859.000000	98.686237
1858.000000	98.703433
1857.000000	98.725921
1856.000000	98.741519
1855.000000	98.748993
1854.000000	98.750524
1853.000000	98.744534
1852.000000	98.733679
1851.000000	98.727640
1850.000000	98.731912
1849.000000	98.738164
1848.000000	98.740671
1847.000000	98.748650
1846.000000	98.769132
1845.000000	98.790060
1844.000000	98.793115
1843.000000	98.780294
1842.000000	98.768813
1841.000000	98.765149
1840.000000	98.760605
1839.000000	98.748561
1838.000000	98.732961
1837.000000	98.721303
1836.000000	98.719814
1835.000000	98.728210
1834.000000	98.739389
1833.000000	98.747207
1832.000000	98.752819
1831.000000	98.761711
1830.000000	98.772722
1829.000000	98.775576
1828.000000	98.769786
1827.000000	98.765207
1826.000000	98.764784
1825.000000	98.761110
1824.000000	98.750719
1823.000000	98.743965
1822.000000	98.748523
1821.000000	98.758154
1820.000000	98.765233
1819.000000	98.770875
1818.000000	98.776135
1817.000000	98.776113
1816.000000	98.771326
1815.000000	98.769454
1814.000000	98.773078
1813.000000	98.774584
1812.000000	98.767644
1811.000000	98.758868
1810.000000	98.755186
1809.000000	98.752688
1808.000000	98.745212
1807.000000	98.733439
1806.000000	98.721845
1805.000000	98.711657
1804.000000	98.702183
1803.000000	98.693271
1802.000000	98.683446
1801.000000	98.670877
1800.000000	98.658667
1799.000000	98.654396
1798.000000	98.655482
1797.000000	98.652204
1796.000000	98.643188
1795.000000	98.637530
1794.000000	98.642226
1793.000000	98.653253
1792.000000	98.664160
1791.000000	98.677570
1790.000000	98.694542
1789.000000	98.708039
1788.000000	98.714689
1787.000000	98.719338
1786.000000	98.725420
1785.000000	98.728233
1784.000000	98.724356
1783.000000	98.720677
1782.000000	98.725112
1781.000000	98.734214
1780.000000	98.740677
1779.000000	98.749515
1778.000000	98.763713
1777.000000	98.775651
1776.000000	98.779300
1775.000000	98.782023
1774.000000	98.795003
1773.000000	98.810448
1772.000000	98.812470
1771.000000	98.806011
1770.000000	98.799743
1769.000000	98.780240
1768.000000	98.736100
1767.000000	98.679026
1766.000000	98.632054
1765.000000	98.605903
1764.000000	98.588747
1763.000000	98.559678
1762.000000	98.504296
1761.000000	98.423420
1760.000000	98.332268
1759.000000	98.241148
1758.000000	98.132680
1757.000000	97.978043
1756.000000	97.779375
1755.000000	97.578107
1754.000000	97.399249
1753.000000	97.217672
1752.000000	96.996049
1751.000000	96.739280
1750.000000	96.489628
1749.000000	96.273168
1748.000000	96.091434
1747.000000	95.941555
1746.000000	95.818194
1745.000000	95.710728
1744.000000	95.619873
1743.000000	95.563205
1742.000000	95.550608
1741.000000	95.576537
1740.000000	95.634687
1739.000000	95.716455
1738.000000	95.803966
1737.000000	95.895562
1736.000000	96.010386
1735.000000	96.181672
1734.000000	96.406703
1733.000000	96.612587
1732.000000	96.783842
1731.000000	96.963125
1730.000000	97.147317
1729.000000	97.308189
1728.000000	97.441330
1727.000000	97.566730
1726.000000	97.696131
1725.000000	97.818955
1724.000000	97.927523
1723.000000	98.027232
1722.000000	98.115748
1721.000000	98.186769
1720.000000	98.245526
1719.000000	98.308917
1718.000000	98.383030
1717.000000	98.446782
1716.000000	98.490098
1715.000000	98.517334
1714.000000	98.514270
1713.000000	98.470927
1712.000000	98.406793
1711.000000	98.350855
1710.000000	98.308121
1709.000000	98.260901
1708.000000	98.199602
1707.000000	98.131917
1706.000000	98.057684
1705.000000	97.968531
1704.000000	97.881503
1703.000000	97.818733
1702.000000	97.760560
1701.000000	97.633816
1700.000000	97.412000
1699.000000	97.210175
1698.000000	97.119710
1697.000000	97.064966
1696.000000	96.933760
1695.000000	96.736016
1694.000000	96.548370
1693.000000	96.405743
1692.000000	96.290179
1691.000000	96.166334
1690.000000	96.026238
1689.000000	95.887053
1688.000000	95.771404
1687.000000	95.688374
1686.000000	95.612931
1685.000000	95.472804
1684.000000	95.242357
1683.000000	95.030426
1682.000000	94.890334
1681.000000	94.758042
1680.000000	94.599339
1679.000000	94.429474
1678.000000	94.272064
1677.000000	94.114065
1676.000000	93.914605
1675.000000	93.676528
1674.000000	93.462271
1673.000000	93.308438
1672.000000	93.185244
1671.000000	93.039702
1670.000000	92.838074
1669.000000	92.598381
1668.000000	92.374457
1667.000000	92.198284
1666.000000	92.056631
1665.000000	91.909134
1664.000000	91.718487
1663.000000	91.486730
1662.000000	91.261232
1661.000000	91.077879
1660.000000	90.925302
1659.000000	90.786702
1658.000000	90.656721
1657.000000	90.538906
1656.000000	90.433248
1655.000000	90.328297
1654.000000	90.163125
1653.000000	89.920213
1652.000000	89.746116
1651.000000	89.698277
1650.000000	89.703636
1649.000000	89.693916
1648.000000	89.611407
1647.000000	89.480111
1646.000000	89.375885
1645.000000	89.318436
1644.000000	89.276887
1643.000000	89.242441
1642.000000	89.213474
1641.000000	89.178469
1640.000000	89.137392
1639.000000	89.107425
1638.000000	89.097683
1637.000000	89.088440
1636.000000	89.053851
1635.000000	89.012956
1634.000000	88.995522
1633.000000	88.994659
1632.000000	89.004569
1631.000000	89.019229
1630.000000	89.036200
1629.000000	89.063211
1628.000000	89.109688
1627.000000	89.183833
1626.000000	89.283502
1625.000000	89.397236
1624.000000	89.518233
1623.000000	89.651855
1622.000000	89.800247
1621.000000	89.952898
1620.000000	90.100838
1619.000000	90.247846
1618.000000	90.406947
1617.000000	90.593291
1616.000000	90.799754
1615.000000	90.996268
1614.000000	91.167371
1613.000000	91.320693
1612.000000	91.469609
1611.000000	91.623267
1610.000000	91.785803
1609.000000	91.956746
1608.000000	92.129524
1607.000000	92.292784
1606.000000	92.439658
1605.000000	92.574131
1604.000000	92.703514
1603.000000	92.829023
1602.000000	92.943997
1601.000000	93.045742
1600.000000	93.138835
1599.000000	93.225165
1598.000000	93.302884
1597.000000	93.373798
1596.000000	93.442680
1595.000000	93.506889
1594.000000	93.558232
1593.000000	93.596396
1592.000000	93.628812
1591.000000	93.658095
1590.000000	93.679758
1589.000000	93.692345
1588.000000	93.698578
1587.000000	93.697384
1586.000000	93.685324
1585.000000	93.666169
1584.000000	93.645720
1583.000000	93.621453
1582.000000	93.585897
1581.000000	93.539202
1580.000000	93.492960
1579.000000	93.453702
1578.000000	93.411531
1577.000000	93.350201
1576.000000	93.274352
1575.000000	93.202732
1574.000000	93.136910
1573.000000	93.069445
1572.000000	92.992041
1571.000000	92.886418
1570.000000	92.739523
1569.000000	92.583418
1568.000000	92.463096
1567.000000	92.369982
1566.000000	92.265482
1565.000000	92.135345
1564.000000	92.000757
1563.000000	91.898772
1562.000000	91.833438
1561.000000	91.770527
1560.000000	91.635308
1559.000000	91.370364
1558.000000	91.141324
1557.000000	91.044345
1556.000000	90.958594
1555.000000	90.845359
1554.000000	90.703290
1553.000000	90.552534
1552.000000	90.426461
1551.000000	90.319216
1550.000000	90.206299
1549.000000	90.088273
1548.000000	89.991498
1547.000000	89.920933
1546.000000	89.857515
1545.000000	89.786118
1544.000000	89.724435
1543.000000	89.699192
1542.000000	89.700464
1541.000000	89.692004
1540.000000	89.669328
1539.000000	89.662786
1538.000000	89.659886
1537.000000	89.646246
1536.000000	89.641439
1535.000000	89.638872
1534.000000	89.629510
1533.000000	89.623036
1532.000000	89.637446
1531.000000	89.674757
1530.000000	89.718880
1529.000000	89.760838
1528.000000	89.801767
1527.000000	89.848677
1526.000000	89.902829
1525.000000	89.955917
1524.000000	90.007728
1523.000000	90.068359
1522.000000	90.139323
1521.000000	90.208013
1520.000000	90.262815
1519.000000	90.311333
1518.000000	90.365675
1517.000000	90.420503
1516.000000	90.471529
1515.000000	90.525866
1514.000000	90.590697
1513.000000	90.665408
1512.000000	90.746293
1511.000000	90.837028
1510.000000	90.947688
1509.000000	91.080571
1508.000000	91.235743
1507.000000	91.419537
1506.000000	91.606971
1505.000000	91.729871
1504.000000	91.793577
1503.000000	91.867269
1502.000000	91.957176
1501.000000	92.044141
1500.000000	92.127717
1499.000000	92.219166
1498.000000	92.329484
1497.000000	92.452389
1496.000000	92.570948
1495.000000	92.674192
1494.000000	92.764141
1493.000000	92.845569
1492.000000	92.919095
1491.000000	92.991659
1490.000000	93.070592
1489.000000	93.147976
1488.000000	93.210139
1487.000000	93.251943
1486.000000	93.272618
1485.000000	93.272650
1484.000000	93.256311
1483.000000	93.234708
1482.000000	93.209768
1481.000000	93.170599
1480.000000	93.117231
1479.000000	93.059539
1478.000000	92.995499
1477.000000	92.911297
1476.000000	92.811582
1475.000000	92.717422
1474.000000	92.623574
1473.000000	92.486393
1472.000000	92.298842
1471.000000	92.112738
1470.000000	91.954046
1469.000000	91.812641
1468.000000	91.680248
1467.000000	91.556268
1466.000000	91.437905
1465.000000	91.314844
1464.000000	91.193048
1463.000000	91.094478
1462.000000	91.018759
1461.000000	90.948636
1460.000000	90.870523
1459.000000	90.779626
1458.000000	90.657754
1457.000000	90.489428
1456.000000	90.324830
1455.000000	90.214447
1454.000000	90.150921
1453.000000	90.100808
1452.000000	90.043313
1451.000000	89.991236
1450.000000	89.956322
1449.000000	89.930378
1448.000000	89.906862
1447.000000	89.892623
1446.000000	89.894431
1445.000000	89.904419
1444.000000	89.913898
1443.000000	89.923004
1442.000000	89.930446
1441.000000	89.936701
1440.000000	89.948227
1439.000000	89.969438
1438.000000	89.991336
1437.000000	90.000540
1436.000000	90.004206
1435.000000	90.028112
1434.000000	90.080442
1433.000000	90.141652
1432.000000	90.192078
1431.000000	90.228144
1430.000000	90.253088
1429.000000	90.264952
1428.000000	90.262229
1427.000000	90.250997
1426.000000	90.241408
1425.000000	90.234219
1424.000000	90.226014
1423.000000	90.221190
1422.000000	90.220529
1421.000000	90.215373
1420.000000	90.196932
1419.000000	90.169072
1418.000000	90.148395
1417.000000	90.143016
1416.000000	90.145413
1415.000000	90.148246
1414.000000	90.149427
1413.000000	90.148783
1412.000000	90.148668
1411.000000	90.150703
1410.000000	90.151802
1409.000000	90.148955
1408.000000	90.145330
1407.000000	90.145080
1406.000000	90.149168
1405.000000	90.155420
1404.000000	90.162992
1403.000000	90.173673
1402.000000	90.186179
1401.000000	90.197457
1400.000000	90.207401
1399.000000	90.221826
1398.000000	90.245216
1397.000000	90.273778
1396.000000	90.301223
1395.000000	90.324700
1394.000000	90.345236
1393.000000	90.366723
1392.000000	90.397558
1391.000000	90.442117
1390.000000	90.493662
1389.000000	90.544932
1388.000000	90.597290
1387.000000	90.654614
1386.000000	90.714679
1385.000000	90.773401
1384.000000	90.831865
1383.000000	90.892819
1382.000000	90.955412
1381.000000	91.020339
1380.000000	91.092209
1379.000000	91.173165
1378.000000	91.260874
1377.000000	91.355415
1376.000000	91.462878
1375.000000	91.585237
1374.000000	91.709368
1373.000000	91.815777
1372.000000	91.901262
1371.000000	91.979321
1370.000000	92.061349
1369.000000	92.148352
1368.000000	92.237946
1367.000000	92.328638
1366.000000	92.417726
1365.000000	92.504191
1364.000000	92.590530
1363.000000	92.677451
1362.000000	92.757205
1361.000000	92.818612
1360.000000	92.860217
1359.000000	92.890456
1358.000000	92.917101
1357.000000	92.942985
1356.000000	92.968035
1355.000000	92.989867
1354.000000	93.004541
1353.000000	93.009751
1352.000000	93.007006
1351.000000	92.998242
1350.000000	92.984567
1349.000000	92.965824
1348.000000	92.940643
1347.000000	92.906574
1346.000000	92.861330
1345.000000	92.807731
1344.000000	92.754113
1343.000000	92.707141
1342.000000	92.665281
1341.000000	92.621877
1340.000000	92.574272
1339.000000	92.527418
1338.000000	92.487138
1337.000000	92.455604
1336.000000	92.435651
1335.000000	92.431847
1334.000000	92.446547
1333.000000	92.478764
1332.000000	92.525387
1331.000000	92.581728
1330.000000	92.642143
1329.000000	92.702145
1328.000000	92.760360
1327.000000	92.816480
1326.000000	92.868913
1325.000000	92.915582
1324.000000	92.956104
1323.000000	92.991214
1322.000000	93.020756
1321.000000	93.044722
1320.000000	93.065282
1319.000000	93.085981
1318.000000	93.108601
1317.000000	93.133011
1316.000000	93.160323
1315.000000	93.193592
1314.000000	93.234256
1313.000000	93.279625
1312.000000	93.325166
1311.000000	93.368747
1310.000000	93.412081
1309.000000	93.457769
1308.000000	93.506031
1307.000000	93.554623
1306.000000	93.601851
1305.000000	93.647971
1304.000000	93.693264
1303.000000	93.736457
1302.000000	93.776873
1301.000000	93.817198
1300.000000	93.861114
1299.000000	93.908155
1298.000000	93.952714
1297.000000	93.988632
1296.000000	94.013006
1295.000000	94.025454
1294.000000	94.026583
1293.000000	94.018382
1292.000000	94.004615
1291.000000	93.988739
1290.000000	93.970713
1289.000000	93.947314
1288.000000	93.916173
1287.000000	93.879358
1286.000000	93.842785
1285.000000	93.811961
1284.000000	93.788795
1283.000000	93.772075
1282.000000	93.760000
1281.000000	93.751721
1280.000000	93.746378
1279.000000	93.741622
1278.000000	93.734448
1277.000000	93.723680
1276.000000	93.710210
1275.000000	93.694153
1274.000000	93.673162
1273.000000	93.644435
1272.000000	93.607358
1271.000000	93.563132
1270.000000	93.512201
1269.000000	93.454134
1268.000000	93.389833
1267.000000	93.321469
1266.000000	93.249700
1265.000000	93.172662
1264.000000	93.089217
1263.000000	93.001829
1262.000000	92.914743
1261.000000	92.830548
1260.000000	92.749421
1259.000000	92.670364
1258.000000	92.592011
1257.000000	92.514088
1256.000000	92.439129
1255.000000	92.370927
1254.000000	92.309858
1253.000000	92.251186
1252.000000	92.189322
1251.000000	92.122288
1250.000000	92.051228
1249.000000	91.977583
1248.000000	91.902130
1247.000000	91.825185
1246.000000	91.746314
1245.000000	91.665208
1244.000000	91.584027
1243.000000	91.507615
1242.000000	91.440646
1241.000000	91.385210
1240.000000	91.340996
1239.000000	91.306171
1238.000000	91.278558
1237.000000	91.259502
1236.000000	91.255323
1235.000000	91.271804
1234.000000	91.308017
1233.000000	91.357880
1232.000000	91.417895
1231.000000	91.489153
1230.000000	91.573490
1229.000000	91.672940
1228.000000	91.790847
1227.000000	91.929170
1226.000000	92.083566
1225.000000	92.244691
1224.000000	92.404982
1223.000000	92.561329
1222.000000	92.712915
1221.000000	92.859340
1220.000000	92.999807
1219.000000	93.131398
1218.000000	93.249635
1217.000000	93.352239
1216.000000	93.440619
1215.000000	93.516379
1214.000000	93.577759
1213.000000	93.622645
1212.000000	93.652055
1211.000000	93.667722
1210.000000	93.668570
1209.000000	93.652078
1208.000000	93.619748
1207.000000	93.578130
1206.000000	93.534692
1205.000000	93.495155
1204.000000	93.463875
1203.000000	93.443712
1202.000000	93.434648
1201.000000	93.435250
1200.000000	93.445443
1199.000000	93.465702
1198.000000	93.493638
1197.000000	93.524939
1196.000000	93.558103
1195.000000	93.594454
1194.000000	93.633434
1193.000000	93.671071
1192.000000	93.704360
1191.000000	93.734477
1190.000000	93.764172
1189.000000	93.793610
1188.000000	93.819712
1187.000000	93.838175
1186.000000	93.845327
1185.000000	93.840042
1184.000000	93.824314
1183.000000	93.801299
1182.000000	93.772640
1181.000000	93.738140
1180.000000	93.698385
1179.000000	93.655465
1178.000000	93.610767
1177.000000	93.564018
1176.000000	93.514895
1175.000000	93.464174
1174.000000	93.412647
1173.000000	93.360541
1172.000000	93.308400
1171.000000	93.256920
1170.000000	93.205846
1169.000000	93.154902
1168.000000	93.105864
1167.000000	93.061384
1166.000000	93.022269
1165.000000	92.988421
1164.000000	92.962521
1163.000000	92.949825
1162.000000	92.953297
1161.000000	92.972635
1160.000000	93.007437
1159.000000	93.057980
1158.000000	93.123379
1157.000000	93.201665
1156.000000	93.292640
1155.000000	93.396587
1154.000000	93.510999
1153.000000	93.633139
1152.000000	93.764117
1151.000000	93.906336
1150.000000	94.056748
1149.000000	94.207856
1148.000000	94.356112
1147.000000	94.504254
1146.000000	94.654475
1145.000000	94.803316
1144.000000	94.945098
1143.000000	95.076939
1142.000000	95.199199
1141.000000	95.313231
1140.000000	95.420351
1139.000000	95.521384
1138.000000	95.614927
1137.000000	95.697935
1136.000000	95.768779
1135.000000	95.828569
1134.000000	95.879041
1133.000000	95.920140
1132.000000	95.951872
1131.000000	95.976422
1130.000000	95.995904
1129.000000	96.009903
1128.000000	96.017811
1127.000000	96.023040
1126.000000	96.030511
1125.000000	96.039347
1124.000000	96.042522
1123.000000	96.035161
1122.000000	96.020234
1121.000000	96.003619
1120.000000	95.986012
1119.000000	95.962820
1118.000000	95.929386
1117.000000	95.883485
1116.000000	95.823920
1115.000000	95.750069
1114.000000	95.664357
1113.000000	95.573683
1112.000000	95.488213
1111.000000	95.417846
1110.000000	95.367946
1109.000000	95.337326
1108.000000	95.321555
1107.000000	95.317585
1106.000000	95.323601
1105.000000	95.336149
1104.000000	95.349683
1103.000000	95.359862
1102.000000	95.364607
1101.000000	95.361178
1100.000000	95.344481
1099.000000	95.311027
1098.000000	95.263170
1097.000000	95.208535
1096.000000	95.155582
1095.000000	95.109649
1094.000000	95.071312
1093.000000	95.037069
1092.000000	95.003344
1091.000000	94.970953
1090.000000	94.944883
1089.000000	94.928578
1088.000000	94.919743
1087.000000	94.913164
1086.000000	94.906559
1085.000000	94.903173
1084.000000	94.908813
1083.000000	94.927368
1082.000000	94.959403
1081.000000	95.003390
1080.000000	95.057936
1079.000000	95.122232
1078.000000	95.194952
1077.000000	95.273706
1076.000000	95.354921
1075.000000	95.434057
1074.000000	95.506067
1073.000000	95.566842
1072.000000	95.614747
1071.000000	95.651311
1070.000000	95.679525
1069.000000	95.700930
1068.000000	95.715368
1067.000000	95.723690
1066.000000	95.729722
1065.000000	95.737291
1064.000000	95.746037
1063.000000	95.752445
1062.000000	95.755037
1061.000000	95.756942
1060.000000	95.762659
1059.000000	95.774027
1058.000000	95.790283
1057.000000	95.810915
1056.000000	95.836584
1055.000000	95.867105
1054.000000	95.899645
1053.000000	95.929755
1052.000000	95.954615
1051.000000	95.975214
1050.000000	95.994908
1049.000000	96.015414
1048.000000	96.035237
1047.000000	96.052437
1046.000000	96.067323
1045.000000	96.080450
1044.000000	96.088826
1043.000000	96.087251
1042.000000	96.073734
1041.000000	96.051589
1040.000000	96.025045
1039.000000	95.993991
1038.000000	95.954418
1037.000000	95.902417
1036.000000	95.837779
1035.000000	95.765563
1034.000000	95.695103
1033.000000	95.635799
1032.000000	95.592145
1031.000000	95.563388
1030.000000	95.548232
1029.000000	95.549130
1028.000000	95.569485
1027.000000	95.607528
1026.000000	95.655614
1025.000000	95.706032
1024.000000	95.756226
1023.000000	95.807249
1022.000000	95.859780
1021.000000	95.912727
1020.000000	95.963691
1019.000000	96.009381
1018.000000	96.047339
1017.000000	96.079069
1016.000000	96.110249
1015.000000	96.146243
1014.000000	96.187942
1013.000000	96.233250
1012.000000	96.281798
1011.000000	96.336153
1010.000000	96.398012
1009.000000	96.464777
1008.000000	96.530699
1007.000000	96.591449
1006.000000	96.647559
1005.000000	96.703336
1004.000000	96.762364
1003.000000	96.823886
1002.000000	96.883622
1001.000000	96.937442
1000.000000	96.984239
999.000000	97.025946
998.000000	97.065510
997.000000	97.104379
996.000000	97.141056
995.000000	97.172786
994.000000	97.199156
993.000000	97.223375
992.000000	97.249248
991.000000	97.277365
990.000000	97.304871
989.000000	97.328181
988.000000	97.345039
987.000000	97.355107
986.000000	97.360091
985.000000	97.363134
984.000000	97.366561
983.000000	97.369976
982.000000	97.371464
981.000000	97.370269
980.000000	97.367423
979.000000	97.363466
978.000000	97.356526
977.000000	97.343480
976.000000	97.322867
975.000000	97.297043
974.000000	97.271944
973.000000	97.254734
972.000000	97.250465
971.000000	97.259568
970.000000	97.277599
969.000000	97.297890
968.000000	97.315922
967.000000	97.332253
966.000000	97.352015
965.000000	97.380066
964.000000	97.415431
963.000000	97.451105
962.000000	97.480800
961.000000	97.506061
960.000000	97.534541
959.000000	97.570746
958.000000	97.611076
957.000000	97.649301
956.000000	97.684674
955.000000	97.721196
954.000000	97.760232
953.000000	97.798277
952.000000	97.832618
951.000000	97.865051
950.000000	97.897101
949.000000	97.925054
948.000000	97.943670
947.000000	97.953817
946.000000	97.962002
945.000000	97.971968
944.000000	97.981197
943.000000	97.986661
942.000000	97.990412
941.000000	97.996765
940.000000	98.006633
939.000000	98.017422
938.000000	98.026861
937.000000	98.035185
936.000000	98.045231
935.000000	98.062171
934.000000	98.090331
933.000000	98.127338
932.000000	98.163168
931.000000	98.188424
930.000000	98.202298
929.000000	98.210005
928.000000	98.214775
927.000000	98.217017
926.000000	98.219872
925.000000	98.229011
924.000000	98.245747
923.000000	98.265240
922.000000	98.284234
921.000000	98.306183
920.000000	98.335310
919.000000	98.368482
918.000000	98.397456
917.000000	98.418738
916.000000	98.437355
915.000000	98.460574
914.000000	98.489985
913.000000	98.520741
912.000000	98.547537
911.000000	98.569951
910.000000	98.591589
909.000000	98.614489
908.000000	98.635875
907.000000	98.651876
906.000000	98.663125
905.000000	98.673945
904.000000	98.685916
903.000000	98.695145
902.000000	98.697756
901.000000	98.696493
900.000000	98.700057
899.000000	98.715629
898.000000	98.742325
897.000000	98.771782
896.000000	98.794800
895.000000	98.808005
894.000000	98.814437
893.000000	98.818355
892.000000	98.820877
891.000000	98.820195
890.000000	98.811273
889.000000	98.781801
888.000000	98.712412
887.000000	98.587373
886.000000	98.408789
885.000000	98.197245
884.000000	97.977189
883.000000	97.763161
882.000000	97.555615
881.000000	97.344439
880.000000	97.115481
879.000000	96.860660
878.000000	96.587876
877.000000	96.323356
876.000000	96.102339
875.000000	95.954388
874.000000	95.894861
873.000000	95.925588
872.000000	96.041094
871.000000	96.229591
870.000000	96.469822
869.000000	96.732535
868.000000	96.987536
867.000000	97.212780
866.000000	97.400119
865.000000	97.555195
864.000000	97.689820
863.000000	97.811982
862.000000	97.920715
861.000000	98.009573
860.000000	98.074755
859.000000	98.119984
858.000000	98.155340
857.000000	98.190925
856.000000	98.230864
855.000000	98.272802
854.000000	98.311764
853.000000	98.343343
852.000000	98.363276
851.000000	98.367847
850.000000	98.358849
849.000000	98.348017
848.000000	98.352392
847.000000	98.381460
846.000000	98.428849
845.000000	98.478637
844.000000	98.519798
843.000000	98.553380
842.000000	98.586581
841.000000	98.622947
840.000000	98.659913
839.000000	98.693150
838.000000	98.719683
837.000000	98.736932
836.000000	98.742903
835.000000	98.740227
834.000000	98.737626
833.000000	98.743180
832.000000	98.755775
831.000000	98.766484
830.000000	98.769443
829.000000	98.768597
828.000000	98.771896
827.000000	98.781314
826.000000	98.791837
825.000000	98.798579
824.000000	98.800460
823.000000	98.797254
822.000000	98.788342
821.000000	98.776448
820.000000	98.768368
819.000000	98.768560
818.000000	98.774120
817.000000	98.778969
816.000000	98.780854
815.000000	98.781264
814.000000	98.780781
813.000000	98.779495
812.000000	98.781269
811.000000	98.791019
810.000000	98.805376
809.000000	98.811759
808.000000	98.802178
807.000000	98.784937
806.000000	98.776881
805.000000	98.784332
804.000000	98.796746
803.000000	98.800305
802.000000	98.792836
801.000000	98.782283
800.000000	98.773637
799.000000	98.762351
798.000000	98.741566
797.000000	98.712649
796.000000	98.685914
795.000000	98.670979
794.000000	98.667836
793.000000	98.668072
792.000000	98.663393
791.000000	98.651457
790.000000	98.634668
789.000000	98.615952
788.000000	98.596703
787.000000	98.577515
786.000000	98.559971
785.000000	98.547898
784.000000	98.545951
783.000000	98.555285
782.000000	98.570964
781.000000	98.585609
780.000000	98.595328
779.000000	98.600130
778.000000	98.599927
777.000000	98.593857
776.000000	98.583184
775.000000	98.570199
774.000000	98.553472
773.000000	98.529427
772.000000	98.501335
771.000000	98.481541
770.000000	98.479709
769.000000	98.491472
768.000000	98.503188
767.000000	98.506155
766.000000	98.502114
765.000000	98.496430
764.000000	98.490868
763.000000	98.483393
762.000000	98.470881
761.000000	98.450739
760.000000	98.422686
759.000000	98.390718
758.000000	98.361679
757.000000	98.339910
756.000000	98.323275
755.000000	98.305572
754.000000	98.284240
753.000000	98.265633
752.000000	98.259826
751.000000	98.267916
750.000000	98.276773
749.000000	98.270943
748.000000	98.249083
747.000000	98.223574
746.000000	98.204649
745.000000	98.191587
744.000000	98.180597
743.000000	98.172699
742.000000	98.168673
741.000000	98.162957
740.000000	98.149761
739.000000	98.131497
738.000000	98.114499
737.000000	98.099196
736.000000	98.080956
735.000000	98.058946
734.000000	98.037410
733.000000	98.018509
732.000000	97.999654
731.000000	97.978011
730.000000	97.952567
729.000000	97.921393
728.000000	97.883290
727.000000	97.843712
726.000000	97.813034
725.000000	97.796111
724.000000	97.786118
723.000000	97.770122
722.000000	97.739058
721.000000	97.692567
720.000000	97.636315
719.000000	97.573342
718.000000	97.495797
717.000000	97.385403
716.000000	97.224888
715.000000	97.014774
714.000000	96.784937
713.000000	96.589910
712.000000	96.484403
711.000000	96.489505
710.000000	96.576097
709.000000	96.684983
708.000000	96.768651
707.000000	96.816689
706.000000	96.843725
705.000000	96.862242
704.000000	96.872920
703.000000	96.872425
702.000000	96.860520
701.000000	96.839848
700.000000	96.814733
699.000000	96.792219
698.000000	96.779048
697.000000	96.775734
696.000000	96.775839
695.000000	96.770434
694.000000	96.755232
693.000000	96.735871
692.000000	96.725278
691.000000	96.733069
690.000000	96.754614
689.000000	96.773065
688.000000	96.774973
687.000000	96.760981
686.000000	96.740809
685.000000	96.722256
684.000000	96.706494
683.000000	96.690067
682.000000	96.667785
681.000000	96.637517
680.000000	96.605012
679.000000	96.581352
678.000000	96.572270
677.000000	96.570305
676.000000	96.563842
675.000000	96.550466
674.000000	96.536091
673.000000	96.528071
672.000000	96.531562
671.000000	96.552780
670.000000	96.592276
669.000000	96.647558
668.000000	96.694932
667.000000	96.689894
666.000000	96.652033
665.000000	96.617459
664.000000	96.583233
663.000000	96.552055
662.000000	96.531202
661.000000	96.525375
660.000000	96.531886
659.000000	96.547069
658.000000	96.563259
657.000000	96.566597
656.000000	96.551028
655.000000	96.527341
654.000000	96.508442
653.000000	96.493871
652.000000	96.477774
651.000000	96.460693
650.000000	96.444368
649.000000	96.424978
648.000000	96.400964
647.000000	96.377929
646.000000	96.356895
645.000000	96.329552
644.000000	96.292122
643.000000	96.252627
642.000000	96.218410
641.000000	96.186601
640.000000	96.155017
639.000000	96.131236
638.000000	96.119891
637.000000	96.112832
636.000000	96.102203
635.000000	96.091747
634.000000	96.086841
633.000000	96.085005
632.000000	96.084384
631.000000	96.089168
630.000000	96.096802
629.000000	96.092884
628.000000	96.070455
627.000000	96.043586
626.000000	96.030146
625.000000	96.030573
624.000000	96.033347
623.000000	96.029518
622.000000	96.012974
621.000000	95.980789
620.000000	95.944881
619.000000	95.929201
618.000000	95.940966
617.000000	95.955421
616.000000	95.945443
615.000000	95.915337
614.000000	95.888069
613.000000	95.872420
612.000000	95.862352
611.000000	95.858328
610.000000	95.867268
609.000000	95.885966
608.000000	95.903265
607.000000	95.916244
606.000000	95.929279
605.000000	95.942149
604.000000	95.953793
603.000000	95.972829
602.000000	96.008386
601.000000	96.052607
600.000000	96.088044
599.000000	96.111982
598.000000	96.139396
597.000000	96.180325
596.000000	96.227417
595.000000	96.268555
594.000000	96.301151
593.000000	96.329597
592.000000	96.354188
591.000000	96.368498
590.000000	96.368656
589.000000	96.362088
588.000000	96.362176
587.000000	96.371887
586.000000	96.377180
585.000000	96.365596
584.000000	96.350095
583.000000	96.357729
582.000000	96.390041
581.000000	96.413318
580.000000	96.398046
579.000000	96.355234
578.000000	96.321233
577.000000	96.318241
576.000000	96.342371
575.000000	96.376568
574.000000	96.403412
573.000000	96.413953
572.000000	96.413648
571.000000	96.417244
570.000000	96.431035
569.000000	96.444944
568.000000	96.446742
567.000000	96.432112
566.000000	96.397344
565.000000	96.339839
564.000000	96.274789
563.000000	96.233637
562.000000	96.231117
561.000000	96.248164
560.000000	96.260609
559.000000	96.267194
558.000000	96.274412
557.000000	96.274677
556.000000	96.259007
555.000000	96.235703
554.000000	96.217502
553.000000	96.203308
552.000000	96.190084
551.000000	96.187445
550.000000	96.201062
549.000000	96.218475
548.000000	96.231596
547.000000	96.255507
546.000000	96.302771
545.000000	96.353980
544.000000	96.379676
543.000000	96.377376
542.000000	96.364971
541.000000	96.352805
540.000000	96.341596
539.000000	96.335916
538.000000	96.337818
537.000000	96.336800
536.000000	96.325950
535.000000	96.315001
534.000000	96.308952
533.000000	96.289257
532.000000	96.236460
531.000000	96.159492
530.000000	96.083610
529.000000	96.024552
528.000000	95.995769
527.000000	96.021755
526.000000	96.107517
525.000000	96.207341
524.000000	96.267670
523.000000	96.282275
522.000000	96.274333
521.000000	96.257917
520.000000	96.244241
519.000000	96.260903
518.000000	96.328211
517.000000	96.424144
516.000000	96.509858
515.000000	96.575308
514.000000	96.626727
513.000000	96.653857
512.000000	96.645223
511.000000	96.621872
510.000000	96.622463
509.000000	96.659209
508.000000	96.713858
507.000000	96.766742
506.000000	96.803915
505.000000	96.813218
504.000000	96.802083
503.000000	96.809226
502.000000	96.866290
501.000000	96.949954
500.000000	97.013400
499.000000	97.050601
498.000000	97.087688
497.000000	97.133445
496.000000	97.172013
495.000000	97.193237
494.000000	97.200232
493.000000	97.189484
492.000000	97.155571
491.000000	97.116584
490.000000	97.103720
489.000000	97.122434
488.000000	97.148902
487.000000	97.161250
486.000000	97.154865
485.000000	97.139078
484.000000	97.139443
483.000000	97.189394
482.000000	97.290472
481.000000	97.395015
480.000000	97.453060
479.000000	97.461853
478.000000	97.455403
477.000000	97.462739
476.000000	97.498929
475.000000	97.577748
474.000000	97.693601
473.000000	97.795644
472.000000	97.828149
471.000000	97.807767
470.000000	97.799873
469.000000	97.827042
468.000000	97.864719
467.000000	97.896072
466.000000	97.922398
465.000000	97.935255
464.000000	97.924648
463.000000	97.920109
462.000000	97.975151
461.000000	98.101017
460.000000	98.259279
459.000000	98.409314
458.000000	98.511164
457.000000	98.526256
456.000000	98.473491
455.000000	98.443578
454.000000	98.490656
453.000000	98.604364
452.000000	98.718925
451.000000	98.783165
450.000000	98.821273
