PE IR       SUBTECH     SPECTRUM    ASCII       PEDS        4.00        
   -1
3C-XXX-F010_1.ASC
23/09/07
10:44:27.00
23/09/07
11:30:09.00
uco
Sample 010 By uco Date Thursday, September 07 2023
450.000000
#HDR
-1
-1
#GR
cm-1
%T
1.0
0.0
4000.000000
-1.000000
3551
8
98.981408
88.611382
#DATA
4000.000000	98.828060
3999.000000	98.824220
3998.000000	98.820282
3997.000000	98.817800
3996.000000	98.817701
3995.000000	98.819682
3994.000000	98.822355
3993.000000	98.824068
3992.000000	98.823684
3991.000000	98.820843
3990.000000	98.815908
3989.000000	98.809922
3988.000000	98.804532
3987.000000	98.801389
3986.000000	98.801181
3985.000000	98.803225
3984.000000	98.806186
3983.000000	98.809213
3982.000000	98.812142
3981.000000	98.814708
3980.000000	98.815988
3979.000000	98.814848
3978.000000	98.810853
3977.000000	98.804725
3976.000000	98.798113
3975.000000	98.793004
3974.000000	98.790977
3973.000000	98.792460
3972.000000	98.796506
3971.000000	98.801392
3970.000000	98.805677
3969.000000	98.808796
3968.000000	98.810882
3967.000000	98.812235
3966.000000	98.812825
3965.000000	98.812081
3964.000000	98.809226
3963.000000	98.804277
3962.000000	98.798860
3961.000000	98.795462
3960.000000	98.795327
3959.000000	98.797171
3958.000000	98.798268
3957.000000	98.796816
3956.000000	98.793322
3955.000000	98.789920
3954.000000	98.788487
3953.000000	98.789497
3952.000000	98.792228
3951.000000	98.795601
3950.000000	98.798780
3949.000000	98.801198
3948.000000	98.802341
3947.000000	98.801542
3946.000000	98.798059
3945.000000	98.791585
3944.000000	98.783620
3943.000000	98.778164
3942.000000	98.778928
3941.000000	98.785433
3940.000000	98.793141
3939.000000	98.797133
3938.000000	98.795479
3937.000000	98.789765
3936.000000	98.783102
3935.000000	98.778331
3934.000000	98.777616
3933.000000	98.782654
3932.000000	98.793422
3931.000000	98.806435
3930.000000	98.816326
3929.000000	98.819653
3928.000000	98.816584
3927.000000	98.809477
3926.000000	98.801291
3925.000000	98.795047
3924.000000	98.792423
3923.000000	98.792715
3922.000000	98.794241
3921.000000	98.795746
3920.000000	98.796022
3919.000000	98.793319
3918.000000	98.787029
3917.000000	98.779806
3916.000000	98.775790
3915.000000	98.775894
3914.000000	98.776820
3913.000000	98.774713
3912.000000	98.768807
3911.000000	98.761484
3910.000000	98.755616
3909.000000	98.752469
3908.000000	98.751591
3907.000000	98.751819
3906.000000	98.752381
3905.000000	98.754738
3904.000000	98.762320
3903.000000	98.776130
3902.000000	98.791672
3901.000000	98.802175
3900.000000	98.804662
3899.000000	98.801706
3898.000000	98.797562
3897.000000	98.794088
3896.000000	98.790963
3895.000000	98.787293
3894.000000	98.782206
3893.000000	98.775378
3892.000000	98.769068
3891.000000	98.767003
3890.000000	98.769778
3889.000000	98.774749
3888.000000	98.778171
3887.000000	98.777802
3886.000000	98.776402
3885.000000	98.778131
3884.000000	98.781750
3883.000000	98.782303
3882.000000	98.776820
3881.000000	98.768521
3880.000000	98.764258
3879.000000	98.765955
3878.000000	98.769565
3877.000000	98.770435
3876.000000	98.766457
3875.000000	98.760408
3874.000000	98.758354
3873.000000	98.762529
3872.000000	98.768235
3871.000000	98.770947
3870.000000	98.773918
3869.000000	98.781748
3868.000000	98.791694
3867.000000	98.797172
3866.000000	98.795208
3865.000000	98.789655
3864.000000	98.787138
3863.000000	98.789033
3862.000000	98.791372
3861.000000	98.790350
3860.000000	98.785141
3859.000000	98.777302
3858.000000	98.769375
3857.000000	98.763095
3856.000000	98.757219
3855.000000	98.747350
3854.000000	98.737679
3853.000000	98.740896
3852.000000	98.754356
3851.000000	98.765362
3850.000000	98.769584
3849.000000	98.770022
3848.000000	98.770754
3847.000000	98.772738
3846.000000	98.773478
3845.000000	98.769895
3844.000000	98.762629
3843.000000	98.757129
3842.000000	98.758905
3841.000000	98.767738
3840.000000	98.778000
3839.000000	98.784254
3838.000000	98.785391
3837.000000	98.783964
3836.000000	98.782985
3835.000000	98.783491
3834.000000	98.784219
3833.000000	98.783562
3832.000000	98.781755
3831.000000	98.780126
3830.000000	98.779055
3829.000000	98.777128
3828.000000	98.772615
3827.000000	98.766092
3826.000000	98.760428
3825.000000	98.757401
3824.000000	98.755425
3823.000000	98.750218
3822.000000	98.741170
3821.000000	98.735919
3820.000000	98.738755
3819.000000	98.744966
3818.000000	98.748867
3817.000000	98.750087
3816.000000	98.754097
3815.000000	98.762190
3814.000000	98.767746
3813.000000	98.766173
3812.000000	98.760002
3811.000000	98.755609
3810.000000	98.757065
3809.000000	98.762432
3808.000000	98.767405
3807.000000	98.771468
3806.000000	98.776362
3805.000000	98.781600
3804.000000	98.784037
3803.000000	98.780644
3802.000000	98.775756
3801.000000	98.777110
3800.000000	98.781988
3799.000000	98.782177
3798.000000	98.774509
3797.000000	98.762861
3796.000000	98.754173
3795.000000	98.751329
3794.000000	98.751761
3793.000000	98.752520
3792.000000	98.753886
3791.000000	98.758050
3790.000000	98.766046
3789.000000	98.776180
3788.000000	98.784963
3787.000000	98.789038
3786.000000	98.787159
3785.000000	98.781154
3784.000000	98.774497
3783.000000	98.769531
3782.000000	98.766604
3781.000000	98.765322
3780.000000	98.766098
3779.000000	98.769176
3778.000000	98.772286
3777.000000	98.772493
3776.000000	98.769724
3775.000000	98.767007
3774.000000	98.767191
3773.000000	98.769154
3772.000000	98.768178
3771.000000	98.761873
3770.000000	98.754922
3769.000000	98.754434
3768.000000	98.762006
3767.000000	98.773277
3766.000000	98.783028
3765.000000	98.788267
3764.000000	98.788013
3763.000000	98.782438
3762.000000	98.773215
3761.000000	98.763979
3760.000000	98.758772
3759.000000	98.758382
3758.000000	98.759978
3757.000000	98.762051
3756.000000	98.765955
3755.000000	98.772562
3754.000000	98.780177
3753.000000	98.786278
3752.000000	98.789838
3751.000000	98.791185
3750.000000	98.789625
3749.000000	98.785789
3748.000000	98.784065
3747.000000	98.787343
3746.000000	98.793057
3745.000000	98.800145
3744.000000	98.809303
3743.000000	98.815007
3742.000000	98.813377
3741.000000	98.807234
3740.000000	98.802404
3739.000000	98.803982
3738.000000	98.812106
3737.000000	98.822278
3736.000000	98.830193
3735.000000	98.833327
3734.000000	98.830451
3733.000000	98.823806
3732.000000	98.818450
3731.000000	98.817682
3730.000000	98.821069
3729.000000	98.826269
3728.000000	98.831159
3727.000000	98.834899
3726.000000	98.836284
3725.000000	98.832704
3724.000000	98.823607
3723.000000	98.812701
3722.000000	98.804486
3721.000000	98.800054
3720.000000	98.797695
3719.000000	98.796168
3718.000000	98.796068
3717.000000	98.798559
3716.000000	98.803528
3715.000000	98.809287
3714.000000	98.813402
3713.000000	98.814224
3712.000000	98.812763
3711.000000	98.811402
3710.000000	98.810324
3709.000000	98.808411
3708.000000	98.805750
3707.000000	98.803708
3706.000000	98.803431
3705.000000	98.804328
3704.000000	98.804240
3703.000000	98.802020
3702.000000	98.800645
3701.000000	98.804932
3700.000000	98.815092
3699.000000	98.825319
3698.000000	98.829140
3697.000000	98.824891
3696.000000	98.816129
3695.000000	98.807236
3694.000000	98.800341
3693.000000	98.796023
3692.000000	98.794443
3691.000000	98.795048
3690.000000	98.796929
3689.000000	98.799398
3688.000000	98.800716
3687.000000	98.799421
3686.000000	98.795866
3685.000000	98.791143
3684.000000	98.786716
3683.000000	98.783912
3682.000000	98.781877
3681.000000	98.778069
3680.000000	98.772076
3679.000000	98.766303
3678.000000	98.761593
3677.000000	98.755328
3676.000000	98.750889
3675.000000	98.756049
3674.000000	98.768464
3673.000000	98.780204
3672.000000	98.785781
3671.000000	98.783948
3670.000000	98.779468
3669.000000	98.775121
3668.000000	98.767455
3667.000000	98.754574
3666.000000	98.739208
3665.000000	98.725991
3664.000000	98.718190
3663.000000	98.715658
3662.000000	98.715878
3661.000000	98.717242
3660.000000	98.720219
3659.000000	98.725163
3658.000000	98.729780
3657.000000	98.731091
3656.000000	98.729053
3655.000000	98.725658
3654.000000	98.722530
3653.000000	98.719347
3652.000000	98.713296
3651.000000	98.701210
3650.000000	98.685214
3649.000000	98.672779
3648.000000	98.667744
3647.000000	98.666989
3646.000000	98.665913
3645.000000	98.662155
3644.000000	98.656020
3643.000000	98.650105
3642.000000	98.647522
3641.000000	98.648974
3640.000000	98.651801
3639.000000	98.652991
3638.000000	98.652048
3637.000000	98.649925
3636.000000	98.646504
3635.000000	98.641071
3634.000000	98.635014
3633.000000	98.631526
3632.000000	98.632320
3631.000000	98.634781
3630.000000	98.634934
3629.000000	98.634768
3628.000000	98.635486
3627.000000	98.631808
3626.000000	98.620979
3625.000000	98.605545
3624.000000	98.590318
3623.000000	98.579470
3622.000000	98.573919
3621.000000	98.571028
3620.000000	98.567150
3619.000000	98.560544
3618.000000	98.551864
3617.000000	98.543328
3616.000000	98.536518
3615.000000	98.530340
3614.000000	98.522385
3613.000000	98.511688
3612.000000	98.499499
3611.000000	98.487731
3610.000000	98.477474
3609.000000	98.469730
3608.000000	98.465654
3607.000000	98.464336
3606.000000	98.463032
3605.000000	98.460475
3604.000000	98.457764
3603.000000	98.455973
3602.000000	98.454020
3601.000000	98.449661
3600.000000	98.441750
3599.000000	98.430874
3598.000000	98.417971
3597.000000	98.403030
3596.000000	98.385564
3595.000000	98.366789
3594.000000	98.350483
3593.000000	98.340506
3592.000000	98.337930
3591.000000	98.340351
3590.000000	98.342615
3589.000000	98.339430
3588.000000	98.330320
3587.000000	98.320099
3586.000000	98.312226
3585.000000	98.306021
3584.000000	98.299230
3583.000000	98.289738
3582.000000	98.276537
3581.000000	98.261024
3580.000000	98.246971
3579.000000	98.237613
3578.000000	98.232668
3577.000000	98.228781
3576.000000	98.222548
3575.000000	98.212528
3574.000000	98.199068
3573.000000	98.183841
3572.000000	98.170002
3571.000000	98.161140
3570.000000	98.157962
3569.000000	98.155875
3568.000000	98.148134
3567.000000	98.132990
3566.000000	98.115164
3565.000000	98.100039
3564.000000	98.088967
3563.000000	98.079650
3562.000000	98.069273
3561.000000	98.057129
3560.000000	98.044688
3559.000000	98.033373
3558.000000	98.022960
3557.000000	98.012445
3556.000000	98.001438
3555.000000	97.990110
3554.000000	97.978689
3553.000000	97.967858
3552.000000	97.958770
3551.000000	97.951618
3550.000000	97.945014
3549.000000	97.937427
3548.000000	97.928741
3547.000000	97.920133
3546.000000	97.912521
3545.000000	97.905486
3544.000000	97.898013
3543.000000	97.889409
3542.000000	97.879337
3541.000000	97.867964
3540.000000	97.855910
3539.000000	97.843360
3538.000000	97.829362
3537.000000	97.812989
3536.000000	97.794931
3535.000000	97.776970
3534.000000	97.760270
3533.000000	97.745302
3532.000000	97.733018
3531.000000	97.724462
3530.000000	97.719129
3529.000000	97.715142
3528.000000	97.711620
3527.000000	97.709294
3526.000000	97.708001
3525.000000	97.705092
3524.000000	97.697539
3523.000000	97.684927
3522.000000	97.669469
3521.000000	97.653819
3520.000000	97.639728
3519.000000	97.628048
3518.000000	97.618543
3517.000000	97.609516
3516.000000	97.598818
3515.000000	97.585802
3514.000000	97.571928
3513.000000	97.559172
3512.000000	97.548318
3511.000000	97.539199
3510.000000	97.532146
3509.000000	97.528241
3508.000000	97.527674
3507.000000	97.528414
3506.000000	97.527103
3505.000000	97.521408
3504.000000	97.511767
3503.000000	97.500644
3502.000000	97.489887
3501.000000	97.479308
3500.000000	97.467678
3499.000000	97.454297
3498.000000	97.439734
3497.000000	97.425670
3496.000000	97.413565
3495.000000	97.402998
3494.000000	97.391813
3493.000000	97.378536
3492.000000	97.364217
3491.000000	97.351308
3490.000000	97.341177
3489.000000	97.333389
3488.000000	97.327012
3487.000000	97.321466
3486.000000	97.316030
3485.000000	97.309666
3484.000000	97.301794
3483.000000	97.292822
3482.000000	97.283733
3481.000000	97.275454
3480.000000	97.268596
3479.000000	97.263104
3478.000000	97.257929
3477.000000	97.251686
3476.000000	97.243978
3475.000000	97.235637
3474.000000	97.227366
3473.000000	97.218748
3472.000000	97.209001
3471.000000	97.198344
3470.000000	97.188174
3469.000000	97.180016
3468.000000	97.174256
3467.000000	97.169526
3466.000000	97.163497
3465.000000	97.155019
3464.000000	97.145711
3463.000000	97.138771
3462.000000	97.135629
3461.000000	97.134004
3460.000000	97.129687
3459.000000	97.120179
3458.000000	97.106601
3457.000000	97.092660
3456.000000	97.082017
3455.000000	97.075880
3454.000000	97.072652
3453.000000	97.070132
3452.000000	97.068003
3451.000000	97.067496
3450.000000	97.068566
3449.000000	97.068553
3448.000000	97.064468
3447.000000	97.055960
3446.000000	97.044826
3445.000000	97.032127
3444.000000	97.017554
3443.000000	97.001802
3442.000000	96.988053
3441.000000	96.979863
3440.000000	96.977768
3439.000000	96.978699
3438.000000	96.978653
3437.000000	96.975600
3436.000000	96.969879
3435.000000	96.962521
3434.000000	96.953964
3433.000000	96.944444
3432.000000	96.934850
3431.000000	96.926344
3430.000000	96.919359
3429.000000	96.913472
3428.000000	96.908125
3427.000000	96.902835
3426.000000	96.896868
3425.000000	96.889514
3424.000000	96.880801
3423.000000	96.871312
3422.000000	96.861108
3421.000000	96.849537
3420.000000	96.836600
3419.000000	96.823985
3418.000000	96.813983
3417.000000	96.807310
3416.000000	96.802343
3415.000000	96.796540
3414.000000	96.788486
3413.000000	96.778552
3412.000000	96.767757
3411.000000	96.756591
3410.000000	96.745423
3409.000000	96.735636
3408.000000	96.729162
3407.000000	96.726363
3406.000000	96.725043
3405.000000	96.722225
3404.000000	96.716541
3403.000000	96.708531
3402.000000	96.699317
3401.000000	96.689827
3400.000000	96.680791
3399.000000	96.672340
3398.000000	96.663588
3397.000000	96.653435
3396.000000	96.641853
3395.000000	96.629770
3394.000000	96.617841
3393.000000	96.606256
3392.000000	96.595780
3391.000000	96.587783
3390.000000	96.582597
3389.000000	96.578528
3388.000000	96.573167
3387.000000	96.565496
3386.000000	96.556433
3385.000000	96.547438
3384.000000	96.538955
3383.000000	96.530275
3382.000000	96.520780
3381.000000	96.511033
3380.000000	96.502338
3379.000000	96.495069
3378.000000	96.487884
3377.000000	96.478955
3376.000000	96.467722
3375.000000	96.455055
3374.000000	96.442015
3373.000000	96.429169
3372.000000	96.417043
3371.000000	96.406367
3370.000000	96.397428
3369.000000	96.389461
3368.000000	96.380987
3367.000000	96.370731
3366.000000	96.358403
3365.000000	96.345013
3364.000000	96.332314
3363.000000	96.321275
3362.000000	96.310947
3361.000000	96.299332
3360.000000	96.285648
3359.000000	96.271299
3358.000000	96.258256
3357.000000	96.246735
3356.000000	96.234866
3355.000000	96.220630
3354.000000	96.203925
3353.000000	96.186639
3352.000000	96.170812
3351.000000	96.156846
3350.000000	96.143536
3349.000000	96.129499
3348.000000	96.114135
3347.000000	96.097325
3346.000000	96.078983
3345.000000	96.059517
3344.000000	96.040411
3343.000000	96.023722
3342.000000	96.010818
3341.000000	96.001508
3340.000000	95.993936
3339.000000	95.985252
3338.000000	95.973248
3337.000000	95.958044
3336.000000	95.941824
3335.000000	95.926413
3334.000000	95.911599
3333.000000	95.896375
3332.000000	95.880930
3331.000000	95.866279
3330.000000	95.852512
3329.000000	95.838614
3328.000000	95.823805
3327.000000	95.807922
3326.000000	95.790619
3325.000000	95.771550
3324.000000	95.751739
3323.000000	95.733680
3322.000000	95.719440
3321.000000	95.709305
3320.000000	95.702296
3319.000000	95.697065
3318.000000	95.691979
3317.000000	95.685292
3316.000000	95.676151
3315.000000	95.665175
3314.000000	95.653669
3313.000000	95.642553
3312.000000	95.632022
3311.000000	95.621527
3310.000000	95.609943
3309.000000	95.596547
3308.000000	95.582306
3307.000000	95.569549
3306.000000	95.559724
3305.000000	95.551778
3304.000000	95.542984
3303.000000	95.531111
3302.000000	95.515894
3301.000000	95.499268
3300.000000	95.484578
3299.000000	95.474681
3298.000000	95.469776
3297.000000	95.467075
3296.000000	95.463177
3295.000000	95.456921
3294.000000	95.449776
3293.000000	95.443840
3292.000000	95.439878
3291.000000	95.437063
3290.000000	95.434083
3289.000000	95.430241
3288.000000	95.425604
3287.000000	95.420446
3286.000000	95.415148
3285.000000	95.410900
3284.000000	95.409617
3283.000000	95.411966
3282.000000	95.415524
3281.000000	95.416362
3280.000000	95.413228
3279.000000	95.409126
3278.000000	95.408028
3277.000000	95.410853
3276.000000	95.415821
3275.000000	95.422197
3274.000000	95.431431
3273.000000	95.444075
3272.000000	95.457174
3271.000000	95.466179
3270.000000	95.469212
3269.000000	95.468438
3268.000000	95.467590
3267.000000	95.469218
3266.000000	95.474275
3265.000000	95.482900
3264.000000	95.494302
3263.000000	95.506380
3262.000000	95.516901
3261.000000	95.525502
3260.000000	95.533797
3259.000000	95.543141
3258.000000	95.553157
3257.000000	95.563177
3256.000000	95.574233
3255.000000	95.588200
3254.000000	95.604822
3253.000000	95.620932
3252.000000	95.633364
3251.000000	95.641856
3250.000000	95.648475
3249.000000	95.654832
3248.000000	95.660995
3247.000000	95.666813
3246.000000	95.672987
3245.000000	95.680274
3244.000000	95.688435
3243.000000	95.696765
3242.000000	95.705083
3241.000000	95.713309
3240.000000	95.720634
3239.000000	95.726533
3238.000000	95.732697
3237.000000	95.742443
3236.000000	95.757146
3235.000000	95.774120
3234.000000	95.789228
3233.000000	95.800925
3232.000000	95.810618
3231.000000	95.819437
3230.000000	95.826408
3229.000000	95.830210
3228.000000	95.831308
3227.000000	95.831602
3226.000000	95.832857
3225.000000	95.836317
3224.000000	95.842959
3223.000000	95.852914
3222.000000	95.864847
3221.000000	95.876691
3220.000000	95.887006
3219.000000	95.895280
3218.000000	95.901331
3217.000000	95.905240
3216.000000	95.907864
3215.000000	95.910722
3214.000000	95.914993
3213.000000	95.920668
3212.000000	95.926505
3211.000000	95.930839
3210.000000	95.933048
3209.000000	95.934671
3208.000000	95.938690
3207.000000	95.947081
3206.000000	95.959152
3205.000000	95.972436
3204.000000	95.984663
3203.000000	95.994643
3202.000000	96.002097
3201.000000	96.007607
3200.000000	96.012447
3199.000000	96.017630
3198.000000	96.023282
3197.000000	96.029408
3196.000000	96.036653
3195.000000	96.045357
3194.000000	96.054444
3193.000000	96.062621
3192.000000	96.070735
3191.000000	96.081522
3190.000000	96.096453
3189.000000	96.113632
3188.000000	96.129301
3187.000000	96.140899
3186.000000	96.148511
3185.000000	96.154264
3184.000000	96.160877
3183.000000	96.170297
3182.000000	96.182901
3181.000000	96.197678
3180.000000	96.212936
3179.000000	96.226550
3178.000000	96.236381
3177.000000	96.241878
3176.000000	96.245614
3175.000000	96.252014
3174.000000	96.263500
3173.000000	96.278213
3172.000000	96.291946
3171.000000	96.302138
3170.000000	96.309674
3169.000000	96.317274
3168.000000	96.326731
3167.000000	96.337560
3166.000000	96.347926
3165.000000	96.356847
3164.000000	96.365580
3163.000000	96.376570
3162.000000	96.390918
3161.000000	96.407337
3160.000000	96.423818
3159.000000	96.439625
3158.000000	96.454960
3157.000000	96.468962
3156.000000	96.479248
3155.000000	96.484288
3154.000000	96.486107
3153.000000	96.489815
3152.000000	96.499496
3151.000000	96.514325
3150.000000	96.529328
3149.000000	96.540481
3148.000000	96.548571
3147.000000	96.557425
3146.000000	96.569064
3145.000000	96.581855
3144.000000	96.593207
3143.000000	96.602445
3142.000000	96.610482
3141.000000	96.618115
3140.000000	96.625884
3139.000000	96.634693
3138.000000	96.644957
3137.000000	96.655174
3136.000000	96.662409
3135.000000	96.664673
3134.000000	96.662662
3133.000000	96.659350
3132.000000	96.658273
3131.000000	96.661642
3130.000000	96.669141
3129.000000	96.678293
3128.000000	96.686597
3127.000000	96.693653
3126.000000	96.700978
3125.000000	96.709718
3124.000000	96.718957
3123.000000	96.726394
3122.000000	96.730431
3121.000000	96.731603
3120.000000	96.732157
3119.000000	96.734210
3118.000000	96.738019
3117.000000	96.742106
3116.000000	96.745161
3115.000000	96.747434
3114.000000	96.749680
3113.000000	96.751099
3112.000000	96.749541
3111.000000	96.744155
3110.000000	96.737178
3109.000000	96.732344
3108.000000	96.731490
3107.000000	96.733011
3106.000000	96.733495
3105.000000	96.730771
3104.000000	96.725575
3103.000000	96.720537
3102.000000	96.717486
3101.000000	96.715783
3100.000000	96.713523
3099.000000	96.710279
3098.000000	96.707864
3097.000000	96.707934
3096.000000	96.709506
3095.000000	96.709672
3094.000000	96.706513
3093.000000	96.700470
3092.000000	96.693085
3091.000000	96.685640
3090.000000	96.679233
3089.000000	96.674796
3088.000000	96.672007
3087.000000	96.668969
3086.000000	96.664060
3085.000000	96.657782
3084.000000	96.651942
3083.000000	96.647367
3082.000000	96.643477
3081.000000	96.639895
3080.000000	96.637179
3079.000000	96.635591
3078.000000	96.634088
3077.000000	96.631138
3076.000000	96.626125
3075.000000	96.619820
3074.000000	96.614024
3073.000000	96.610782
3072.000000	96.611186
3071.000000	96.614597
3070.000000	96.619531
3069.000000	96.625159
3068.000000	96.631109
3067.000000	96.635998
3066.000000	96.637712
3065.000000	96.635914
3064.000000	96.633059
3063.000000	96.632125
3062.000000	96.634372
3061.000000	96.639863
3060.000000	96.648560
3059.000000	96.659455
3058.000000	96.669872
3057.000000	96.677618
3056.000000	96.683596
3055.000000	96.690716
3054.000000	96.700270
3053.000000	96.710636
3052.000000	96.719382
3051.000000	96.725386
3050.000000	96.729163
3049.000000	96.732570
3048.000000	96.738116
3047.000000	96.747012
3046.000000	96.757617
3045.000000	96.767082
3044.000000	96.774901
3043.000000	96.783536
3042.000000	96.795006
3041.000000	96.807975
3040.000000	96.819155
3039.000000	96.826835
3038.000000	96.832309
3037.000000	96.838411
3036.000000	96.847328
3035.000000	96.859219
3034.000000	96.871979
3033.000000	96.882570
3032.000000	96.889290
3031.000000	96.892978
3030.000000	96.895916
3029.000000	96.899889
3028.000000	96.905513
3027.000000	96.912653
3026.000000	96.920753
3025.000000	96.928909
3024.000000	96.936229
3023.000000	96.942364
3022.000000	96.947721
3021.000000	96.953234
3020.000000	96.959705
3019.000000	96.966940
3018.000000	96.973649
3017.000000	96.978731
3016.000000	96.982585
3015.000000	96.986416
3014.000000	96.990075
3013.000000	96.991466
3012.000000	96.988570
3011.000000	96.981588
3010.000000	96.972652
3009.000000	96.963877
3008.000000	96.956197
3007.000000	96.949626
3006.000000	96.943912
3005.000000	96.938736
3004.000000	96.933456
3003.000000	96.926864
3002.000000	96.917517
3001.000000	96.904833
3000.000000	96.889901
2999.000000	96.874793
2998.000000	96.860851
2997.000000	96.847851
2996.000000	96.834800
2995.000000	96.821010
2994.000000	96.806027
2993.000000	96.788996
2992.000000	96.768684
2991.000000	96.744156
2990.000000	96.715310
2989.000000	96.682774
2988.000000	96.647524
2987.000000	96.610619
2986.000000	96.573160
2985.000000	96.536244
2984.000000	96.500334
2983.000000	96.464371
2982.000000	96.425817
2981.000000	96.382089
2980.000000	96.332318
2979.000000	96.277752
2978.000000	96.220778
2977.000000	96.163425
2976.000000	96.105871
2975.000000	96.046003
2974.000000	95.981050
2973.000000	95.910578
2972.000000	95.837392
2971.000000	95.764638
2970.000000	95.692580
2969.000000	95.619145
2968.000000	95.543174
2967.000000	95.465713
2966.000000	95.388497
2965.000000	95.313161
2964.000000	95.242478
2963.000000	95.180577
2962.000000	95.130253
2961.000000	95.090921
2960.000000	95.060501
2959.000000	95.038989
2958.000000	95.029027
2957.000000	95.032722
2956.000000	95.048998
2955.000000	95.074189
2954.000000	95.104739
2953.000000	95.138745
2952.000000	95.175043
2951.000000	95.211373
2950.000000	95.243439
2949.000000	95.265937
2948.000000	95.274388
2947.000000	95.266592
2946.000000	95.243171
2945.000000	95.207217
2944.000000	95.162960
2943.000000	95.113297
2942.000000	95.058172
2941.000000	94.995335
2940.000000	94.923059
2939.000000	94.842086
2938.000000	94.755408
2937.000000	94.667113
2936.000000	94.581207
2935.000000	94.500696
2934.000000	94.427032
2933.000000	94.360700
2932.000000	94.302310
2931.000000	94.252386
2930.000000	94.210063
2929.000000	94.172896
2928.000000	94.139109
2927.000000	94.109801
2926.000000	94.088239
2925.000000	94.077018
2924.000000	94.076201
2923.000000	94.084193
2922.000000	94.099691
2921.000000	94.122743
2920.000000	94.154437
2919.000000	94.195848
2918.000000	94.247547
2917.000000	94.310122
2916.000000	94.384851
2915.000000	94.472779
2914.000000	94.572038
2913.000000	94.676466
2912.000000	94.778178
2911.000000	94.872488
2910.000000	94.960069
2909.000000	95.044196
2908.000000	95.126578
2907.000000	95.206126
2906.000000	95.280950
2905.000000	95.350331
2904.000000	95.414888
2903.000000	95.476125
2902.000000	95.536270
2901.000000	95.597742
2900.000000	95.661689
2899.000000	95.726735
2898.000000	95.789790
2897.000000	95.848483
2896.000000	95.902804
2895.000000	95.954351
2894.000000	96.004249
2893.000000	96.051977
2892.000000	96.096037
2891.000000	96.135477
2890.000000	96.170522
2889.000000	96.201600
2888.000000	96.227859
2887.000000	96.247036
2886.000000	96.257326
2885.000000	96.259313
2884.000000	96.255699
2883.000000	96.248838
2882.000000	96.238664
2881.000000	96.222987
2880.000000	96.199535
2879.000000	96.167846
2878.000000	96.129822
2877.000000	96.088976
2876.000000	96.048873
2875.000000	96.012075
2874.000000	95.980701
2873.000000	95.957375
2872.000000	95.944531
2871.000000	95.942178
2870.000000	95.946918
2869.000000	95.953656
2868.000000	95.958034
2867.000000	95.957344
2866.000000	95.950348
2865.000000	95.937086
2864.000000	95.918007
2863.000000	95.892497
2862.000000	95.859101
2861.000000	95.818533
2860.000000	95.775687
2859.000000	95.736905
2858.000000	95.705110
2857.000000	95.678859
2856.000000	95.656181
2855.000000	95.637817
2854.000000	95.627001
2853.000000	95.627842
2852.000000	95.644874
2851.000000	95.682810
2850.000000	95.744813
2849.000000	95.830701
2848.000000	95.936717
2847.000000	96.056233
2846.000000	96.180644
2845.000000	96.301266
2844.000000	96.411880
2843.000000	96.509958
2842.000000	96.595364
2841.000000	96.668597
2840.000000	96.731096
2839.000000	96.785851
2838.000000	96.835918
2837.000000	96.881970
2836.000000	96.922018
2835.000000	96.953938
2834.000000	96.977974
2833.000000	96.996830
2832.000000	97.013872
2831.000000	97.031291
2830.000000	97.049508
2829.000000	97.067951
2828.000000	97.086050
2827.000000	97.103389
2826.000000	97.119325
2825.000000	97.133218
2824.000000	97.145281
2823.000000	97.156603
2822.000000	97.168074
2821.000000	97.179682
2820.000000	97.190985
2819.000000	97.201633
2818.000000	97.211177
2817.000000	97.219181
2816.000000	97.226092
2815.000000	97.233367
2814.000000	97.241977
2813.000000	97.251184
2812.000000	97.259491
2811.000000	97.266632
2810.000000	97.274106
2809.000000	97.283909
2808.000000	97.297040
2807.000000	97.312796
2806.000000	97.328840
2805.000000	97.342260
2804.000000	97.351367
2803.000000	97.356627
2802.000000	97.359738
2801.000000	97.362194
2800.000000	97.365032
2799.000000	97.369209
2798.000000	97.375199
2797.000000	97.382402
2796.000000	97.389814
2795.000000	97.397250
2794.000000	97.405137
2793.000000	97.413147
2792.000000	97.419952
2791.000000	97.424636
2790.000000	97.427815
2789.000000	97.431138
2788.000000	97.436225
2787.000000	97.444137
2786.000000	97.454976
2785.000000	97.467307
2784.000000	97.478433
2783.000000	97.486062
2782.000000	97.489992
2781.000000	97.492087
2780.000000	97.494649
2779.000000	97.498812
2778.000000	97.504096
2777.000000	97.509054
2776.000000	97.512401
2775.000000	97.513910
2774.000000	97.514583
2773.000000	97.516121
2772.000000	97.520124
2771.000000	97.527337
2770.000000	97.537112
2769.000000	97.547381
2768.000000	97.555563
2767.000000	97.560099
2766.000000	97.561467
2765.000000	97.561664
2764.000000	97.562559
2763.000000	97.564640
2762.000000	97.567236
2761.000000	97.569747
2760.000000	97.572480
2759.000000	97.576240
2758.000000	97.581257
2757.000000	97.586624
2756.000000	97.590875
2755.000000	97.593366
2754.000000	97.595233
2753.000000	97.598737
2752.000000	97.605084
2751.000000	97.612710
2750.000000	97.618282
2749.000000	97.619846
2748.000000	97.618812
2747.000000	97.618405
2746.000000	97.620500
2745.000000	97.624598
2744.000000	97.629563
2743.000000	97.635190
2742.000000	97.641472
2741.000000	97.647121
2740.000000	97.649952
2739.000000	97.648957
2738.000000	97.645636
2737.000000	97.643102
2736.000000	97.643918
2735.000000	97.648602
2734.000000	97.655661
2733.000000	97.662767
2732.000000	97.668139
2731.000000	97.671363
2730.000000	97.673416
2729.000000	97.676011
2728.000000	97.680513
2727.000000	97.687048
2726.000000	97.694503
2725.000000	97.701469
2724.000000	97.707185
2723.000000	97.711538
2722.000000	97.714409
2721.000000	97.715567
2720.000000	97.715378
2719.000000	97.715168
2718.000000	97.716420
2717.000000	97.719563
2716.000000	97.723785
2715.000000	97.727976
2714.000000	97.731525
2713.000000	97.734146
2712.000000	97.735409
2711.000000	97.735050
2710.000000	97.733651
2709.000000	97.732409
2708.000000	97.732048
2707.000000	97.732589
2706.000000	97.734538
2705.000000	97.739311
2704.000000	97.747265
2703.000000	97.755673
2702.000000	97.760371
2701.000000	97.760068
2700.000000	97.757923
2699.000000	97.757997
2698.000000	97.761027
2697.000000	97.764663
2696.000000	97.766977
2695.000000	97.768231
2694.000000	97.769330
2693.000000	97.770195
2692.000000	97.770363
2691.000000	97.770253
2690.000000	97.770910
2689.000000	97.772663
2688.000000	97.774628
2687.000000	97.775730
2686.000000	97.776104
2685.000000	97.777220
2684.000000	97.780210
2683.000000	97.784070
2682.000000	97.786268
2681.000000	97.785693
2680.000000	97.784351
2679.000000	97.785206
2678.000000	97.788599
2677.000000	97.791916
2676.000000	97.792854
2675.000000	97.791942
2674.000000	97.791404
2673.000000	97.792423
2672.000000	97.794210
2671.000000	97.795213
2670.000000	97.794543
2669.000000	97.792464
2668.000000	97.790122
2667.000000	97.788764
2666.000000	97.788736
2665.000000	97.789100
2664.000000	97.788506
2663.000000	97.786644
2662.000000	97.784762
2661.000000	97.784500
2660.000000	97.785985
2659.000000	97.787237
2658.000000	97.786085
2657.000000	97.783056
2656.000000	97.782002
2655.000000	97.787067
2654.000000	97.798689
2653.000000	97.812760
2652.000000	97.823702
2651.000000	97.828431
2650.000000	97.827989
2649.000000	97.826271
2648.000000	97.827249
2647.000000	97.832539
2646.000000	97.840702
2645.000000	97.848612
2644.000000	97.853680
2643.000000	97.855306
2642.000000	97.854983
2641.000000	97.855343
2640.000000	97.858476
2639.000000	97.864420
2638.000000	97.871357
2637.000000	97.877538
2636.000000	97.882570
2635.000000	97.886482
2634.000000	97.888626
2633.000000	97.888833
2632.000000	97.889050
2631.000000	97.891998
2630.000000	97.897882
2629.000000	97.904081
2628.000000	97.908917
2627.000000	97.914349
2626.000000	97.923552
2625.000000	97.936302
2624.000000	97.948011
2623.000000	97.953500
2622.000000	97.951353
2621.000000	97.944873
2620.000000	97.939448
2619.000000	97.938834
2618.000000	97.943044
2617.000000	97.949242
2616.000000	97.954759
2615.000000	97.959562
2614.000000	97.965990
2613.000000	97.975976
2612.000000	97.988324
2611.000000	97.998754
2610.000000	98.003098
2609.000000	98.000851
2608.000000	97.995589
2607.000000	97.991807
2606.000000	97.991542
2605.000000	97.994029
2604.000000	97.997749
2603.000000	98.001972
2602.000000	98.006451
2601.000000	98.010429
2600.000000	98.012552
2599.000000	98.012019
2598.000000	98.010044
2597.000000	98.009859
2596.000000	98.014377
2595.000000	98.023423
2594.000000	98.033589
2593.000000	98.040911
2592.000000	98.043351
2591.000000	98.041287
2590.000000	98.037073
2589.000000	98.034267
2588.000000	98.035421
2587.000000	98.039598
2586.000000	98.043356
2585.000000	98.045003
2584.000000	98.046405
2583.000000	98.049435
2582.000000	98.052520
2581.000000	98.052777
2580.000000	98.050311
2579.000000	98.048160
2578.000000	98.048622
2577.000000	98.051928
2576.000000	98.057879
2575.000000	98.066150
2574.000000	98.074681
2573.000000	98.080196
2572.000000	98.081478
2571.000000	98.080858
2570.000000	98.081779
2569.000000	98.085870
2568.000000	98.092590
2567.000000	98.100122
2566.000000	98.105708
2565.000000	98.106254
2564.000000	98.100421
2563.000000	98.090778
2562.000000	98.083246
2561.000000	98.083114
2560.000000	98.090374
2559.000000	98.099390
2558.000000	98.104558
2557.000000	98.106087
2556.000000	98.108442
2555.000000	98.113240
2554.000000	98.116828
2553.000000	98.116147
2552.000000	98.113598
2551.000000	98.113198
2550.000000	98.114300
2549.000000	98.112976
2548.000000	98.108554
2547.000000	98.105089
2546.000000	98.106425
2545.000000	98.112789
2544.000000	98.122085
2543.000000	98.131328
2542.000000	98.136371
2541.000000	98.133591
2540.000000	98.123714
2539.000000	98.112307
2538.000000	98.105322
2537.000000	98.104770
2536.000000	98.108521
2535.000000	98.112746
2534.000000	98.114504
2533.000000	98.113607
2532.000000	98.112027
2531.000000	98.110306
2530.000000	98.105431
2529.000000	98.094489
2528.000000	98.079871
2527.000000	98.068019
2526.000000	98.062713
2525.000000	98.062112
2524.000000	98.062837
2523.000000	98.064121
2522.000000	98.066770
2521.000000	98.070358
2520.000000	98.073424
2519.000000	98.075486
2518.000000	98.077346
2517.000000	98.079677
2516.000000	98.081806
2515.000000	98.081815
2514.000000	98.078366
2513.000000	98.073219
2512.000000	98.071073
2511.000000	98.075240
2510.000000	98.083947
2509.000000	98.092520
2508.000000	98.098690
2507.000000	98.103789
2506.000000	98.109409
2505.000000	98.115716
2504.000000	98.123326
2503.000000	98.133898
2502.000000	98.147493
2501.000000	98.161044
2500.000000	98.170683
2499.000000	98.174663
2498.000000	98.174012
2497.000000	98.171865
2496.000000	98.172058
2495.000000	98.176106
2494.000000	98.180786
2493.000000	98.181053
2492.000000	98.176553
2491.000000	98.173287
2490.000000	98.177321
2489.000000	98.188082
2488.000000	98.199678
2487.000000	98.207962
2486.000000	98.214304
2485.000000	98.222221
2484.000000	98.231698
2483.000000	98.238354
2482.000000	98.238589
2481.000000	98.234369
2480.000000	98.231319
2479.000000	98.231809
2478.000000	98.232021
2477.000000	98.227464
2476.000000	98.219713
2475.000000	98.215483
2474.000000	98.219411
2473.000000	98.229648
2472.000000	98.240493
2471.000000	98.247866
2470.000000	98.252090
2469.000000	98.256181
2468.000000	98.261275
2467.000000	98.263798
2466.000000	98.258875
2465.000000	98.247545
2464.000000	98.238168
2463.000000	98.238166
2462.000000	98.246008
2461.000000	98.253740
2460.000000	98.255929
2459.000000	98.252996
2458.000000	98.247364
2457.000000	98.240932
2456.000000	98.236331
2455.000000	98.236487
2454.000000	98.241525
2453.000000	98.248680
2452.000000	98.255921
2451.000000	98.263132
2450.000000	98.269584
2449.000000	98.273610
2448.000000	98.275847
2447.000000	98.279653
2446.000000	98.286742
2445.000000	98.294761
2444.000000	98.300421
2443.000000	98.302585
2442.000000	98.301330
2441.000000	98.296854
2440.000000	98.291084
2439.000000	98.287706
2438.000000	98.288059
2437.000000	98.288569
2436.000000	98.284516
2435.000000	98.275460
2434.000000	98.265288
2433.000000	98.258006
2432.000000	98.255273
2431.000000	98.257235
2430.000000	98.263454
2429.000000	98.272195
2428.000000	98.279901
2427.000000	98.282921
2426.000000	98.280826
2425.000000	98.277973
2424.000000	98.280138
2423.000000	98.288308
2422.000000	98.296695
2421.000000	98.298683
2420.000000	98.294189
2419.000000	98.289406
2418.000000	98.289712
2417.000000	98.294730
2416.000000	98.300245
2415.000000	98.302528
2414.000000	98.300379
2413.000000	98.295177
2412.000000	98.290240
2411.000000	98.288834
2410.000000	98.291682
2409.000000	98.296755
2408.000000	98.301585
2407.000000	98.304849
2406.000000	98.305800
2405.000000	98.303749
2404.000000	98.299091
2403.000000	98.294298
2402.000000	98.293087
2401.000000	98.297929
2400.000000	98.307538
2399.000000	98.316765
2398.000000	98.320452
2397.000000	98.318251
2396.000000	98.314566
2395.000000	98.313256
2394.000000	98.314076
2393.000000	98.315341
2392.000000	98.317508
2391.000000	98.321777
2390.000000	98.327050
2389.000000	98.331297
2388.000000	98.334943
2387.000000	98.339611
2386.000000	98.344326
2385.000000	98.346095
2384.000000	98.344648
2383.000000	98.344128
2382.000000	98.348884
2381.000000	98.359650
2380.000000	98.373321
2379.000000	98.384435
2378.000000	98.387449
2377.000000	98.380633
2376.000000	98.368949
2375.000000	98.360502
2374.000000	98.359203
2373.000000	98.362434
2372.000000	98.365828
2371.000000	98.367316
2370.000000	98.366423
2369.000000	98.363238
2368.000000	98.358533
2367.000000	98.353606
2366.000000	98.349640
2365.000000	98.348578
2364.000000	98.352847
2363.000000	98.361084
2362.000000	98.366760
2361.000000	98.364644
2360.000000	98.356999
2359.000000	98.351302
2358.000000	98.352954
2357.000000	98.361290
2356.000000	98.369843
2355.000000	98.371417
2354.000000	98.365402
2353.000000	98.356170
2352.000000	98.347298
2351.000000	98.340766
2350.000000	98.338484
2349.000000	98.340151
2348.000000	98.343958
2347.000000	98.347571
2346.000000	98.346245
2345.000000	98.336577
2344.000000	98.324629
2343.000000	98.320150
2342.000000	98.323781
2341.000000	98.328408
2340.000000	98.327701
2339.000000	98.321255
2338.000000	98.313417
2337.000000	98.308580
2336.000000	98.308009
2335.000000	98.310937
2334.000000	98.316719
2333.000000	98.324048
2332.000000	98.328942
2331.000000	98.327930
2330.000000	98.321111
2329.000000	98.309803
2328.000000	98.291726
2327.000000	98.263234
2326.000000	98.226521
2325.000000	98.192754
2324.000000	98.175243
2323.000000	98.178940
2322.000000	98.195340
2321.000000	98.210658
2320.000000	98.217577
2319.000000	98.219123
2318.000000	98.222124
2317.000000	98.231153
2316.000000	98.246104
2315.000000	98.262442
2314.000000	98.273377
2313.000000	98.276211
2312.000000	98.275650
2311.000000	98.278649
2310.000000	98.286026
2309.000000	98.293083
2308.000000	98.297360
2307.000000	98.301306
2306.000000	98.306399
2305.000000	98.309783
2304.000000	98.308425
2303.000000	98.303165
2302.000000	98.296296
2301.000000	98.288764
2300.000000	98.282032
2299.000000	98.279936
2298.000000	98.284694
2297.000000	98.292775
2296.000000	98.296866
2295.000000	98.292795
2294.000000	98.282784
2293.000000	98.272771
2292.000000	98.267149
2291.000000	98.266379
2290.000000	98.268452
2289.000000	98.271652
2288.000000	98.274548
2287.000000	98.274159
2286.000000	98.267547
2285.000000	98.257479
2284.000000	98.253780
2283.000000	98.265004
2282.000000	98.289652
2281.000000	98.317970
2280.000000	98.340597
2279.000000	98.352327
2278.000000	98.350986
2277.000000	98.339271
2276.000000	98.326723
2275.000000	98.323084
2274.000000	98.329030
2273.000000	98.337951
2272.000000	98.346335
2271.000000	98.356786
2270.000000	98.371165
2269.000000	98.386907
2268.000000	98.400681
2267.000000	98.410132
2266.000000	98.411721
2265.000000	98.403218
2264.000000	98.389349
2263.000000	98.378955
2262.000000	98.375109
2261.000000	98.372734
2260.000000	98.366038
2259.000000	98.353948
2258.000000	98.339513
2257.000000	98.330017
2256.000000	98.335819
2255.000000	98.360731
2254.000000	98.393173
2253.000000	98.414630
2252.000000	98.418102
2251.000000	98.411623
2250.000000	98.405131
2249.000000	98.402887
2248.000000	98.407512
2247.000000	98.419540
2246.000000	98.430754
2245.000000	98.429036
2244.000000	98.414335
2243.000000	98.400763
2242.000000	98.398894
2241.000000	98.404851
2240.000000	98.410502
2239.000000	98.414942
2238.000000	98.420041
2237.000000	98.423640
2236.000000	98.424228
2235.000000	98.425989
2234.000000	98.432593
2233.000000	98.441190
2232.000000	98.447323
2231.000000	98.450133
2230.000000	98.448165
2229.000000	98.436993
2228.000000	98.417507
2227.000000	98.401485
2226.000000	98.402339
2225.000000	98.422325
2224.000000	98.451989
2223.000000	98.478894
2222.000000	98.494444
2221.000000	98.496892
2220.000000	98.491730
2219.000000	98.486513
2218.000000	98.484177
2217.000000	98.484407
2216.000000	98.489564
2215.000000	98.501958
2214.000000	98.515415
2213.000000	98.518188
2212.000000	98.507280
2211.000000	98.493369
2210.000000	98.488707
2209.000000	98.496010
2208.000000	98.510935
2207.000000	98.528889
2206.000000	98.545946
2205.000000	98.557036
2204.000000	98.556459
2203.000000	98.539892
2202.000000	98.509218
2201.000000	98.478451
2200.000000	98.467679
2199.000000	98.482329
2198.000000	98.504018
2197.000000	98.511562
2196.000000	98.506724
2195.000000	98.507031
2194.000000	98.518014
2193.000000	98.527326
2192.000000	98.524587
2191.000000	98.511675
2190.000000	98.492948
2189.000000	98.472208
2188.000000	98.460808
2187.000000	98.472143
2186.000000	98.502960
2185.000000	98.534164
2184.000000	98.555964
2183.000000	98.578986
2182.000000	98.611415
2181.000000	98.637194
2180.000000	98.629635
2179.000000	98.583357
2178.000000	98.526556
2177.000000	98.503421
2176.000000	98.539636
2175.000000	98.616695
2174.000000	98.682904
2173.000000	98.697588
2172.000000	98.662574
2171.000000	98.608434
2170.000000	98.563980
2169.000000	98.546717
2168.000000	98.563760
2167.000000	98.603395
2166.000000	98.637533
2165.000000	98.651100
2164.000000	98.659438
2163.000000	98.675613
2162.000000	98.677840
2161.000000	98.645132
2160.000000	98.613830
2159.000000	98.649611
2158.000000	98.753721
2157.000000	98.854306
2156.000000	98.899669
2155.000000	98.899400
2154.000000	98.877325
2153.000000	98.841530
2152.000000	98.800754
2151.000000	98.769817
2150.000000	98.752827
2149.000000	98.743471
2148.000000	98.742367
2147.000000	98.751465
2146.000000	98.753655
2145.000000	98.724131
2144.000000	98.665970
2143.000000	98.610989
2142.000000	98.582760
2141.000000	98.578455
2140.000000	98.586228
2139.000000	98.600016
2138.000000	98.614485
2137.000000	98.624706
2136.000000	98.635635
2135.000000	98.656069
2134.000000	98.680861
2133.000000	98.695141
2132.000000	98.695723
2131.000000	98.691283
2130.000000	98.682298
2129.000000	98.659675
2128.000000	98.624788
2127.000000	98.593697
2126.000000	98.577562
2125.000000	98.571881
2124.000000	98.568277
2123.000000	98.563346
2122.000000	98.552961
2121.000000	98.532277
2120.000000	98.507381
2119.000000	98.493597
2118.000000	98.494893
2117.000000	98.496156
2116.000000	98.482905
2115.000000	98.459177
2114.000000	98.438206
2113.000000	98.425150
2112.000000	98.416928
2111.000000	98.411283
2110.000000	98.406846
2109.000000	98.399788
2108.000000	98.389121
2107.000000	98.382023
2106.000000	98.387625
2105.000000	98.407885
2104.000000	98.437663
2103.000000	98.469116
2102.000000	98.493287
2101.000000	98.503139
2100.000000	98.499940
2099.000000	98.493451
2098.000000	98.494366
2097.000000	98.509439
2096.000000	98.540283
2095.000000	98.578046
2094.000000	98.601887
2093.000000	98.594622
2092.000000	98.561522
2091.000000	98.523857
2090.000000	98.495320
2089.000000	98.475022
2088.000000	98.461500
2087.000000	98.459469
2086.000000	98.469120
2085.000000	98.481544
2084.000000	98.489943
2083.000000	98.496079
2082.000000	98.501941
2081.000000	98.505462
2080.000000	98.507539
2079.000000	98.512123
2078.000000	98.515918
2077.000000	98.510567
2076.000000	98.498802
2075.000000	98.494635
2074.000000	98.502936
2073.000000	98.512429
2072.000000	98.515104
2071.000000	98.517206
2070.000000	98.523404
2069.000000	98.525633
2068.000000	98.518300
2067.000000	98.510837
2066.000000	98.513739
2065.000000	98.523195
2064.000000	98.529931
2063.000000	98.533591
2062.000000	98.538012
2061.000000	98.542289
2060.000000	98.545082
2059.000000	98.548944
2058.000000	98.554538
2057.000000	98.560949
2056.000000	98.574803
2055.000000	98.603416
2054.000000	98.633102
2053.000000	98.633472
2052.000000	98.595508
2051.000000	98.548403
2050.000000	98.527273
2049.000000	98.536959
2048.000000	98.559939
2047.000000	98.587682
2046.000000	98.622386
2045.000000	98.655243
2044.000000	98.666773
2043.000000	98.647480
2042.000000	98.605645
2041.000000	98.561650
2040.000000	98.539948
2039.000000	98.552397
2038.000000	98.583837
2037.000000	98.608391
2036.000000	98.626034
2035.000000	98.662982
2034.000000	98.724406
2033.000000	98.774900
2032.000000	98.786489
2031.000000	98.777597
2030.000000	98.776959
2029.000000	98.776687
2028.000000	98.751367
2027.000000	98.706620
2026.000000	98.679877
2025.000000	98.697564
2024.000000	98.747940
2023.000000	98.793030
2022.000000	98.799480
2021.000000	98.766333
2020.000000	98.728750
2019.000000	98.721426
2018.000000	98.736827
2017.000000	98.735408
2016.000000	98.700905
2015.000000	98.660983
2014.000000	98.646000
2013.000000	98.656928
2012.000000	98.680804
2011.000000	98.714047
2010.000000	98.757878
2009.000000	98.806786
2008.000000	98.852454
2007.000000	98.885863
2006.000000	98.891816
2005.000000	98.861189
2004.000000	98.811981
2003.000000	98.775034
2002.000000	98.756695
2001.000000	98.735572
2000.000000	98.696638
1999.000000	98.652736
1998.000000	98.629440
1997.000000	98.643693
1996.000000	98.695895
1995.000000	98.765311
1994.000000	98.810926
1993.000000	98.797483
1992.000000	98.734372
1991.000000	98.668957
1990.000000	98.631009
1989.000000	98.611392
1988.000000	98.596475
1987.000000	98.591087
1986.000000	98.600517
1985.000000	98.615427
1984.000000	98.624477
1983.000000	98.622624
1982.000000	98.601203
1981.000000	98.555601
1980.000000	98.511970
1979.000000	98.519557
1978.000000	98.596042
1977.000000	98.698794
1976.000000	98.772806
1975.000000	98.806093
1974.000000	98.815517
1973.000000	98.811440
1972.000000	98.798003
1971.000000	98.780990
1970.000000	98.760328
1969.000000	98.735598
1968.000000	98.724822
1967.000000	98.751394
1966.000000	98.804824
1965.000000	98.845077
1964.000000	98.854434
1963.000000	98.853044
1962.000000	98.857856
1961.000000	98.856051
1960.000000	98.830950
1959.000000	98.791113
1958.000000	98.757468
1957.000000	98.739939
1956.000000	98.737940
1955.000000	98.748301
1954.000000	98.764148
1953.000000	98.776591
1952.000000	98.783867
1951.000000	98.788392
1950.000000	98.786004
1949.000000	98.772844
1948.000000	98.760027
1947.000000	98.763042
1946.000000	98.776750
1945.000000	98.779906
1944.000000	98.766187
1943.000000	98.752606
1942.000000	98.753181
1941.000000	98.763256
1940.000000	98.775854
1939.000000	98.790206
1938.000000	98.799611
1937.000000	98.792500
1936.000000	98.771869
1935.000000	98.755889
1934.000000	98.753301
1933.000000	98.753346
1932.000000	98.745499
1931.000000	98.731509
1930.000000	98.714054
1929.000000	98.692597
1928.000000	98.674434
1927.000000	98.674554
1926.000000	98.694636
1925.000000	98.718917
1924.000000	98.736344
1923.000000	98.753140
1922.000000	98.775775
1921.000000	98.795868
1920.000000	98.800801
1919.000000	98.787053
1918.000000	98.759267
1917.000000	98.727950
1916.000000	98.706953
1915.000000	98.702808
1914.000000	98.707335
1913.000000	98.706836
1912.000000	98.700244
1911.000000	98.698906
1910.000000	98.706452
1909.000000	98.712542
1908.000000	98.711046
1907.000000	98.711070
1906.000000	98.719694
1905.000000	98.731822
1904.000000	98.742432
1903.000000	98.753451
1902.000000	98.763368
1901.000000	98.764160
1900.000000	98.754928
1899.000000	98.747149
1898.000000	98.747685
1897.000000	98.749949
1896.000000	98.748610
1895.000000	98.750501
1894.000000	98.761424
1893.000000	98.774058
1892.000000	98.778336
1891.000000	98.773142
1890.000000	98.761784
1889.000000	98.745912
1888.000000	98.730713
1887.000000	98.725973
1886.000000	98.735027
1885.000000	98.750356
1884.000000	98.764108
1883.000000	98.775768
1882.000000	98.785548
1881.000000	98.789042
1880.000000	98.784533
1879.000000	98.778845
1878.000000	98.778831
1877.000000	98.782916
1876.000000	98.787394
1875.000000	98.793262
1874.000000	98.801033
1873.000000	98.807560
1872.000000	98.813030
1871.000000	98.822951
1870.000000	98.837741
1869.000000	98.846953
1868.000000	98.840911
1867.000000	98.822505
1866.000000	98.798986
1865.000000	98.774392
1864.000000	98.754041
1863.000000	98.744386
1862.000000	98.744935
1861.000000	98.748240
1860.000000	98.751180
1859.000000	98.758565
1858.000000	98.772124
1857.000000	98.784717
1856.000000	98.790021
1855.000000	98.789542
1854.000000	98.785632
1853.000000	98.778515
1852.000000	98.769470
1851.000000	98.763490
1850.000000	98.764491
1849.000000	98.772643
1848.000000	98.787764
1847.000000	98.808602
1846.000000	98.826544
1845.000000	98.828691
1844.000000	98.816847
1843.000000	98.809302
1842.000000	98.812183
1841.000000	98.814707
1840.000000	98.810612
1839.000000	98.804525
1838.000000	98.798508
1837.000000	98.788916
1836.000000	98.779368
1835.000000	98.782455
1834.000000	98.802155
1833.000000	98.826691
1832.000000	98.841626
1831.000000	98.844895
1830.000000	98.844267
1829.000000	98.841037
1828.000000	98.830030
1827.000000	98.813001
1826.000000	98.795873
1825.000000	98.780059
1824.000000	98.765757
1823.000000	98.757899
1822.000000	98.760457
1821.000000	98.770348
1820.000000	98.781210
1819.000000	98.790626
1818.000000	98.797598
1817.000000	98.799879
1816.000000	98.799129
1815.000000	98.801104
1814.000000	98.807286
1813.000000	98.809719
1812.000000	98.801296
1811.000000	98.785938
1810.000000	98.770980
1809.000000	98.757567
1808.000000	98.745566
1807.000000	98.737637
1806.000000	98.731943
1805.000000	98.720128
1804.000000	98.699906
1803.000000	98.680182
1802.000000	98.670694
1801.000000	98.667435
1800.000000	98.660027
1799.000000	98.647539
1798.000000	98.636775
1797.000000	98.631616
1796.000000	98.631540
1795.000000	98.634998
1794.000000	98.639461
1793.000000	98.640976
1792.000000	98.642915
1791.000000	98.654191
1790.000000	98.674010
1789.000000	98.691488
1788.000000	98.700645
1787.000000	98.707128
1786.000000	98.719693
1785.000000	98.738100
1784.000000	98.754459
1783.000000	98.761492
1782.000000	98.759484
1781.000000	98.752087
1780.000000	98.746583
1779.000000	98.752555
1778.000000	98.773828
1777.000000	98.805626
1776.000000	98.838883
1775.000000	98.867886
1774.000000	98.887754
1773.000000	98.885945
1772.000000	98.856007
1771.000000	98.810352
1770.000000	98.758672
1769.000000	98.703390
1768.000000	98.655780
1767.000000	98.630321
1766.000000	98.624339
1765.000000	98.615793
1764.000000	98.585554
1763.000000	98.528432
1762.000000	98.450304
1761.000000	98.358266
1760.000000	98.255919
1759.000000	98.137878
1758.000000	97.988353
1757.000000	97.795785
1756.000000	97.576666
1755.000000	97.363522
1754.000000	97.159601
1753.000000	96.938637
1752.000000	96.679386
1751.000000	96.394127
1750.000000	96.110866
1749.000000	95.835495
1748.000000	95.571636
1747.000000	95.343940
1746.000000	95.166720
1745.000000	95.027739
1744.000000	94.920418
1743.000000	94.855013
1742.000000	94.828938
1741.000000	94.819544
1740.000000	94.826353
1739.000000	94.875460
1738.000000	94.962888
1737.000000	95.056637
1736.000000	95.151558
1735.000000	95.283504
1734.000000	95.487141
1733.000000	95.721684
1732.000000	95.934117
1731.000000	96.131253
1730.000000	96.332582
1729.000000	96.539043
1728.000000	96.741580
1727.000000	96.936319
1726.000000	97.122537
1725.000000	97.294890
1724.000000	97.455790
1723.000000	97.615331
1722.000000	97.768825
1721.000000	97.897205
1720.000000	97.993020
1719.000000	98.069901
1718.000000	98.142219
1717.000000	98.200989
1716.000000	98.234858
1715.000000	98.255006
1714.000000	98.265845
1713.000000	98.261224
1712.000000	98.245882
1711.000000	98.235056
1710.000000	98.236978
1709.000000	98.243769
1708.000000	98.237468
1707.000000	98.204824
1706.000000	98.144344
1705.000000	98.070416
1704.000000	98.003693
1703.000000	97.951582
1702.000000	97.897143
1701.000000	97.792527
1700.000000	97.637267
1699.000000	97.504071
1698.000000	97.389759
1697.000000	97.234498
1696.000000	97.038292
1695.000000	96.873821
1694.000000	96.776787
1693.000000	96.701845
1692.000000	96.610779
1691.000000	96.505355
1690.000000	96.398759
1689.000000	96.299486
1688.000000	96.212046
1687.000000	96.142886
1686.000000	96.076537
1685.000000	95.951638
1684.000000	95.755619
1683.000000	95.578573
1682.000000	95.446244
1681.000000	95.318513
1680.000000	95.189844
1679.000000	95.078569
1678.000000	94.983461
1677.000000	94.874839
1676.000000	94.728832
1675.000000	94.567418
1674.000000	94.436790
1673.000000	94.335649
1672.000000	94.229584
1671.000000	94.090140
1670.000000	93.903953
1669.000000	93.690322
1668.000000	93.495986
1667.000000	93.348643
1666.000000	93.233498
1665.000000	93.112723
1664.000000	92.957135
1663.000000	92.771779
1662.000000	92.592329
1661.000000	92.435834
1660.000000	92.294770
1659.000000	92.170956
1658.000000	92.071274
1657.000000	91.986769
1656.000000	91.900489
1655.000000	91.797454
1654.000000	91.632921
1653.000000	91.426288
1652.000000	91.307005
1651.000000	91.289963
1650.000000	91.293400
1649.000000	91.264020
1648.000000	91.186920
1647.000000	91.085590
1646.000000	91.004940
1645.000000	90.955491
1644.000000	90.923205
1643.000000	90.900288
1642.000000	90.890006
1641.000000	90.897735
1640.000000	90.919918
1639.000000	90.948752
1638.000000	90.975254
1637.000000	90.986313
1636.000000	90.975702
1635.000000	90.964579
1634.000000	90.964562
1633.000000	90.967044
1632.000000	90.971799
1631.000000	90.990529
1630.000000	91.030727
1629.000000	91.088722
1628.000000	91.160710
1627.000000	91.245044
1626.000000	91.337402
1625.000000	91.433191
1624.000000	91.536889
1623.000000	91.659329
1622.000000	91.793159
1621.000000	91.914809
1620.000000	92.015099
1619.000000	92.106812
1618.000000	92.214088
1617.000000	92.357416
1616.000000	92.527203
1615.000000	92.683112
1614.000000	92.805200
1613.000000	92.909734
1612.000000	93.023819
1611.000000	93.156995
1610.000000	93.295589
1609.000000	93.425101
1608.000000	93.547029
1607.000000	93.665630
1606.000000	93.777970
1605.000000	93.881573
1604.000000	93.978180
1603.000000	94.067605
1602.000000	94.145725
1601.000000	94.213528
1600.000000	94.278607
1599.000000	94.344030
1598.000000	94.404920
1597.000000	94.458377
1596.000000	94.508169
1595.000000	94.554772
1594.000000	94.591053
1593.000000	94.613686
1592.000000	94.629447
1591.000000	94.644532
1590.000000	94.656918
1589.000000	94.663812
1588.000000	94.666933
1587.000000	94.666047
1586.000000	94.655635
1585.000000	94.636230
1584.000000	94.613925
1583.000000	94.591480
1582.000000	94.568590
1581.000000	94.547768
1580.000000	94.528877
1579.000000	94.502991
1578.000000	94.456892
1577.000000	94.384004
1576.000000	94.308239
1575.000000	94.263007
1574.000000	94.240786
1573.000000	94.218391
1572.000000	94.188086
1571.000000	94.139975
1570.000000	94.057124
1569.000000	93.954026
1568.000000	93.864432
1567.000000	93.792289
1566.000000	93.715523
1565.000000	93.624876
1564.000000	93.533365
1563.000000	93.457489
1562.000000	93.404508
1561.000000	93.372177
1560.000000	93.293957
1559.000000	93.116805
1558.000000	92.934181
1557.000000	92.792404
1556.000000	92.659892
1555.000000	92.526317
1554.000000	92.401649
1553.000000	92.290592
1552.000000	92.183629
1551.000000	92.076191
1550.000000	91.974067
1549.000000	91.885389
1548.000000	91.811662
1547.000000	91.749600
1546.000000	91.698543
1545.000000	91.662311
1544.000000	91.644015
1543.000000	91.639287
1542.000000	91.623983
1541.000000	91.561857
1540.000000	91.463601
1539.000000	91.393857
1538.000000	91.373586
1537.000000	91.373985
1536.000000	91.372498
1535.000000	91.366473
1534.000000	91.363411
1533.000000	91.369319
1532.000000	91.380634
1531.000000	91.395028
1530.000000	91.412787
1529.000000	91.429870
1528.000000	91.449033
1527.000000	91.484656
1526.000000	91.542436
1525.000000	91.600825
1524.000000	91.632111
1523.000000	91.632440
1522.000000	91.626973
1521.000000	91.646908
1520.000000	91.687224
1519.000000	91.718901
1518.000000	91.726368
1517.000000	91.720691
1516.000000	91.725949
1515.000000	91.747300
1514.000000	91.776727
1513.000000	91.814682
1512.000000	91.871863
1511.000000	91.951260
1510.000000	92.041907
1509.000000	92.132119
1508.000000	92.219549
1507.000000	92.308991
1506.000000	92.388960
1505.000000	92.442684
1504.000000	92.483389
1503.000000	92.524745
1502.000000	92.575336
1501.000000	92.638994
1500.000000	92.705921
1499.000000	92.762847
1498.000000	92.803809
1497.000000	92.832789
1496.000000	92.867324
1495.000000	92.922762
1494.000000	92.990128
1493.000000	93.048256
1492.000000	93.089088
1491.000000	93.119518
1490.000000	93.144492
1489.000000	93.154048
1488.000000	93.143439
1487.000000	93.125976
1486.000000	93.108340
1485.000000	93.085094
1484.000000	93.050629
1483.000000	93.005563
1482.000000	92.951042
1481.000000	92.887011
1480.000000	92.818675
1479.000000	92.751716
1478.000000	92.680751
1477.000000	92.593365
1476.000000	92.490923
1475.000000	92.382561
1474.000000	92.251941
1473.000000	92.063249
1472.000000	91.833843
1471.000000	91.630251
1470.000000	91.473470
1469.000000	91.342038
1468.000000	91.225289
1467.000000	91.121160
1466.000000	91.016203
1465.000000	90.895490
1464.000000	90.773830
1463.000000	90.682480
1462.000000	90.623924
1461.000000	90.576015
1460.000000	90.515285
1459.000000	90.421078
1458.000000	90.264539
1457.000000	90.054704
1456.000000	89.882960
1455.000000	89.795536
1454.000000	89.742293
1453.000000	89.682360
1452.000000	89.622551
1451.000000	89.580670
1450.000000	89.551048
1449.000000	89.513457
1448.000000	89.466474
1447.000000	89.424351
1446.000000	89.392889
1445.000000	89.365607
1444.000000	89.339022
1443.000000	89.317817
1442.000000	89.303118
1441.000000	89.289078
1440.000000	89.268933
1439.000000	89.238228
1438.000000	89.188516
1437.000000	89.117683
1436.000000	89.056588
1435.000000	89.037137
1434.000000	89.046298
1433.000000	89.057985
1432.000000	89.063911
1431.000000	89.061253
1430.000000	89.040412
1429.000000	88.996326
1428.000000	88.943461
1427.000000	88.896602
1426.000000	88.854493
1425.000000	88.813136
1424.000000	88.781009
1423.000000	88.767175
1422.000000	88.760573
1421.000000	88.741877
1420.000000	88.703186
1419.000000	88.657553
1418.000000	88.625632
1417.000000	88.611382
1416.000000	88.611796
1415.000000	88.626958
1414.000000	88.651391
1413.000000	88.676585
1412.000000	88.703849
1411.000000	88.742718
1410.000000	88.795260
1409.000000	88.853975
1408.000000	88.915052
1407.000000	88.977779
1406.000000	89.038225
1405.000000	89.094869
1404.000000	89.153491
1403.000000	89.216361
1402.000000	89.273454
1401.000000	89.314767
1400.000000	89.344808
1399.000000	89.378654
1398.000000	89.421181
1397.000000	89.462900
1396.000000	89.498227
1395.000000	89.530983
1394.000000	89.568224
1393.000000	89.616402
1392.000000	89.678258
1391.000000	89.748876
1390.000000	89.818171
1389.000000	89.881504
1388.000000	89.946947
1387.000000	90.024516
1386.000000	90.109613
1385.000000	90.191481
1384.000000	90.269463
1383.000000	90.349118
1382.000000	90.430120
1381.000000	90.509466
1380.000000	90.592942
1379.000000	90.690743
1378.000000	90.803441
1377.000000	90.923047
1376.000000	91.045779
1375.000000	91.172858
1374.000000	91.300224
1373.000000	91.417800
1372.000000	91.521846
1371.000000	91.615577
1370.000000	91.702976
1369.000000	91.789430
1368.000000	91.879875
1367.000000	91.972774
1366.000000	92.060681
1365.000000	92.139314
1364.000000	92.211469
1363.000000	92.280635
1362.000000	92.344961
1361.000000	92.402362
1360.000000	92.455445
1359.000000	92.505781
1358.000000	92.551363
1357.000000	92.591742
1356.000000	92.630063
1355.000000	92.668221
1354.000000	92.703962
1353.000000	92.733852
1352.000000	92.757548
1351.000000	92.775586
1350.000000	92.788504
1349.000000	92.798404
1348.000000	92.806142
1347.000000	92.807665
1346.000000	92.797330
1345.000000	92.775616
1344.000000	92.748502
1343.000000	92.718398
1342.000000	92.681044
1341.000000	92.633539
1340.000000	92.581491
1339.000000	92.535224
1338.000000	92.501257
1337.000000	92.480972
1336.000000	92.474242
1335.000000	92.479954
1334.000000	92.496004
1333.000000	92.522213
1332.000000	92.560410
1331.000000	92.609381
1330.000000	92.663383
1329.000000	92.717790
1328.000000	92.773151
1327.000000	92.830232
1326.000000	92.885724
1325.000000	92.935627
1324.000000	92.979212
1323.000000	93.017707
1322.000000	93.051729
1321.000000	93.082213
1320.000000	93.111383
1319.000000	93.141046
1318.000000	93.171361
1317.000000	93.202801
1316.000000	93.237434
1315.000000	93.277123
1314.000000	93.322269
1313.000000	93.372439
1312.000000	93.426191
1311.000000	93.480079
1310.000000	93.530658
1309.000000	93.577707
1308.000000	93.624069
1307.000000	93.672068
1306.000000	93.722310
1305.000000	93.775165
1304.000000	93.830227
1303.000000	93.884642
1302.000000	93.935043
1301.000000	93.981664
1300.000000	94.027697
1299.000000	94.074690
1298.000000	94.120888
1297.000000	94.163762
1296.000000	94.201246
1295.000000	94.230738
1294.000000	94.250665
1293.000000	94.262963
1292.000000	94.271296
1291.000000	94.276788
1290.000000	94.277638
1289.000000	94.273395
1288.000000	94.266821
1287.000000	94.260984
1286.000000	94.256703
1285.000000	94.253204
1284.000000	94.249711
1283.000000	94.245955
1282.000000	94.242295
1281.000000	94.239502
1280.000000	94.236940
1279.000000	94.231381
1278.000000	94.219133
1277.000000	94.199157
1276.000000	94.172707
1275.000000	94.139996
1274.000000	94.099573
1273.000000	94.050725
1272.000000	93.994099
1271.000000	93.929744
1270.000000	93.855903
1269.000000	93.771402
1268.000000	93.678264
1267.000000	93.580544
1266.000000	93.480860
1265.000000	93.378334
1264.000000	93.270639
1263.000000	93.158178
1262.000000	93.045983
1261.000000	92.941157
1260.000000	92.847639
1259.000000	92.763120
1258.000000	92.682031
1257.000000	92.602662
1256.000000	92.529946
1255.000000	92.470667
1254.000000	92.426925
1253.000000	92.394824
1252.000000	92.367921
1251.000000	92.339534
1250.000000	92.304119
1249.000000	92.259976
1248.000000	92.210151
1247.000000	92.158819
1246.000000	92.107565
1245.000000	92.056814
1244.000000	92.009029
1243.000000	91.967470
1242.000000	91.933174
1241.000000	91.906010
1240.000000	91.887839
1239.000000	91.881788
1238.000000	91.889094
1237.000000	91.910297
1236.000000	91.947114
1235.000000	91.999238
1234.000000	92.061361
1233.000000	92.127272
1232.000000	92.197027
1231.000000	92.275919
1230.000000	92.367871
1229.000000	92.473977
1228.000000	92.594939
1227.000000	92.730643
1226.000000	92.877178
1225.000000	93.027930
1224.000000	93.177727
1223.000000	93.323342
1222.000000	93.461836
1221.000000	93.591173
1220.000000	93.711220
1219.000000	93.821552
1218.000000	93.920067
1217.000000	94.005269
1216.000000	94.078458
1215.000000	94.142076
1214.000000	94.196555
1213.000000	94.241286
1212.000000	94.276660
1211.000000	94.302938
1210.000000	94.318412
1209.000000	94.320369
1208.000000	94.308980
1207.000000	94.288807
1206.000000	94.266295
1205.000000	94.246478
1204.000000	94.231188
1203.000000	94.219456
1202.000000	94.209597
1201.000000	94.201921
1200.000000	94.199014
1199.000000	94.202304
1198.000000	94.209171
1197.000000	94.215158
1196.000000	94.218641
1195.000000	94.221182
1194.000000	94.223428
1193.000000	94.223080
1192.000000	94.217825
1191.000000	94.208544
1190.000000	94.198234
1189.000000	94.188213
1188.000000	94.176566
1187.000000	94.160140
1186.000000	94.137060
1185.000000	94.107512
1184.000000	94.072220
1183.000000	94.030773
1182.000000	93.981818
1181.000000	93.924569
1180.000000	93.860029
1179.000000	93.789876
1178.000000	93.715024
1177.000000	93.636663
1176.000000	93.557985
1175.000000	93.482922
1174.000000	93.412315
1173.000000	93.343122
1172.000000	93.272445
1171.000000	93.201218
1170.000000	93.133182
1169.000000	93.071699
1168.000000	93.018244
1167.000000	92.972047
1166.000000	92.930995
1165.000000	92.894161
1164.000000	92.864250
1163.000000	92.846204
1162.000000	92.842507
1161.000000	92.852929
1160.000000	92.878356
1159.000000	92.922109
1158.000000	92.986979
1157.000000	93.071968
1156.000000	93.173624
1155.000000	93.288020
1154.000000	93.411703
1153.000000	93.543644
1152.000000	93.685331
1151.000000	93.837877
1150.000000	93.998816
1149.000000	94.163374
1148.000000	94.328283
1147.000000	94.492210
1146.000000	94.653677
1145.000000	94.810730
1144.000000	94.962454
1143.000000	95.108659
1142.000000	95.248143
1141.000000	95.378144
1140.000000	95.496244
1139.000000	95.603028
1138.000000	95.701524
1137.000000	95.793727
1136.000000	95.877218
1135.000000	95.946529
1134.000000	95.999170
1133.000000	96.038519
1132.000000	96.070815
1131.000000	96.099713
1130.000000	96.124092
1129.000000	96.140850
1128.000000	96.148687
1127.000000	96.150143
1126.000000	96.149574
1125.000000	96.148463
1124.000000	96.143892
1123.000000	96.132157
1122.000000	96.113265
1121.000000	96.089831
1120.000000	96.061775
1119.000000	96.024875
1118.000000	95.974199
1117.000000	95.907764
1116.000000	95.826733
1115.000000	95.733447
1114.000000	95.630424
1113.000000	95.520770
1112.000000	95.410476
1111.000000	95.309962
1110.000000	95.230909
1109.000000	95.179341
1108.000000	95.152728
1107.000000	95.143795
1106.000000	95.145346
1105.000000	95.152147
1104.000000	95.160227
1103.000000	95.166769
1102.000000	95.169614
1101.000000	95.165440
1100.000000	95.149690
1099.000000	95.120049
1098.000000	95.078984
1097.000000	95.031280
1096.000000	94.980834
1095.000000	94.931507
1094.000000	94.888933
1093.000000	94.858330
1092.000000	94.841540
1091.000000	94.838187
1090.000000	94.848579
1089.000000	94.871940
1088.000000	94.902928
1087.000000	94.934681
1086.000000	94.966264
1085.000000	95.004597
1084.000000	95.056386
1083.000000	95.120372
1082.000000	95.189509
1081.000000	95.258278
1080.000000	95.326060
1079.000000	95.394747
1078.000000	95.465606
1077.000000	95.537653
1076.000000	95.607319
1075.000000	95.670640
1074.000000	95.726850
1073.000000	95.778215
1072.000000	95.825409
1071.000000	95.865858
1070.000000	95.897253
1069.000000	95.919546
1068.000000	95.932290
1067.000000	95.933703
1066.000000	95.925639
1065.000000	95.915946
1064.000000	95.912399
1063.000000	95.916054
1062.000000	95.922557
1061.000000	95.928182
1060.000000	95.932466
1059.000000	95.937375
1058.000000	95.946668
1057.000000	95.964371
1056.000000	95.990670
1055.000000	96.020337
1054.000000	96.047717
1053.000000	96.072062
1052.000000	96.095888
1051.000000	96.119622
1050.000000	96.140993
1049.000000	96.158792
1048.000000	96.174431
1047.000000	96.190103
1046.000000	96.206971
1045.000000	96.223928
1044.000000	96.236627
1043.000000	96.239807
1042.000000	96.231899
1041.000000	96.215450
1040.000000	96.191711
1039.000000	96.157699
1038.000000	96.111227
1037.000000	96.055709
1036.000000	95.997585
1035.000000	95.941765
1034.000000	95.892055
1033.000000	95.852518
1032.000000	95.824178
1031.000000	95.802699
1030.000000	95.784121
1029.000000	95.772146
1028.000000	95.774323
1027.000000	95.791225
1026.000000	95.814688
1025.000000	95.837549
1024.000000	95.860571
1023.000000	95.887884
1022.000000	95.920393
1021.000000	95.956343
1020.000000	95.994195
1019.000000	96.031838
1018.000000	96.065947
1017.000000	96.095757
1016.000000	96.125746
1015.000000	96.161601
1014.000000	96.204887
1013.000000	96.253905
1012.000000	96.308489
1011.000000	96.370608
1010.000000	96.439984
1009.000000	96.511859
1008.000000	96.580265
1007.000000	96.642734
1006.000000	96.700717
1005.000000	96.755683
1004.000000	96.806092
1003.000000	96.849661
1002.000000	96.887909
1001.000000	96.925595
1000.000000	96.965016
999.000000	97.002822
998.000000	97.034061
997.000000	97.057629
996.000000	97.075954
995.000000	97.091596
994.000000	97.106230
993.000000	97.121339
992.000000	97.137389
991.000000	97.152939
990.000000	97.166704
989.000000	97.179516
988.000000	97.192384
987.000000	97.203910
986.000000	97.211511
985.000000	97.214139
984.000000	97.211655
983.000000	97.203280
982.000000	97.189895
981.000000	97.176346
980.000000	97.167489
979.000000	97.161648
978.000000	97.151559
977.000000	97.132692
976.000000	97.107691
975.000000	97.081916
974.000000	97.057967
973.000000	97.036604
972.000000	97.019897
971.000000	97.010264
970.000000	97.007472
969.000000	97.009538
968.000000	97.016441
967.000000	97.030419
966.000000	97.052788
965.000000	97.081991
964.000000	97.114677
963.000000	97.147605
962.000000	97.178945
961.000000	97.209746
960.000000	97.243646
959.000000	97.283277
958.000000	97.327032
957.000000	97.370997
956.000000	97.414336
955.000000	97.460448
954.000000	97.511873
953.000000	97.565998
952.000000	97.617230
951.000000	97.662306
950.000000	97.701801
949.000000	97.737454
948.000000	97.770378
947.000000	97.801930
946.000000	97.833668
945.000000	97.864918
944.000000	97.892254
943.000000	97.913141
942.000000	97.929361
941.000000	97.945007
940.000000	97.961619
939.000000	97.977081
938.000000	97.989014
937.000000	97.998368
936.000000	98.009958
935.000000	98.030037
934.000000	98.061781
933.000000	98.101141
932.000000	98.138046
931.000000	98.164118
930.000000	98.179604
929.000000	98.191803
928.000000	98.207170
927.000000	98.226382
926.000000	98.246467
925.000000	98.265235
924.000000	98.283293
923.000000	98.303118
922.000000	98.326280
921.000000	98.350965
920.000000	98.372985
919.000000	98.390564
918.000000	98.407359
917.000000	98.428973
916.000000	98.457334
915.000000	98.490173
914.000000	98.524544
913.000000	98.558242
912.000000	98.588671
911.000000	98.613677
910.000000	98.633812
909.000000	98.651540
908.000000	98.668130
907.000000	98.683412
906.000000	98.697758
905.000000	98.711481
904.000000	98.722926
903.000000	98.730248
902.000000	98.734916
901.000000	98.740913
900.000000	98.750688
899.000000	98.764486
898.000000	98.782557
897.000000	98.804394
896.000000	98.826558
895.000000	98.844741
894.000000	98.857931
893.000000	98.867625
892.000000	98.873312
891.000000	98.871676
890.000000	98.856245
889.000000	98.811069
888.000000	98.707438
887.000000	98.517118
886.000000	98.237408
885.000000	97.899701
884.000000	97.549411
883.000000	97.217393
882.000000	96.904432
881.000000	96.585978
880.000000	96.231880
879.000000	95.830957
878.000000	95.404081
877.000000	94.996956
876.000000	94.659247
875.000000	94.429225
874.000000	94.333449
873.000000	94.389861
872.000000	94.604593
871.000000	94.958682
870.000000	95.401933
869.000000	95.868863
868.000000	96.303997
867.000000	96.678233
866.000000	96.987873
865.000000	97.242535
864.000000	97.452502
863.000000	97.624364
862.000000	97.763912
861.000000	97.878795
860.000000	97.976862
859.000000	98.063182
858.000000	98.140089
857.000000	98.206901
856.000000	98.260183
855.000000	98.298439
854.000000	98.326905
853.000000	98.352919
852.000000	98.373648
851.000000	98.375115
850.000000	98.350394
849.000000	98.316054
848.000000	98.303624
847.000000	98.332299
846.000000	98.392729
845.000000	98.458255
844.000000	98.508566
843.000000	98.542232
842.000000	98.570713
841.000000	98.603800
840.000000	98.640634
839.000000	98.671948
838.000000	98.689424
837.000000	98.692860
836.000000	98.689360
835.000000	98.687307
834.000000	98.690612
833.000000	98.696765
832.000000	98.700194
831.000000	98.698862
830.000000	98.697990
829.000000	98.705844
828.000000	98.725291
827.000000	98.751097
826.000000	98.775550
825.000000	98.794332
824.000000	98.806401
823.000000	98.811915
822.000000	98.813247
821.000000	98.815494
820.000000	98.822331
819.000000	98.831596
818.000000	98.837261
817.000000	98.835839
816.000000	98.829489
815.000000	98.823294
814.000000	98.820947
813.000000	98.823399
812.000000	98.830349
811.000000	98.840799
810.000000	98.851316
809.000000	98.855429
808.000000	98.848149
807.000000	98.832551
806.000000	98.819419
805.000000	98.817401
804.000000	98.823959
803.000000	98.828406
802.000000	98.822957
801.000000	98.808156
800.000000	98.788882
799.000000	98.769221
798.000000	98.752106
797.000000	98.740152
796.000000	98.734078
795.000000	98.731535
794.000000	98.728592
793.000000	98.721413
792.000000	98.706875
791.000000	98.684472
790.000000	98.658829
789.000000	98.637382
788.000000	98.623208
787.000000	98.612046
786.000000	98.599022
785.000000	98.587043
784.000000	98.584970
783.000000	98.596870
782.000000	98.615574
781.000000	98.628423
780.000000	98.628175
779.000000	98.617250
778.000000	98.602886
777.000000	98.590281
776.000000	98.580286
775.000000	98.571266
774.000000	98.561657
773.000000	98.551689
772.000000	98.543886
771.000000	98.540973
770.000000	98.541744
769.000000	98.540142
768.000000	98.530956
767.000000	98.516179
766.000000	98.502788
765.000000	98.493614
764.000000	98.483539
763.000000	98.466424
762.000000	98.442977
761.000000	98.419030
760.000000	98.397997
759.000000	98.378407
758.000000	98.357806
757.000000	98.335472
756.000000	98.311228
755.000000	98.285012
754.000000	98.259207
753.000000	98.239211
752.000000	98.229541
751.000000	98.229461
750.000000	98.232596
749.000000	98.230834
748.000000	98.219860
747.000000	98.202831
746.000000	98.188450
745.000000	98.182950
744.000000	98.183143
743.000000	98.179472
742.000000	98.166837
741.000000	98.150231
740.000000	98.137858
739.000000	98.130141
738.000000	98.118348
737.000000	98.094045
736.000000	98.057783
735.000000	98.017433
734.000000	97.979178
733.000000	97.942312
732.000000	97.903337
731.000000	97.863360
730.000000	97.828629
729.000000	97.802724
728.000000	97.781765
727.000000	97.759363
726.000000	97.734042
725.000000	97.709918
724.000000	97.690210
723.000000	97.671840
722.000000	97.646425
721.000000	97.605355
720.000000	97.543426
719.000000	97.456595
718.000000	97.335590
717.000000	97.162971
716.000000	96.922375
715.000000	96.621711
714.000000	96.312872
713.000000	96.080384
712.000000	95.994509
711.000000	96.062534
710.000000	96.224006
709.000000	96.395039
708.000000	96.520430
707.000000	96.592401
706.000000	96.630550
705.000000	96.653708
704.000000	96.668957
703.000000	96.674745
702.000000	96.668144
701.000000	96.650282
700.000000	96.627372
699.000000	96.607788
698.000000	96.595562
697.000000	96.587324
696.000000	96.576746
695.000000	96.559956
694.000000	96.539046
693.000000	96.520981
692.000000	96.512371
691.000000	96.515563
690.000000	96.526628
689.000000	96.537575
688.000000	96.541873
687.000000	96.538524
686.000000	96.532678
685.000000	96.529611
684.000000	96.526562
683.000000	96.514278
682.000000	96.487936
681.000000	96.454855
680.000000	96.428135
679.000000	96.415717
678.000000	96.416862
677.000000	96.425536
676.000000	96.436754
675.000000	96.446535
674.000000	96.453682
673.000000	96.463982
672.000000	96.484207
671.000000	96.516821
670.000000	96.558886
669.000000	96.605697
668.000000	96.621860
667.000000	96.599514
666.000000	96.594923
665.000000	96.607506
664.000000	96.614100
663.000000	96.618966
662.000000	96.627187
661.000000	96.634722
660.000000	96.635455
659.000000	96.633104
658.000000	96.631748
657.000000	96.626231
656.000000	96.611789
655.000000	96.589242
654.000000	96.557596
653.000000	96.515088
652.000000	96.470514
651.000000	96.439648
650.000000	96.424884
649.000000	96.410499
648.000000	96.383992
647.000000	96.347257
646.000000	96.302333
645.000000	96.244847
644.000000	96.177851
643.000000	96.116889
642.000000	96.073082
641.000000	96.039662
640.000000	96.003599
639.000000	95.962650
638.000000	95.923100
637.000000	95.891389
636.000000	95.873897
635.000000	95.873318
634.000000	95.881963
633.000000	95.889356
632.000000	95.897044
631.000000	95.913191
630.000000	95.931887
629.000000	95.935456
628.000000	95.921174
627.000000	95.906969
626.000000	95.902894
625.000000	95.895434
624.000000	95.870814
623.000000	95.836493
622.000000	95.807343
621.000000	95.784264
620.000000	95.759907
619.000000	95.734565
618.000000	95.712900
617.000000	95.692836
616.000000	95.669813
615.000000	95.646223
614.000000	95.626300
613.000000	95.609432
612.000000	95.598208
611.000000	95.603332
610.000000	95.629097
609.000000	95.662089
608.000000	95.685375
607.000000	95.698154
606.000000	95.712330
605.000000	95.737882
604.000000	95.780799
603.000000	95.846406
602.000000	95.932346
601.000000	96.022297
600.000000	96.097393
599.000000	96.153606
598.000000	96.203289
597.000000	96.260342
596.000000	96.328009
595.000000	96.398332
594.000000	96.459502
593.000000	96.507349
592.000000	96.550016
591.000000	96.595795
590.000000	96.637019
589.000000	96.655820
588.000000	96.647146
587.000000	96.626478
586.000000	96.612664
585.000000	96.610491
584.000000	96.615411
583.000000	96.626746
582.000000	96.644811
581.000000	96.661182
580.000000	96.663679
579.000000	96.650179
578.000000	96.631909
577.000000	96.623432
576.000000	96.631508
575.000000	96.649171
574.000000	96.660816
573.000000	96.659419
572.000000	96.656538
571.000000	96.668978
570.000000	96.695775
569.000000	96.718734
568.000000	96.727903
567.000000	96.730830
566.000000	96.731912
565.000000	96.719804
564.000000	96.686294
563.000000	96.644367
562.000000	96.615223
561.000000	96.605209
560.000000	96.605604
559.000000	96.607052
558.000000	96.603160
557.000000	96.588939
556.000000	96.567660
555.000000	96.552012
554.000000	96.549080
553.000000	96.551376
552.000000	96.550565
551.000000	96.551222
550.000000	96.563440
549.000000	96.591522
548.000000	96.635650
547.000000	96.690718
546.000000	96.736152
545.000000	96.744743
544.000000	96.714746
543.000000	96.679044
542.000000	96.671968
541.000000	96.697482
540.000000	96.737111
539.000000	96.773712
538.000000	96.794581
537.000000	96.786975
536.000000	96.748527
535.000000	96.695432
534.000000	96.647744
533.000000	96.610827
532.000000	96.578837
531.000000	96.545829
530.000000	96.506837
529.000000	96.463990
528.000000	96.442302
527.000000	96.482213
526.000000	96.591796
525.000000	96.715983
524.000000	96.785232
523.000000	96.777812
522.000000	96.716215
521.000000	96.636852
520.000000	96.578277
519.000000	96.570849
518.000000	96.613054
517.000000	96.670584
516.000000	96.717023
515.000000	96.756381
514.000000	96.796621
513.000000	96.831493
512.000000	96.859774
511.000000	96.892736
510.000000	96.925465
509.000000	96.929531
508.000000	96.900369
507.000000	96.884944
506.000000	96.924399
505.000000	96.992355
504.000000	97.032319
503.000000	97.033112
502.000000	97.031307
501.000000	97.049184
500.000000	97.071191
499.000000	97.084407
498.000000	97.099702
497.000000	97.128617
496.000000	97.166936
495.000000	97.203846
494.000000	97.229736
493.000000	97.234563
492.000000	97.219155
491.000000	97.210433
490.000000	97.243246
489.000000	97.322587
488.000000	97.419954
487.000000	97.500509
486.000000	97.543665
485.000000	97.551869
484.000000	97.551246
483.000000	97.572483
482.000000	97.615427
481.000000	97.644215
480.000000	97.628268
479.000000	97.575241
478.000000	97.522784
477.000000	97.509225
476.000000	97.553924
475.000000	97.649995
474.000000	97.760765
473.000000	97.839203
472.000000	97.874748
471.000000	97.893960
470.000000	97.898369
469.000000	97.856438
468.000000	97.775694
467.000000	97.729693
466.000000	97.768861
465.000000	97.840096
464.000000	97.872639
463.000000	97.872699
462.000000	97.924665
461.000000	98.048814
460.000000	98.152407
459.000000	98.235878
458.000000	98.315191
457.000000	98.419509
456.000000	98.546530
455.000000	98.699008
454.000000	98.864079
453.000000	98.981408
452.000000	98.973734
451.000000	98.862279
450.000000	98.743639
