PE IR       SUBTECH     SPECTRUM    ASCII       PEDS        4.00        
   -1
3C-XXX-F009_1.ASC
23/09/07
10:43:39.00
23/09/07
11:30:09.00
uco
Sample 009 By uco Date Thursday, September 07 2023
450.000000
#HDR
-1
-1
#GR
cm-1
%T
1.0
0.0
4000.000000
-1.000000
3551
8
98.830022
88.043740
#DATA
4000.000000	98.774787
3999.000000	98.775447
3998.000000	98.773595
3997.000000	98.769775
3996.000000	98.765284
3995.000000	98.761807
3994.000000	98.761327
3993.000000	98.761779
3992.000000	98.762708
3991.000000	98.762553
3990.000000	98.760687
3989.000000	98.757780
3988.000000	98.755290
3987.000000	98.754388
3986.000000	98.755199
3985.000000	98.756998
3984.000000	98.759097
3983.000000	98.761411
3982.000000	98.763965
3981.000000	98.766048
3980.000000	98.766292
3979.000000	98.763762
3978.000000	98.758793
3977.000000	98.752747
3976.000000	98.747241
3975.000000	98.743662
3974.000000	98.742890
3973.000000	98.744718
3972.000000	98.747424
3971.000000	98.748443
3970.000000	98.746210
3969.000000	98.741613
3968.000000	98.737525
3967.000000	98.736618
3966.000000	98.739307
3965.000000	98.743727
3964.000000	98.747502
3963.000000	98.749371
3962.000000	98.749235
3961.000000	98.746901
3960.000000	98.741539
3959.000000	98.732787
3958.000000	98.722046
3957.000000	98.712266
3956.000000	98.706039
3955.000000	98.704019
3954.000000	98.704993
3953.000000	98.707291
3952.000000	98.710096
3951.000000	98.713620
3950.000000	98.718445
3949.000000	98.724654
3948.000000	98.731201
3947.000000	98.735889
3946.000000	98.736412
3945.000000	98.731972
3944.000000	98.724469
3943.000000	98.718166
3942.000000	98.717129
3941.000000	98.722323
3940.000000	98.731217
3939.000000	98.739816
3938.000000	98.744800
3937.000000	98.744519
3936.000000	98.739487
3935.000000	98.732559
3934.000000	98.728077
3933.000000	98.729638
3932.000000	98.737074
3931.000000	98.745595
3930.000000	98.749275
3929.000000	98.745549
3928.000000	98.736437
3927.000000	98.726738
3926.000000	98.720984
3925.000000	98.720616
3924.000000	98.723106
3923.000000	98.724367
3922.000000	98.722196
3921.000000	98.716957
3920.000000	98.710192
3919.000000	98.703912
3918.000000	98.701017
3917.000000	98.704413
3916.000000	98.714167
3915.000000	98.726209
3914.000000	98.734882
3913.000000	98.736740
3912.000000	98.732390
3911.000000	98.725674
3910.000000	98.720771
3909.000000	98.719157
3908.000000	98.718867
3907.000000	98.716758
3906.000000	98.711968
3905.000000	98.707754
3904.000000	98.708966
3903.000000	98.716497
3902.000000	98.725624
3901.000000	98.731004
3900.000000	98.731654
3899.000000	98.730346
3898.000000	98.730071
3897.000000	98.731899
3896.000000	98.735341
3895.000000	98.738932
3894.000000	98.740572
3893.000000	98.738896
3892.000000	98.735422
3891.000000	98.733683
3890.000000	98.734517
3889.000000	98.734698
3888.000000	98.730993
3887.000000	98.724318
3886.000000	98.719526
3885.000000	98.719913
3884.000000	98.723124
3883.000000	98.724368
3882.000000	98.721646
3881.000000	98.717121
3880.000000	98.714439
3879.000000	98.714540
3878.000000	98.715091
3877.000000	98.714161
3876.000000	98.713171
3875.000000	98.715956
3874.000000	98.723864
3873.000000	98.732720
3872.000000	98.736973
3871.000000	98.736332
3870.000000	98.736004
3869.000000	98.739137
3868.000000	98.742540
3867.000000	98.742131
3866.000000	98.738398
3865.000000	98.735004
3864.000000	98.734594
3863.000000	98.736249
3862.000000	98.737326
3861.000000	98.736718
3860.000000	98.735576
3859.000000	98.735462
3858.000000	98.736118
3857.000000	98.734862
3856.000000	98.728567
3855.000000	98.718230
3854.000000	98.711686
3853.000000	98.715221
3852.000000	98.722376
3851.000000	98.724521
3850.000000	98.722043
3849.000000	98.719684
3848.000000	98.720414
3847.000000	98.724068
3846.000000	98.728379
3845.000000	98.730826
3844.000000	98.730547
3843.000000	98.728629
3842.000000	98.726920
3841.000000	98.727072
3840.000000	98.730086
3839.000000	98.735838
3838.000000	98.742582
3837.000000	98.747604
3836.000000	98.749222
3835.000000	98.747452
3834.000000	98.743230
3833.000000	98.737896
3832.000000	98.732825
3831.000000	98.728535
3830.000000	98.724375
3829.000000	98.719209
3828.000000	98.713132
3827.000000	98.708157
3826.000000	98.706217
3825.000000	98.706789
3824.000000	98.707565
3823.000000	98.707473
3822.000000	98.708372
3821.000000	98.712599
3820.000000	98.718562
3819.000000	98.722501
3818.000000	98.723632
3817.000000	98.725024
3816.000000	98.729193
3815.000000	98.732976
3814.000000	98.731178
3813.000000	98.724161
3812.000000	98.717254
3811.000000	98.715030
3810.000000	98.717277
3809.000000	98.720068
3808.000000	98.720843
3807.000000	98.721469
3806.000000	98.724857
3805.000000	98.729981
3804.000000	98.733102
3803.000000	98.732595
3802.000000	98.730915
3801.000000	98.730702
3800.000000	98.729966
3799.000000	98.725569
3798.000000	98.718163
3797.000000	98.711694
3796.000000	98.709122
3795.000000	98.709196
3794.000000	98.708585
3793.000000	98.705899
3792.000000	98.702465
3791.000000	98.700238
3790.000000	98.699925
3789.000000	98.700655
3788.000000	98.701181
3787.000000	98.701252
3786.000000	98.702183
3785.000000	98.705720
3784.000000	98.711953
3783.000000	98.718669
3782.000000	98.722958
3781.000000	98.722992
3780.000000	98.719030
3779.000000	98.713482
3778.000000	98.709340
3777.000000	98.708265
3776.000000	98.710448
3775.000000	98.715158
3774.000000	98.720487
3773.000000	98.723714
3772.000000	98.723337
3771.000000	98.720897
3770.000000	98.719901
3769.000000	98.722387
3768.000000	98.727325
3767.000000	98.732626
3766.000000	98.736811
3765.000000	98.738031
3764.000000	98.733890
3763.000000	98.723805
3762.000000	98.711007
3761.000000	98.700969
3760.000000	98.697052
3759.000000	98.698349
3758.000000	98.702244
3757.000000	98.707961
3756.000000	98.715794
3755.000000	98.725237
3754.000000	98.735289
3753.000000	98.745192
3752.000000	98.753696
3751.000000	98.758863
3750.000000	98.759918
3749.000000	98.758225
3748.000000	98.755121
3747.000000	98.750726
3746.000000	98.746502
3745.000000	98.746592
3744.000000	98.751620
3743.000000	98.755185
3742.000000	98.753679
3741.000000	98.750336
3740.000000	98.749942
3739.000000	98.754935
3738.000000	98.764979
3737.000000	98.777764
3736.000000	98.788240
3735.000000	98.789946
3734.000000	98.782169
3733.000000	98.772223
3732.000000	98.767669
3731.000000	98.768949
3730.000000	98.770569
3729.000000	98.767804
3728.000000	98.760806
3727.000000	98.753459
3726.000000	98.748953
3725.000000	98.747099
3724.000000	98.746091
3723.000000	98.745003
3722.000000	98.744369
3721.000000	98.745352
3720.000000	98.748387
3719.000000	98.752639
3718.000000	98.756631
3717.000000	98.759330
3716.000000	98.760940
3715.000000	98.762577
3714.000000	98.764907
3713.000000	98.766987
3712.000000	98.766784
3711.000000	98.763626
3710.000000	98.759072
3709.000000	98.755517
3708.000000	98.754754
3707.000000	98.757160
3706.000000	98.761537
3705.000000	98.765533
3704.000000	98.766584
3703.000000	98.763120
3702.000000	98.756371
3701.000000	98.750571
3700.000000	98.749258
3699.000000	98.751980
3698.000000	98.755798
3697.000000	98.758134
3696.000000	98.757847
3695.000000	98.755130
3694.000000	98.751594
3693.000000	98.750175
3692.000000	98.753825
3691.000000	98.763274
3690.000000	98.774943
3689.000000	98.782609
3688.000000	98.782632
3687.000000	98.776421
3686.000000	98.767317
3685.000000	98.757886
3684.000000	98.749749
3683.000000	98.743762
3682.000000	98.740067
3681.000000	98.738689
3680.000000	98.739098
3679.000000	98.738448
3678.000000	98.732418
3677.000000	98.719887
3676.000000	98.707208
3675.000000	98.702723
3674.000000	98.705579
3673.000000	98.709323
3672.000000	98.711746
3671.000000	98.714878
3670.000000	98.718065
3669.000000	98.715654
3668.000000	98.705142
3667.000000	98.691220
3666.000000	98.679861
3665.000000	98.673437
3664.000000	98.670307
3663.000000	98.667581
3662.000000	98.664170
3661.000000	98.661443
3660.000000	98.660990
3659.000000	98.662428
3658.000000	98.663793
3657.000000	98.664108
3656.000000	98.665043
3655.000000	98.668754
3654.000000	98.674593
3653.000000	98.679096
3652.000000	98.678052
3651.000000	98.668503
3650.000000	98.652015
3649.000000	98.636361
3648.000000	98.627821
3647.000000	98.623755
3646.000000	98.618107
3645.000000	98.608340
3644.000000	98.596012
3643.000000	98.584861
3642.000000	98.578059
3641.000000	98.576207
3640.000000	98.577562
3639.000000	98.579668
3638.000000	98.580028
3637.000000	98.576490
3636.000000	98.569092
3635.000000	98.561468
3634.000000	98.558444
3633.000000	98.560881
3632.000000	98.564172
3631.000000	98.561748
3630.000000	98.549733
3629.000000	98.530508
3628.000000	98.512094
3627.000000	98.500239
3626.000000	98.494264
3625.000000	98.490837
3624.000000	98.486738
3623.000000	98.479627
3622.000000	98.469197
3621.000000	98.457663
3620.000000	98.447800
3619.000000	98.440112
3618.000000	98.432971
3617.000000	98.425553
3616.000000	98.418801
3615.000000	98.413539
3614.000000	98.408816
3613.000000	98.402487
3612.000000	98.393759
3611.000000	98.384031
3610.000000	98.375004
3609.000000	98.367164
3608.000000	98.359863
3607.000000	98.352449
3606.000000	98.344886
3605.000000	98.337418
3604.000000	98.330225
3603.000000	98.323207
3602.000000	98.316167
3601.000000	98.309115
3600.000000	98.301905
3599.000000	98.293793
3598.000000	98.283565
3597.000000	98.270629
3596.000000	98.256409
3595.000000	98.243973
3594.000000	98.235249
3593.000000	98.228928
3592.000000	98.221868
3591.000000	98.212187
3590.000000	98.200382
3589.000000	98.188353
3588.000000	98.177420
3587.000000	98.167288
3586.000000	98.157050
3585.000000	98.146632
3584.000000	98.136786
3583.000000	98.128032
3582.000000	98.119773
3581.000000	98.110327
3580.000000	98.098433
3579.000000	98.084919
3578.000000	98.072371
3577.000000	98.062627
3576.000000	98.054758
3575.000000	98.045766
3574.000000	98.033091
3573.000000	98.016655
3572.000000	97.998584
3571.000000	97.981527
3570.000000	97.967504
3569.000000	97.957804
3568.000000	97.952431
3567.000000	97.949013
3566.000000	97.943480
3565.000000	97.932635
3564.000000	97.915701
3563.000000	97.894131
3562.000000	97.871146
3561.000000	97.850626
3560.000000	97.835091
3559.000000	97.824286
3558.000000	97.816101
3557.000000	97.808410
3556.000000	97.799562
3555.000000	97.787911
3554.000000	97.772267
3553.000000	97.753444
3552.000000	97.734531
3551.000000	97.718569
3550.000000	97.706415
3549.000000	97.697404
3548.000000	97.690758
3547.000000	97.685508
3546.000000	97.679999
3545.000000	97.672718
3544.000000	97.663277
3543.000000	97.651733
3542.000000	97.637749
3541.000000	97.621447
3540.000000	97.604353
3539.000000	97.588522
3538.000000	97.574586
3537.000000	97.561407
3536.000000	97.547804
3535.000000	97.533898
3534.000000	97.520471
3533.000000	97.507978
3532.000000	97.496732
3531.000000	97.487256
3530.000000	97.479803
3529.000000	97.473773
3528.000000	97.468103
3527.000000	97.462065
3526.000000	97.455357
3525.000000	97.447540
3524.000000	97.437721
3523.000000	97.424953
3522.000000	97.409016
3521.000000	97.390929
3520.000000	97.372597
3519.000000	97.355527
3518.000000	97.339613
3517.000000	97.323469
3516.000000	97.306477
3515.000000	97.290111
3514.000000	97.276771
3513.000000	97.267506
3512.000000	97.261370
3511.000000	97.256686
3510.000000	97.252296
3509.000000	97.247650
3508.000000	97.242473
3507.000000	97.236826
3506.000000	97.230962
3505.000000	97.224414
3504.000000	97.215324
3503.000000	97.201715
3502.000000	97.184120
3501.000000	97.166072
3500.000000	97.151235
3499.000000	97.140447
3498.000000	97.131724
3497.000000	97.122467
3496.000000	97.111312
3495.000000	97.098164
3494.000000	97.083508
3493.000000	97.068410
3492.000000	97.054674
3491.000000	97.043983
3490.000000	97.036651
3489.000000	97.031459
3488.000000	97.026677
3487.000000	97.020866
3486.000000	97.012814
3485.000000	97.001473
3484.000000	96.986665
3483.000000	96.970010
3482.000000	96.954777
3481.000000	96.944105
3480.000000	96.938892
3479.000000	96.937222
3478.000000	96.935787
3477.000000	96.931851
3476.000000	96.924495
3475.000000	96.914822
3474.000000	96.905070
3473.000000	96.896643
3472.000000	96.888333
3471.000000	96.876858
3470.000000	96.860231
3469.000000	96.840794
3468.000000	96.824041
3467.000000	96.813758
3466.000000	96.808822
3465.000000	96.805332
3464.000000	96.800913
3463.000000	96.795990
3462.000000	96.791415
3461.000000	96.786369
3460.000000	96.779001
3459.000000	96.768311
3458.000000	96.754861
3457.000000	96.740258
3456.000000	96.726535
3455.000000	96.715601
3454.000000	96.708454
3453.000000	96.704449
3452.000000	96.701476
3451.000000	96.697354
3450.000000	96.691510
3449.000000	96.685186
3448.000000	96.679776
3447.000000	96.674898
3446.000000	96.668487
3445.000000	96.658759
3444.000000	96.645542
3443.000000	96.630152
3442.000000	96.615067
3441.000000	96.603567
3440.000000	96.598133
3439.000000	96.598218
3438.000000	96.599923
3437.000000	96.598633
3436.000000	96.592108
3435.000000	96.581191
3434.000000	96.568596
3433.000000	96.557540
3432.000000	96.550319
3431.000000	96.546534
3430.000000	96.542707
3429.000000	96.534843
3428.000000	96.521953
3427.000000	96.506687
3426.000000	96.492721
3425.000000	96.481971
3424.000000	96.473941
3423.000000	96.466679
3422.000000	96.458011
3421.000000	96.446732
3420.000000	96.433480
3419.000000	96.420399
3418.000000	96.409483
3417.000000	96.401008
3416.000000	96.393376
3415.000000	96.384582
3414.000000	96.374192
3413.000000	96.363839
3412.000000	96.355272
3411.000000	96.348005
3410.000000	96.339723
3409.000000	96.329272
3408.000000	96.318241
3407.000000	96.308791
3406.000000	96.300699
3405.000000	96.291662
3404.000000	96.280378
3403.000000	96.268405
3402.000000	96.258744
3401.000000	96.253045
3400.000000	96.250051
3399.000000	96.246106
3398.000000	96.237325
3397.000000	96.222322
3396.000000	96.203464
3395.000000	96.185309
3394.000000	96.171403
3393.000000	96.162166
3392.000000	96.155283
3391.000000	96.147935
3390.000000	96.139020
3389.000000	96.129647
3388.000000	96.121644
3387.000000	96.115574
3386.000000	96.110221
3385.000000	96.103744
3384.000000	96.094928
3383.000000	96.083451
3382.000000	96.069965
3381.000000	96.056265
3380.000000	96.044365
3379.000000	96.034355
3378.000000	96.023708
3377.000000	96.009745
3376.000000	95.992685
3375.000000	95.975593
3374.000000	95.961501
3373.000000	95.951216
3372.000000	95.943563
3371.000000	95.936628
3370.000000	95.928432
3369.000000	95.917380
3368.000000	95.902990
3367.000000	95.886285
3366.000000	95.869266
3365.000000	95.853858
3364.000000	95.840995
3363.000000	95.830172
3362.000000	95.819676
3361.000000	95.807599
3360.000000	95.793058
3359.000000	95.776670
3358.000000	95.759879
3357.000000	95.743679
3356.000000	95.727804
3355.000000	95.711251
3354.000000	95.693669
3353.000000	95.675945
3352.000000	95.659144
3351.000000	95.643358
3350.000000	95.628235
3349.000000	95.614050
3348.000000	95.601144
3347.000000	95.588442
3346.000000	95.573790
3345.000000	95.556055
3344.000000	95.536022
3343.000000	95.515193
3342.000000	95.494929
3341.000000	95.476899
3340.000000	95.462471
3339.000000	95.450694
3338.000000	95.438201
3337.000000	95.422436
3336.000000	95.404258
3335.000000	95.386474
3334.000000	95.370661
3333.000000	95.356375
3332.000000	95.342428
3331.000000	95.327634
3330.000000	95.311227
3329.000000	95.293776
3328.000000	95.276966
3327.000000	95.261361
3326.000000	95.245297
3325.000000	95.227293
3324.000000	95.208672
3323.000000	95.192109
3322.000000	95.178258
3321.000000	95.165682
3320.000000	95.153426
3319.000000	95.141663
3318.000000	95.130003
3317.000000	95.117203
3316.000000	95.103119
3315.000000	95.089310
3314.000000	95.076990
3313.000000	95.065548
3312.000000	95.053542
3311.000000	95.040192
3310.000000	95.025645
3309.000000	95.010714
3308.000000	94.996684
3307.000000	94.984467
3306.000000	94.973576
3305.000000	94.962472
3304.000000	94.949870
3303.000000	94.935303
3302.000000	94.919069
3301.000000	94.902798
3300.000000	94.889592
3299.000000	94.881766
3298.000000	94.878116
3297.000000	94.874638
3296.000000	94.868304
3295.000000	94.859302
3294.000000	94.849589
3293.000000	94.840768
3292.000000	94.833653
3291.000000	94.828339
3290.000000	94.823992
3289.000000	94.819468
3288.000000	94.814656
3287.000000	94.810409
3286.000000	94.807052
3285.000000	94.804166
3284.000000	94.801805
3283.000000	94.800392
3282.000000	94.798977
3281.000000	94.795569
3280.000000	94.790645
3279.000000	94.788628
3278.000000	94.794052
3277.000000	94.806619
3276.000000	94.821460
3275.000000	94.834239
3274.000000	94.844443
3273.000000	94.853777
3272.000000	94.862840
3271.000000	94.870136
3270.000000	94.873840
3269.000000	94.873936
3268.000000	94.872751
3267.000000	94.873543
3266.000000	94.878299
3265.000000	94.886632
3264.000000	94.896715
3263.000000	94.906996
3262.000000	94.916898
3261.000000	94.926369
3260.000000	94.935411
3259.000000	94.944140
3258.000000	94.952997
3257.000000	94.962664
3256.000000	94.973778
3255.000000	94.986790
3254.000000	95.002036
3253.000000	95.019642
3252.000000	95.038975
3251.000000	95.058110
3250.000000	95.074432
3249.000000	95.086564
3248.000000	95.095737
3247.000000	95.104720
3246.000000	95.115070
3245.000000	95.125471
3244.000000	95.133031
3243.000000	95.136197
3242.000000	95.136337
3241.000000	95.136735
3240.000000	95.140130
3239.000000	95.147244
3238.000000	95.157514
3237.000000	95.170697
3236.000000	95.186990
3235.000000	95.205644
3234.000000	95.224476
3233.000000	95.241214
3232.000000	95.254603
3231.000000	95.263725
3230.000000	95.267364
3229.000000	95.265457
3228.000000	95.260920
3227.000000	95.258553
3226.000000	95.261509
3225.000000	95.269293
3224.000000	95.279115
3223.000000	95.288666
3222.000000	95.297629
3221.000000	95.307188
3220.000000	95.318366
3219.000000	95.330501
3218.000000	95.341463
3217.000000	95.349779
3216.000000	95.356234
3215.000000	95.362962
3214.000000	95.371095
3213.000000	95.379892
3212.000000	95.387816
3211.000000	95.393820
3210.000000	95.397780
3209.000000	95.400492
3208.000000	95.403392
3207.000000	95.407857
3206.000000	95.414764
3205.000000	95.424712
3204.000000	95.437844
3203.000000	95.452851
3202.000000	95.467045
3201.000000	95.478488
3200.000000	95.487647
3199.000000	95.496105
3198.000000	95.504318
3197.000000	95.511873
3196.000000	95.519180
3195.000000	95.527231
3194.000000	95.535992
3193.000000	95.544960
3192.000000	95.555313
3191.000000	95.569440
3190.000000	95.587532
3189.000000	95.606167
3188.000000	95.621311
3187.000000	95.631992
3186.000000	95.640630
3185.000000	95.650737
3184.000000	95.664458
3183.000000	95.680995
3182.000000	95.696728
3181.000000	95.708087
3180.000000	95.715131
3179.000000	95.721514
3178.000000	95.730512
3177.000000	95.742183
3176.000000	95.755016
3175.000000	95.768589
3174.000000	95.783239
3173.000000	95.798272
3172.000000	95.812148
3171.000000	95.824071
3170.000000	95.834337
3169.000000	95.843662
3168.000000	95.853107
3167.000000	95.863949
3166.000000	95.876489
3165.000000	95.889432
3164.000000	95.901564
3163.000000	95.913531
3162.000000	95.926818
3161.000000	95.941437
3160.000000	95.956031
3159.000000	95.970072
3158.000000	95.984446
3157.000000	95.999486
3156.000000	96.013729
3155.000000	96.025490
3154.000000	96.035102
3153.000000	96.044866
3152.000000	96.056772
3151.000000	96.070494
3150.000000	96.083694
3149.000000	96.094417
3148.000000	96.103167
3147.000000	96.112381
3146.000000	96.123822
3145.000000	96.137015
3144.000000	96.150408
3143.000000	96.163299
3142.000000	96.176054
3141.000000	96.189024
3140.000000	96.202033
3139.000000	96.214524
3138.000000	96.225465
3137.000000	96.233562
3136.000000	96.238328
3135.000000	96.240828
3134.000000	96.242746
3133.000000	96.245059
3132.000000	96.248197
3131.000000	96.252743
3130.000000	96.258864
3129.000000	96.265486
3128.000000	96.271430
3127.000000	96.277360
3126.000000	96.285270
3125.000000	96.295661
3124.000000	96.306315
3123.000000	96.314362
3122.000000	96.318801
3121.000000	96.320633
3120.000000	96.321367
3119.000000	96.321999
3118.000000	96.322708
3117.000000	96.323075
3116.000000	96.323121
3115.000000	96.324261
3114.000000	96.328055
3113.000000	96.333290
3112.000000	96.335701
3111.000000	96.332060
3110.000000	96.324170
3109.000000	96.317262
3108.000000	96.314347
3107.000000	96.313517
3106.000000	96.311120
3105.000000	96.306251
3104.000000	96.301170
3103.000000	96.298083
3102.000000	96.296545
3101.000000	96.293949
3100.000000	96.288146
3099.000000	96.279874
3098.000000	96.272906
3097.000000	96.271196
3096.000000	96.275048
3095.000000	96.280214
3094.000000	96.281491
3093.000000	96.277148
3092.000000	96.269344
3091.000000	96.260909
3090.000000	96.253020
3089.000000	96.245989
3088.000000	96.240662
3087.000000	96.237803
3086.000000	96.236540
3085.000000	96.234534
3084.000000	96.230007
3083.000000	96.223288
3082.000000	96.216356
3081.000000	96.211048
3080.000000	96.207675
3079.000000	96.205127
3078.000000	96.202181
3077.000000	96.198467
3076.000000	96.194100
3075.000000	96.188933
3074.000000	96.182986
3073.000000	96.177543
3072.000000	96.174871
3071.000000	96.176324
3070.000000	96.181232
3069.000000	96.187892
3068.000000	96.194911
3067.000000	96.201132
3066.000000	96.205173
3065.000000	96.206270
3064.000000	96.205440
3063.000000	96.205047
3062.000000	96.207228
3061.000000	96.212975
3060.000000	96.222022
3059.000000	96.232664
3058.000000	96.242051
3057.000000	96.248022
3056.000000	96.251177
3055.000000	96.254607
3054.000000	96.261194
3053.000000	96.271365
3052.000000	96.283387
3051.000000	96.295295
3050.000000	96.306472
3049.000000	96.317803
3048.000000	96.330318
3047.000000	96.343580
3046.000000	96.355695
3045.000000	96.365412
3044.000000	96.373929
3043.000000	96.383862
3042.000000	96.396275
3041.000000	96.409298
3040.000000	96.420031
3039.000000	96.427497
3038.000000	96.433576
3037.000000	96.441315
3036.000000	96.452499
3035.000000	96.466466
3034.000000	96.480741
3033.000000	96.492785
3032.000000	96.501456
3031.000000	96.507439
3030.000000	96.512684
3029.000000	96.519256
3028.000000	96.528114
3027.000000	96.538579
3026.000000	96.549180
3025.000000	96.559071
3024.000000	96.568280
3023.000000	96.576688
3022.000000	96.583668
3021.000000	96.589202
3020.000000	96.594506
3019.000000	96.600788
3018.000000	96.607946
3017.000000	96.615085
3016.000000	96.621645
3015.000000	96.627125
3014.000000	96.630270
3013.000000	96.629814
3012.000000	96.625921
3011.000000	96.619991
3010.000000	96.613180
3009.000000	96.605994
3008.000000	96.599200
3007.000000	96.593945
3006.000000	96.590654
3005.000000	96.588353
3004.000000	96.585105
3003.000000	96.578833
3002.000000	96.568214
3001.000000	96.553698
3000.000000	96.537423
2999.000000	96.521254
2998.000000	96.505092
2997.000000	96.487960
2996.000000	96.470195
2995.000000	96.453004
2994.000000	96.435758
2993.000000	96.415571
2992.000000	96.390459
2991.000000	96.361702
2990.000000	96.332096
2989.000000	96.302467
2988.000000	96.270877
2987.000000	96.234951
2986.000000	96.194381
2985.000000	96.151385
2984.000000	96.108890
2983.000000	96.067904
2982.000000	96.026394
2981.000000	95.980981
2980.000000	95.930107
2979.000000	95.875199
2978.000000	95.818913
2977.000000	95.762816
2976.000000	95.706555
2975.000000	95.648333
2974.000000	95.585687
2973.000000	95.516666
2972.000000	95.440963
2971.000000	95.359850
2970.000000	95.275267
2969.000000	95.189542
2968.000000	95.105706
2967.000000	95.026450
2966.000000	94.951821
2965.000000	94.878997
2964.000000	94.805682
2963.000000	94.734056
2962.000000	94.670654
2961.000000	94.622197
2960.000000	94.591394
2959.000000	94.576139
2958.000000	94.572266
2957.000000	94.576821
2956.000000	94.589518
2955.000000	94.611307
2954.000000	94.641945
2953.000000	94.678846
2952.000000	94.717729
2951.000000	94.754154
2950.000000	94.784336
2949.000000	94.805432
2948.000000	94.815259
2947.000000	94.812029
2946.000000	94.794616
2945.000000	94.763364
2944.000000	94.720362
2943.000000	94.667960
2942.000000	94.607206
2941.000000	94.538112
2940.000000	94.461493
2939.000000	94.379645
2938.000000	94.295068
2937.000000	94.209482
2936.000000	94.124363
2935.000000	94.042120
2934.000000	93.966102
2933.000000	93.899566
2932.000000	93.844298
2931.000000	93.799393
2930.000000	93.761273
2929.000000	93.725762
2928.000000	93.691313
2927.000000	93.660412
2926.000000	93.637774
2925.000000	93.627327
2924.000000	93.630495
2923.000000	93.646541
2922.000000	93.673658
2921.000000	93.710068
2920.000000	93.754845
2919.000000	93.807963
2918.000000	93.869985
2917.000000	93.941813
2916.000000	94.024410
2915.000000	94.117579
2914.000000	94.218258
2913.000000	94.320584
2912.000000	94.418585
2911.000000	94.509381
2910.000000	94.593742
2909.000000	94.673902
2908.000000	94.751371
2907.000000	94.826436
2906.000000	94.898951
2905.000000	94.968997
2904.000000	95.036934
2903.000000	95.103100
2902.000000	95.167664
2901.000000	95.230841
2900.000000	95.293235
2899.000000	95.355660
2898.000000	95.418337
2897.000000	95.480299
2896.000000	95.539758
2895.000000	95.595069
2894.000000	95.645595
2893.000000	95.691902
2892.000000	95.735121
2891.000000	95.775742
2890.000000	95.812735
2889.000000	95.844018
2888.000000	95.867889
2887.000000	95.883903
2886.000000	95.892594
2885.000000	95.894865
2884.000000	95.891833
2883.000000	95.884655
2882.000000	95.873725
2881.000000	95.857910
2880.000000	95.834939
2879.000000	95.803083
2878.000000	95.762902
2877.000000	95.717793
2876.000000	95.672720
2875.000000	95.632117
2874.000000	95.598805
2873.000000	95.574430
2872.000000	95.560195
2871.000000	95.556330
2870.000000	95.560798
2869.000000	95.569133
2868.000000	95.576113
2867.000000	95.577802
2866.000000	95.572356
2865.000000	95.559467
2864.000000	95.539325
2863.000000	95.512189
2862.000000	95.478885
2861.000000	95.441702
2860.000000	95.404334
2859.000000	95.370365
2858.000000	95.341624
2857.000000	95.318296
2856.000000	95.300602
2855.000000	95.289994
2854.000000	95.289062
2853.000000	95.300652
2852.000000	95.327272
2851.000000	95.371205
2850.000000	95.434662
2849.000000	95.519165
2848.000000	95.623637
2847.000000	95.742465
2846.000000	95.866059
2845.000000	95.984720
2844.000000	96.092481
2843.000000	96.187797
2842.000000	96.271398
2841.000000	96.344430
2840.000000	96.408541
2839.000000	96.465925
2838.000000	96.518188
2837.000000	96.565371
2836.000000	96.606342
2835.000000	96.639951
2834.000000	96.665937
2833.000000	96.685543
2832.000000	96.701714
2831.000000	96.718070
2830.000000	96.736867
2829.000000	96.757820
2828.000000	96.778774
2827.000000	96.797257
2826.000000	96.811736
2825.000000	96.822293
2824.000000	96.830644
2823.000000	96.839121
2822.000000	96.849222
2821.000000	96.861145
2820.000000	96.874454
2819.000000	96.888559
2818.000000	96.902564
2817.000000	96.915462
2816.000000	96.926899
2815.000000	96.937342
2814.000000	96.947280
2813.000000	96.956701
2812.000000	96.965457
2811.000000	96.973642
2810.000000	96.981508
2809.000000	96.989632
2808.000000	96.999203
2807.000000	97.011178
2806.000000	97.024596
2805.000000	97.036443
2804.000000	97.044023
2803.000000	97.047418
2802.000000	97.049326
2801.000000	97.052892
2800.000000	97.059789
2799.000000	97.069563
2798.000000	97.080145
2797.000000	97.089405
2796.000000	97.096876
2795.000000	97.103806
2794.000000	97.111162
2793.000000	97.118101
2792.000000	97.123071
2791.000000	97.126062
2790.000000	97.129011
2789.000000	97.133991
2788.000000	97.141682
2787.000000	97.151627
2786.000000	97.163186
2785.000000	97.175735
2784.000000	97.188170
2783.000000	97.198782
2782.000000	97.205966
2781.000000	97.209271
2780.000000	97.209860
2779.000000	97.209948
2778.000000	97.211591
2777.000000	97.215660
2776.000000	97.221532
2775.000000	97.227627
2774.000000	97.232574
2773.000000	97.236294
2772.000000	97.239879
2771.000000	97.244191
2770.000000	97.248824
2769.000000	97.252831
2768.000000	97.256174
2767.000000	97.259847
2766.000000	97.264566
2765.000000	97.269895
2764.000000	97.274786
2763.000000	97.278688
2762.000000	97.282164
2761.000000	97.286676
2760.000000	97.293524
2759.000000	97.302384
2758.000000	97.310994
2757.000000	97.316937
2756.000000	97.319841
2755.000000	97.321369
2754.000000	97.323154
2753.000000	97.325417
2752.000000	97.327580
2751.000000	97.329357
2750.000000	97.330889
2749.000000	97.332440
2748.000000	97.334406
2747.000000	97.337175
2746.000000	97.340716
2745.000000	97.344773
2744.000000	97.349655
2743.000000	97.356208
2742.000000	97.364537
2741.000000	97.373191
2740.000000	97.380156
2739.000000	97.384424
2738.000000	97.386265
2737.000000	97.386377
2736.000000	97.385457
2735.000000	97.384649
2734.000000	97.385704
2733.000000	97.389952
2732.000000	97.396888
2731.000000	97.404165
2730.000000	97.409592
2729.000000	97.413305
2728.000000	97.417518
2727.000000	97.423974
2726.000000	97.432203
2725.000000	97.440576
2724.000000	97.448251
2723.000000	97.455122
2722.000000	97.460380
2721.000000	97.462624
2720.000000	97.461828
2719.000000	97.460217
2718.000000	97.460543
2717.000000	97.463766
2716.000000	97.468545
2715.000000	97.472563
2714.000000	97.474166
2713.000000	97.473260
2712.000000	97.471111
2711.000000	97.469360
2710.000000	97.469261
2709.000000	97.471693
2708.000000	97.477099
2707.000000	97.484779
2706.000000	97.492732
2705.000000	97.499018
2704.000000	97.503155
2703.000000	97.505697
2702.000000	97.507056
2701.000000	97.507692
2700.000000	97.508882
2699.000000	97.511782
2698.000000	97.515736
2697.000000	97.518878
2696.000000	97.520592
2695.000000	97.522040
2694.000000	97.523840
2693.000000	97.524690
2692.000000	97.523194
2691.000000	97.520038
2690.000000	97.517355
2689.000000	97.516525
2688.000000	97.517469
2687.000000	97.519613
2686.000000	97.522666
2685.000000	97.526469
2684.000000	97.530529
2683.000000	97.533739
2682.000000	97.534707
2681.000000	97.533032
2680.000000	97.530445
2679.000000	97.529895
2678.000000	97.532836
2677.000000	97.537707
2676.000000	97.541409
2675.000000	97.542027
2674.000000	97.540094
2673.000000	97.537914
2672.000000	97.537949
2671.000000	97.541109
2670.000000	97.545900
2669.000000	97.549498
2668.000000	97.550046
2667.000000	97.547788
2666.000000	97.544017
2665.000000	97.539723
2664.000000	97.535667
2663.000000	97.532944
2662.000000	97.532534
2661.000000	97.534368
2660.000000	97.537257
2659.000000	97.539664
2658.000000	97.540441
2657.000000	97.539359
2656.000000	97.537620
2655.000000	97.537710
2654.000000	97.542084
2653.000000	97.551464
2652.000000	97.563963
2651.000000	97.575763
2650.000000	97.583311
2649.000000	97.586039
2648.000000	97.587269
2647.000000	97.591563
2646.000000	97.600452
2645.000000	97.610984
2644.000000	97.618637
2643.000000	97.621215
2642.000000	97.619960
2641.000000	97.617974
2640.000000	97.618333
2639.000000	97.622941
2638.000000	97.631718
2637.000000	97.642343
2636.000000	97.651318
2635.000000	97.656073
2634.000000	97.656740
2633.000000	97.656178
2632.000000	97.657883
2631.000000	97.663169
2630.000000	97.670389
2629.000000	97.677357
2628.000000	97.684263
2627.000000	97.693295
2626.000000	97.705331
2625.000000	97.717938
2624.000000	97.727049
2623.000000	97.730057
2622.000000	97.727330
2621.000000	97.721765
2620.000000	97.717262
2619.000000	97.716692
2618.000000	97.720397
2617.000000	97.726694
2616.000000	97.733793
2615.000000	97.740701
2614.000000	97.746683
2613.000000	97.751237
2612.000000	97.755003
2611.000000	97.759387
2610.000000	97.764499
2609.000000	97.768494
2608.000000	97.769947
2607.000000	97.770120
2606.000000	97.771760
2605.000000	97.776013
2604.000000	97.781562
2603.000000	97.786534
2602.000000	97.790245
2601.000000	97.792867
2600.000000	97.794366
2599.000000	97.794639
2598.000000	97.794646
2597.000000	97.796734
2596.000000	97.803061
2595.000000	97.813360
2594.000000	97.824435
2593.000000	97.832136
2592.000000	97.834160
2591.000000	97.831504
2590.000000	97.827806
2589.000000	97.826983
2588.000000	97.830303
2587.000000	97.835361
2586.000000	97.838677
2585.000000	97.839386
2584.000000	97.839459
2583.000000	97.840378
2582.000000	97.841474
2581.000000	97.842147
2580.000000	97.843565
2579.000000	97.846642
2578.000000	97.850007
2577.000000	97.851816
2576.000000	97.852214
2575.000000	97.852286
2574.000000	97.852053
2573.000000	97.851686
2572.000000	97.853270
2571.000000	97.858649
2570.000000	97.866464
2569.000000	97.873943
2568.000000	97.880739
2567.000000	97.887940
2566.000000	97.894061
2565.000000	97.895870
2564.000000	97.893863
2563.000000	97.893407
2562.000000	97.898781
2561.000000	97.908295
2560.000000	97.916581
2559.000000	97.920147
2558.000000	97.919557
2557.000000	97.917535
2556.000000	97.916011
2555.000000	97.914453
2554.000000	97.911127
2553.000000	97.906661
2552.000000	97.905133
2551.000000	97.909585
2550.000000	97.917142
2549.000000	97.921224
2548.000000	97.918570
2547.000000	97.911922
2546.000000	97.906119
2545.000000	97.904185
2544.000000	97.906908
2543.000000	97.912736
2542.000000	97.917109
2541.000000	97.914977
2540.000000	97.905736
2539.000000	97.893961
2538.000000	97.884774
2537.000000	97.880520
2536.000000	97.882080
2535.000000	97.889837
2534.000000	97.901478
2533.000000	97.911308
2532.000000	97.914087
2531.000000	97.908758
2530.000000	97.897644
2529.000000	97.883977
2528.000000	97.871269
2527.000000	97.862797
2526.000000	97.859461
2525.000000	97.858960
2524.000000	97.858559
2523.000000	97.858088
2522.000000	97.859641
2521.000000	97.865179
2520.000000	97.874826
2519.000000	97.886240
2518.000000	97.894932
2517.000000	97.896656
2516.000000	97.890896
2515.000000	97.881767
2514.000000	97.875131
2513.000000	97.874939
2512.000000	97.881251
2511.000000	97.890101
2510.000000	97.895745
2509.000000	97.895262
2508.000000	97.891573
2507.000000	97.890576
2506.000000	97.895314
2505.000000	97.904351
2504.000000	97.915127
2503.000000	97.926393
2502.000000	97.937183
2501.000000	97.946043
2500.000000	97.952329
2499.000000	97.956570
2498.000000	97.959114
2497.000000	97.960079
2496.000000	97.960586
2495.000000	97.961823
2494.000000	97.962814
2493.000000	97.962004
2492.000000	97.961615
2491.000000	97.967076
2490.000000	97.980342
2489.000000	97.996198
2488.000000	98.007663
2487.000000	98.013587
2486.000000	98.018718
2485.000000	98.027206
2484.000000	98.037809
2483.000000	98.045593
2482.000000	98.047352
2481.000000	98.044907
2480.000000	98.043085
2479.000000	98.044016
2478.000000	98.044366
2477.000000	98.039664
2476.000000	98.030655
2475.000000	98.023369
2474.000000	98.022715
2473.000000	98.027904
2472.000000	98.034616
2471.000000	98.039961
2470.000000	98.044492
2469.000000	98.050303
2468.000000	98.057592
2467.000000	98.062818
2466.000000	98.061238
2465.000000	98.052599
2464.000000	98.043167
2463.000000	98.039920
2462.000000	98.043455
2461.000000	98.048719
2460.000000	98.051824
2459.000000	98.053068
2458.000000	98.053759
2457.000000	98.053852
2456.000000	98.053513
2455.000000	98.054147
2454.000000	98.056812
2453.000000	98.061809
2452.000000	98.070019
2451.000000	98.081669
2450.000000	98.093174
2449.000000	98.098549
2448.000000	98.095648
2447.000000	98.088752
2446.000000	98.083756
2445.000000	98.083037
2444.000000	98.085822
2443.000000	98.090355
2442.000000	98.093951
2441.000000	98.093581
2440.000000	98.088985
2439.000000	98.083795
2438.000000	98.081768
2437.000000	98.083059
2436.000000	98.085362
2435.000000	98.087097
2434.000000	98.087984
2433.000000	98.088009
2432.000000	98.087606
2431.000000	98.088078
2430.000000	98.090576
2429.000000	98.095131
2428.000000	98.101214
2427.000000	98.108314
2426.000000	98.115434
2425.000000	98.121015
2424.000000	98.123864
2423.000000	98.123385
2422.000000	98.119056
2421.000000	98.111131
2420.000000	98.101957
2419.000000	98.095009
2418.000000	98.092159
2417.000000	98.092894
2416.000000	98.095997
2415.000000	98.100530
2414.000000	98.105375
2413.000000	98.109735
2412.000000	98.114376
2411.000000	98.120738
2410.000000	98.128520
2409.000000	98.135490
2408.000000	98.139727
2407.000000	98.140693
2406.000000	98.138341
2405.000000	98.132800
2404.000000	98.125049
2403.000000	98.116664
2402.000000	98.109213
2401.000000	98.104754
2400.000000	98.105416
2399.000000	98.110511
2398.000000	98.115531
2397.000000	98.116716
2396.000000	98.115549
2395.000000	98.116048
2394.000000	98.118711
2393.000000	98.120766
2392.000000	98.121757
2391.000000	98.124802
2390.000000	98.131856
2389.000000	98.141314
2388.000000	98.151290
2387.000000	98.161824
2386.000000	98.173144
2385.000000	98.184631
2384.000000	98.196565
2383.000000	98.209955
2382.000000	98.222814
2381.000000	98.230001
2380.000000	98.228494
2379.000000	98.220707
2378.000000	98.211080
2377.000000	98.201653
2376.000000	98.193136
2375.000000	98.187664
2374.000000	98.187604
2373.000000	98.192722
2372.000000	98.201157
2371.000000	98.211837
2370.000000	98.223941
2369.000000	98.235261
2368.000000	98.242377
2367.000000	98.242557
2366.000000	98.234762
2365.000000	98.220508
2364.000000	98.204817
2363.000000	98.193726
2362.000000	98.189583
2361.000000	98.189914
2360.000000	98.190576
2359.000000	98.189486
2358.000000	98.187494
2357.000000	98.186548
2356.000000	98.186158
2355.000000	98.184053
2354.000000	98.180667
2353.000000	98.177810
2352.000000	98.175657
2351.000000	98.173811
2350.000000	98.172326
2349.000000	98.170361
2348.000000	98.167166
2347.000000	98.163377
2346.000000	98.158420
2345.000000	98.150104
2344.000000	98.140947
2343.000000	98.138136
2342.000000	98.143441
2341.000000	98.151124
2340.000000	98.154998
2339.000000	98.152879
2338.000000	98.146151
2337.000000	98.137489
2336.000000	98.130083
2335.000000	98.127016
2334.000000	98.129270
2333.000000	98.133300
2332.000000	98.133172
2331.000000	98.127814
2330.000000	98.122866
2329.000000	98.122161
2328.000000	98.119818
2327.000000	98.104938
2326.000000	98.073993
2325.000000	98.036596
2324.000000	98.009660
2323.000000	98.004947
2322.000000	98.020474
2321.000000	98.043960
2320.000000	98.064041
2319.000000	98.077220
2318.000000	98.085987
2317.000000	98.094671
2316.000000	98.107109
2315.000000	98.124431
2314.000000	98.143396
2313.000000	98.159039
2312.000000	98.169291
2311.000000	98.175272
2310.000000	98.177455
2309.000000	98.175116
2308.000000	98.170257
2307.000000	98.167790
2306.000000	98.169710
2305.000000	98.171945
2304.000000	98.169427
2303.000000	98.161948
2302.000000	98.153107
2301.000000	98.145429
2300.000000	98.139153
2299.000000	98.134260
2298.000000	98.131148
2297.000000	98.129543
2296.000000	98.127811
2295.000000	98.123853
2294.000000	98.116574
2293.000000	98.107484
2292.000000	98.100878
2291.000000	98.101338
2290.000000	98.110099
2289.000000	98.123683
2288.000000	98.135413
2287.000000	98.138140
2286.000000	98.127955
2285.000000	98.108352
2284.000000	98.090192
2283.000000	98.084162
2282.000000	98.092675
2281.000000	98.110132
2280.000000	98.129668
2279.000000	98.146995
2278.000000	98.159583
2277.000000	98.166916
2276.000000	98.171831
2275.000000	98.178048
2274.000000	98.186149
2273.000000	98.194422
2272.000000	98.202304
2271.000000	98.209746
2270.000000	98.215156
2269.000000	98.218393
2268.000000	98.223740
2267.000000	98.234328
2266.000000	98.244928
2265.000000	98.246600
2264.000000	98.238278
2263.000000	98.227719
2262.000000	98.220868
2261.000000	98.215805
2260.000000	98.207185
2259.000000	98.192063
2258.000000	98.172090
2257.000000	98.154698
2256.000000	98.150327
2255.000000	98.162562
2254.000000	98.182540
2253.000000	98.198719
2252.000000	98.209408
2251.000000	98.219038
2250.000000	98.226506
2249.000000	98.227096
2248.000000	98.223274
2247.000000	98.222506
2246.000000	98.225612
2245.000000	98.228280
2244.000000	98.233270
2243.000000	98.248237
2242.000000	98.269823
2241.000000	98.282659
2240.000000	98.278229
2239.000000	98.264123
2238.000000	98.250972
2237.000000	98.241471
2236.000000	98.236337
2235.000000	98.239639
2234.000000	98.251701
2233.000000	98.265312
2232.000000	98.274554
2231.000000	98.279853
2230.000000	98.280733
2229.000000	98.273483
2228.000000	98.261299
2227.000000	98.256870
2226.000000	98.267811
2225.000000	98.286364
2224.000000	98.299336
2223.000000	98.302384
2222.000000	98.300416
2221.000000	98.300392
2220.000000	98.307134
2219.000000	98.319376
2218.000000	98.327314
2217.000000	98.321373
2216.000000	98.305697
2215.000000	98.294886
2214.000000	98.296246
2213.000000	98.305032
2212.000000	98.318123
2211.000000	98.339706
2210.000000	98.367848
2209.000000	98.387193
2208.000000	98.384178
2207.000000	98.363077
2206.000000	98.340410
2205.000000	98.328383
2204.000000	98.327111
2203.000000	98.327378
2202.000000	98.318554
2201.000000	98.299045
2200.000000	98.279924
2199.000000	98.273377
2198.000000	98.279760
2197.000000	98.292896
2196.000000	98.313070
2195.000000	98.342812
2194.000000	98.373520
2193.000000	98.391076
2192.000000	98.394417
2191.000000	98.392903
2190.000000	98.385730
2189.000000	98.363756
2188.000000	98.334622
2187.000000	98.325077
2186.000000	98.349311
2185.000000	98.391320
2184.000000	98.428934
2183.000000	98.461325
2182.000000	98.499181
2181.000000	98.537980
2180.000000	98.556518
2179.000000	98.539106
2178.000000	98.492348
2177.000000	98.443865
2176.000000	98.424403
2175.000000	98.442091
2174.000000	98.473852
2173.000000	98.489750
2172.000000	98.483015
2171.000000	98.468411
2170.000000	98.459484
2169.000000	98.459675
2168.000000	98.467115
2167.000000	98.473105
2166.000000	98.463326
2165.000000	98.438275
2164.000000	98.424651
2163.000000	98.443441
2162.000000	98.478041
2161.000000	98.504130
2160.000000	98.541122
2159.000000	98.628923
2158.000000	98.748264
2157.000000	98.826021
2156.000000	98.830022
2155.000000	98.795451
2154.000000	98.760158
2153.000000	98.727707
2152.000000	98.690567
2151.000000	98.650125
2150.000000	98.610652
2149.000000	98.580739
2148.000000	98.581028
2147.000000	98.622626
2146.000000	98.675690
2145.000000	98.687827
2144.000000	98.641916
2143.000000	98.571187
2142.000000	98.513383
2141.000000	98.477148
2140.000000	98.457039
2139.000000	98.453146
2138.000000	98.462759
2137.000000	98.473215
2136.000000	98.477674
2135.000000	98.483763
2134.000000	98.496000
2133.000000	98.504258
2132.000000	98.499126
2131.000000	98.484783
2130.000000	98.468288
2129.000000	98.448935
2128.000000	98.426265
2127.000000	98.407946
2126.000000	98.400790
2125.000000	98.399965
2124.000000	98.394201
2123.000000	98.377785
2122.000000	98.353922
2121.000000	98.331198
2120.000000	98.318544
2119.000000	98.317430
2118.000000	98.316810
2117.000000	98.302267
2116.000000	98.272940
2115.000000	98.243236
2114.000000	98.226388
2113.000000	98.223584
2112.000000	98.230150
2111.000000	98.242942
2110.000000	98.257335
2109.000000	98.265464
2108.000000	98.264045
2107.000000	98.258818
2106.000000	98.256912
2105.000000	98.259743
2104.000000	98.265980
2103.000000	98.275130
2102.000000	98.285297
2101.000000	98.292928
2100.000000	98.297142
2099.000000	98.300282
2098.000000	98.304388
2097.000000	98.312929
2096.000000	98.332791
2095.000000	98.364557
2094.000000	98.393045
2093.000000	98.399384
2092.000000	98.382584
2091.000000	98.358223
2090.000000	98.337839
2089.000000	98.321966
2088.000000	98.311953
2087.000000	98.313624
2086.000000	98.325888
2085.000000	98.338743
2084.000000	98.346627
2083.000000	98.352466
2082.000000	98.355660
2081.000000	98.349952
2080.000000	98.337856
2079.000000	98.333112
2078.000000	98.341461
2077.000000	98.351748
2076.000000	98.353221
2075.000000	98.349191
2074.000000	98.347152
2073.000000	98.347623
2072.000000	98.350979
2071.000000	98.362203
2070.000000	98.378909
2069.000000	98.386948
2068.000000	98.378649
2067.000000	98.365636
2066.000000	98.364299
2065.000000	98.377411
2064.000000	98.397217
2063.000000	98.416880
2062.000000	98.430625
2061.000000	98.433106
2060.000000	98.427228
2059.000000	98.422829
2058.000000	98.421663
2057.000000	98.415304
2056.000000	98.403061
2055.000000	98.397533
2054.000000	98.404139
2053.000000	98.409244
2052.000000	98.399799
2051.000000	98.382318
2050.000000	98.371860
2049.000000	98.373567
2048.000000	98.386554
2047.000000	98.415003
2046.000000	98.459464
2045.000000	98.504524
2044.000000	98.529762
2043.000000	98.528434
2042.000000	98.507981
2041.000000	98.482594
2040.000000	98.469308
2039.000000	98.475996
2038.000000	98.489449
2037.000000	98.491207
2036.000000	98.488646
2035.000000	98.509365
2034.000000	98.557900
2033.000000	98.604271
2032.000000	98.626147
2031.000000	98.632241
2030.000000	98.629279
2029.000000	98.600429
2028.000000	98.540609
2027.000000	98.485110
2026.000000	98.478006
2025.000000	98.525018
2024.000000	98.591868
2023.000000	98.638398
2022.000000	98.643875
2021.000000	98.615496
2020.000000	98.584576
2019.000000	98.581023
2018.000000	98.604010
2017.000000	98.627830
2016.000000	98.636644
2015.000000	98.634701
2014.000000	98.624545
2013.000000	98.604916
2012.000000	98.592089
2011.000000	98.613579
2010.000000	98.673329
2009.000000	98.743509
2008.000000	98.794750
2007.000000	98.814004
2006.000000	98.793936
2005.000000	98.736841
2004.000000	98.672518
2003.000000	98.638146
2002.000000	98.634671
2001.000000	98.629733
2000.000000	98.603443
1999.000000	98.569182
1998.000000	98.546938
1997.000000	98.540605
1996.000000	98.548627
1995.000000	98.571930
1994.000000	98.600957
1993.000000	98.613028
1992.000000	98.596740
1991.000000	98.565068
1990.000000	98.534068
1989.000000	98.508314
1988.000000	98.492978
1987.000000	98.494466
1986.000000	98.502580
1985.000000	98.495032
1984.000000	98.467401
1983.000000	98.438557
1982.000000	98.421031
1981.000000	98.411332
1980.000000	98.413924
1979.000000	98.448103
1978.000000	98.516949
1977.000000	98.592381
1976.000000	98.651690
1975.000000	98.702402
1974.000000	98.753726
1973.000000	98.795163
1972.000000	98.817674
1971.000000	98.825529
1970.000000	98.817428
1969.000000	98.785176
1968.000000	98.741132
1967.000000	98.717942
1966.000000	98.728194
1965.000000	98.750858
1964.000000	98.765659
1963.000000	98.771633
1962.000000	98.768329
1961.000000	98.749864
1960.000000	98.724908
1959.000000	98.715312
1958.000000	98.725977
1957.000000	98.738952
1956.000000	98.741138
1955.000000	98.735307
1954.000000	98.723078
1953.000000	98.700706
1952.000000	98.677887
1951.000000	98.675389
1950.000000	98.695906
1949.000000	98.719086
1948.000000	98.728777
1947.000000	98.726026
1946.000000	98.712786
1945.000000	98.686013
1944.000000	98.654179
1943.000000	98.637439
1942.000000	98.640435
1941.000000	98.645857
1940.000000	98.643729
1939.000000	98.641955
1938.000000	98.643250
1937.000000	98.635514
1936.000000	98.612690
1935.000000	98.588303
1934.000000	98.578287
1933.000000	98.582040
1932.000000	98.590493
1931.000000	98.597139
1930.000000	98.595095
1929.000000	98.581952
1928.000000	98.568377
1927.000000	98.571422
1926.000000	98.590280
1925.000000	98.605284
1924.000000	98.607111
1923.000000	98.607006
1922.000000	98.614746
1921.000000	98.623134
1920.000000	98.623568
1919.000000	98.620574
1918.000000	98.619636
1917.000000	98.615956
1916.000000	98.606910
1915.000000	98.599847
1914.000000	98.601680
1913.000000	98.610618
1912.000000	98.622253
1911.000000	98.632996
1910.000000	98.634808
1909.000000	98.620090
1908.000000	98.594189
1907.000000	98.574950
1906.000000	98.571667
1905.000000	98.578516
1904.000000	98.590504
1903.000000	98.605589
1902.000000	98.615669
1901.000000	98.611954
1900.000000	98.600971
1899.000000	98.601872
1898.000000	98.621176
1897.000000	98.644808
1896.000000	98.661672
1895.000000	98.676549
1894.000000	98.693382
1893.000000	98.702849
1892.000000	98.696471
1891.000000	98.679231
1890.000000	98.661195
1889.000000	98.646508
1888.000000	98.637330
1887.000000	98.637351
1886.000000	98.644655
1885.000000	98.650908
1884.000000	98.653232
1883.000000	98.657101
1882.000000	98.664325
1881.000000	98.669910
1880.000000	98.672242
1879.000000	98.677328
1878.000000	98.686884
1877.000000	98.691267
1876.000000	98.685813
1875.000000	98.681771
1874.000000	98.690082
1873.000000	98.707065
1872.000000	98.724398
1871.000000	98.742031
1870.000000	98.761913
1869.000000	98.774904
1868.000000	98.769028
1867.000000	98.747048
1866.000000	98.719456
1865.000000	98.691940
1864.000000	98.668670
1863.000000	98.654736
1862.000000	98.650897
1861.000000	98.652687
1860.000000	98.657859
1859.000000	98.668502
1858.000000	98.683528
1857.000000	98.696125
1856.000000	98.702380
1855.000000	98.704689
1854.000000	98.703265
1853.000000	98.697903
1852.000000	98.691521
1851.000000	98.689648
1850.000000	98.696852
1849.000000	98.711290
1848.000000	98.728619
1847.000000	98.743655
1846.000000	98.750332
1845.000000	98.744798
1844.000000	98.732535
1843.000000	98.723866
1842.000000	98.718695
1841.000000	98.709568
1840.000000	98.697201
1839.000000	98.690715
1838.000000	98.690384
1837.000000	98.687763
1836.000000	98.686249
1835.000000	98.700169
1834.000000	98.732111
1833.000000	98.766431
1832.000000	98.785349
1831.000000	98.787909
1830.000000	98.784619
1829.000000	98.775057
1828.000000	98.753021
1827.000000	98.723396
1826.000000	98.700839
1825.000000	98.693317
1824.000000	98.695042
1823.000000	98.698079
1822.000000	98.700454
1821.000000	98.702536
1820.000000	98.704262
1819.000000	98.708112
1818.000000	98.714178
1817.000000	98.718549
1816.000000	98.722466
1815.000000	98.729945
1814.000000	98.738967
1813.000000	98.737891
1812.000000	98.720428
1811.000000	98.699075
1810.000000	98.687231
1809.000000	98.683037
1808.000000	98.678893
1807.000000	98.673708
1806.000000	98.667913
1805.000000	98.657847
1804.000000	98.643979
1803.000000	98.632502
1802.000000	98.628553
1801.000000	98.624710
1800.000000	98.609053
1799.000000	98.585550
1798.000000	98.568809
1797.000000	98.569459
1796.000000	98.586081
1795.000000	98.606707
1794.000000	98.618543
1793.000000	98.616096
1792.000000	98.607780
1791.000000	98.609329
1790.000000	98.622147
1789.000000	98.635075
1788.000000	98.642140
1787.000000	98.648816
1786.000000	98.662576
1785.000000	98.683793
1784.000000	98.707136
1783.000000	98.722399
1782.000000	98.725824
1781.000000	98.720934
1780.000000	98.713666
1779.000000	98.713292
1778.000000	98.724551
1777.000000	98.748842
1776.000000	98.780422
1775.000000	98.807606
1774.000000	98.822324
1773.000000	98.821980
1772.000000	98.806941
1771.000000	98.780630
1770.000000	98.739809
1769.000000	98.682470
1768.000000	98.628979
1767.000000	98.602843
1766.000000	98.598043
1765.000000	98.582716
1764.000000	98.534496
1763.000000	98.458671
1762.000000	98.376069
1761.000000	98.294135
1760.000000	98.201337
1759.000000	98.079846
1758.000000	97.913189
1757.000000	97.703739
1756.000000	97.479450
1755.000000	97.269506
1754.000000	97.064566
1753.000000	96.829776
1752.000000	96.545962
1751.000000	96.234702
1750.000000	95.929126
1749.000000	95.633531
1748.000000	95.352352
1747.000000	95.110102
1746.000000	94.919623
1745.000000	94.767265
1744.000000	94.649231
1743.000000	94.580966
1742.000000	94.558066
1741.000000	94.553849
1740.000000	94.574928
1739.000000	94.657596
1738.000000	94.788575
1737.000000	94.915695
1736.000000	95.022486
1735.000000	95.163435
1734.000000	95.390610
1733.000000	95.647459
1732.000000	95.864889
1731.000000	96.056191
1730.000000	96.251598
1729.000000	96.457743
1728.000000	96.662708
1727.000000	96.856509
1726.000000	97.039007
1725.000000	97.207785
1724.000000	97.369901
1723.000000	97.542183
1722.000000	97.717881
1721.000000	97.866875
1720.000000	97.971445
1719.000000	98.051003
1718.000000	98.133498
1717.000000	98.204015
1716.000000	98.237108
1715.000000	98.244341
1714.000000	98.237907
1713.000000	98.215002
1712.000000	98.182130
1711.000000	98.155346
1710.000000	98.143730
1709.000000	98.138677
1708.000000	98.117683
1707.000000	98.067194
1706.000000	97.996925
1705.000000	97.930075
1704.000000	97.880532
1703.000000	97.830731
1702.000000	97.749676
1701.000000	97.612674
1700.000000	97.448499
1699.000000	97.318059
1698.000000	97.189817
1697.000000	96.990863
1696.000000	96.744764
1695.000000	96.547547
1694.000000	96.430563
1693.000000	96.333884
1692.000000	96.216046
1691.000000	96.086087
1690.000000	95.963346
1689.000000	95.858300
1688.000000	95.769754
1687.000000	95.688671
1686.000000	95.590228
1685.000000	95.422636
1684.000000	95.193449
1683.000000	94.993255
1682.000000	94.838433
1681.000000	94.683116
1680.000000	94.530857
1679.000000	94.404648
1678.000000	94.294327
1677.000000	94.159839
1676.000000	93.983251
1675.000000	93.800476
1674.000000	93.657366
1673.000000	93.540382
1672.000000	93.406085
1671.000000	93.233070
1670.000000	93.017491
1669.000000	92.781342
1668.000000	92.568549
1667.000000	92.406765
1666.000000	92.278922
1665.000000	92.141035
1664.000000	91.962032
1663.000000	91.749910
1662.000000	91.542684
1661.000000	91.361816
1660.000000	91.200677
1659.000000	91.064120
1658.000000	90.964391
1657.000000	90.893128
1656.000000	90.814068
1655.000000	90.692294
1654.000000	90.485331
1653.000000	90.225847
1652.000000	90.066329
1651.000000	90.038782
1650.000000	90.040032
1649.000000	90.001940
1648.000000	89.905465
1647.000000	89.782058
1646.000000	89.683268
1645.000000	89.620178
1644.000000	89.576318
1643.000000	89.542176
1642.000000	89.520597
1641.000000	89.521146
1640.000000	89.543106
1639.000000	89.575627
1638.000000	89.599886
1637.000000	89.596120
1636.000000	89.561526
1635.000000	89.526926
1634.000000	89.515803
1633.000000	89.516945
1632.000000	89.525767
1631.000000	89.552149
1630.000000	89.603003
1629.000000	89.674125
1628.000000	89.762050
1627.000000	89.863665
1626.000000	89.970471
1625.000000	90.074960
1624.000000	90.185045
1623.000000	90.319467
1622.000000	90.474936
1621.000000	90.626530
1620.000000	90.757096
1619.000000	90.872026
1618.000000	90.997125
1617.000000	91.164374
1616.000000	91.366495
1615.000000	91.554778
1614.000000	91.703457
1613.000000	91.829429
1612.000000	91.964321
1611.000000	92.120544
1610.000000	92.283270
1609.000000	92.437327
1608.000000	92.584532
1607.000000	92.727733
1606.000000	92.862733
1605.000000	92.989779
1604.000000	93.111309
1603.000000	93.225058
1602.000000	93.323944
1601.000000	93.408074
1600.000000	93.486378
1599.000000	93.563675
1598.000000	93.636494
1597.000000	93.701643
1596.000000	93.761460
1595.000000	93.816129
1594.000000	93.860390
1593.000000	93.892765
1592.000000	93.918391
1591.000000	93.939727
1590.000000	93.953755
1589.000000	93.960492
1588.000000	93.963565
1587.000000	93.961436
1586.000000	93.947214
1585.000000	93.925005
1584.000000	93.904079
1583.000000	93.883262
1582.000000	93.860258
1581.000000	93.841760
1580.000000	93.830381
1579.000000	93.810042
1578.000000	93.758856
1577.000000	93.669965
1576.000000	93.575162
1575.000000	93.514299
1574.000000	93.483408
1573.000000	93.454362
1572.000000	93.410616
1571.000000	93.340684
1570.000000	93.234033
1569.000000	93.113795
1568.000000	93.014088
1567.000000	92.929540
1566.000000	92.835662
1565.000000	92.733749
1564.000000	92.647815
1563.000000	92.592291
1562.000000	92.556540
1561.000000	92.521908
1560.000000	92.424129
1559.000000	92.213267
1558.000000	91.992724
1557.000000	91.832096
1556.000000	91.685286
1555.000000	91.531060
1554.000000	91.386434
1553.000000	91.264130
1552.000000	91.149790
1551.000000	91.032135
1550.000000	90.918823
1549.000000	90.823319
1548.000000	90.748697
1547.000000	90.685735
1546.000000	90.632234
1545.000000	90.597138
1544.000000	90.586612
1543.000000	90.588858
1542.000000	90.568056
1541.000000	90.483212
1540.000000	90.359435
1539.000000	90.276825
1538.000000	90.258138
1537.000000	90.264898
1536.000000	90.267132
1535.000000	90.258904
1534.000000	90.253159
1533.000000	90.257366
1532.000000	90.265111
1531.000000	90.276412
1530.000000	90.294848
1529.000000	90.318280
1528.000000	90.347880
1527.000000	90.393468
1526.000000	90.459706
1525.000000	90.527925
1524.000000	90.569154
1523.000000	90.575455
1522.000000	90.573131
1521.000000	90.597432
1520.000000	90.644320
1519.000000	90.681003
1518.000000	90.690452
1517.000000	90.687657
1516.000000	90.700865
1515.000000	90.734183
1514.000000	90.777201
1513.000000	90.833155
1512.000000	90.918882
1511.000000	91.039396
1510.000000	91.171969
1509.000000	91.286726
1508.000000	91.371100
1507.000000	91.448165
1506.000000	91.529274
1505.000000	91.598581
1504.000000	91.659092
1503.000000	91.720379
1502.000000	91.790129
1501.000000	91.873543
1500.000000	91.961383
1499.000000	92.040152
1498.000000	92.103977
1497.000000	92.154371
1496.000000	92.207741
1495.000000	92.282695
1494.000000	92.371703
1493.000000	92.451905
1492.000000	92.514049
1491.000000	92.567933
1490.000000	92.616877
1489.000000	92.641003
1488.000000	92.631888
1487.000000	92.611266
1486.000000	92.590884
1485.000000	92.566340
1484.000000	92.531401
1483.000000	92.485333
1482.000000	92.431257
1481.000000	92.368364
1480.000000	92.299673
1479.000000	92.229295
1478.000000	92.154671
1477.000000	92.067150
1476.000000	91.969146
1475.000000	91.863456
1474.000000	91.726386
1473.000000	91.523590
1472.000000	91.278772
1471.000000	91.063985
1470.000000	90.899184
1469.000000	90.758844
1468.000000	90.629614
1467.000000	90.507557
1466.000000	90.378995
1465.000000	90.235454
1464.000000	90.098924
1463.000000	90.003949
1462.000000	89.951938
1461.000000	89.918472
1460.000000	89.874474
1459.000000	89.787012
1458.000000	89.613836
1457.000000	89.364214
1456.000000	89.153794
1455.000000	89.045267
1454.000000	88.982197
1453.000000	88.916637
1452.000000	88.852895
1451.000000	88.808020
1450.000000	88.773750
1449.000000	88.728168
1448.000000	88.674538
1447.000000	88.632715
1446.000000	88.608120
1445.000000	88.591143
1444.000000	88.571781
1443.000000	88.552651
1442.000000	88.539029
1441.000000	88.532909
1440.000000	88.529657
1439.000000	88.518703
1438.000000	88.483836
1437.000000	88.419561
1436.000000	88.360009
1435.000000	88.342463
1434.000000	88.356478
1433.000000	88.374167
1432.000000	88.386016
1431.000000	88.388972
1430.000000	88.374525
1429.000000	88.338741
1428.000000	88.298011
1427.000000	88.265346
1426.000000	88.235466
1425.000000	88.205604
1424.000000	88.186769
1423.000000	88.188894
1422.000000	88.197155
1421.000000	88.186862
1420.000000	88.148872
1419.000000	88.100533
1418.000000	88.066501
1417.000000	88.049226
1416.000000	88.043740
1415.000000	88.052368
1414.000000	88.074289
1413.000000	88.102462
1412.000000	88.134006
1411.000000	88.173628
1410.000000	88.223042
1409.000000	88.277602
1408.000000	88.336898
1407.000000	88.399858
1406.000000	88.457543
1405.000000	88.506286
1404.000000	88.555485
1403.000000	88.613989
1402.000000	88.673269
1401.000000	88.720197
1400.000000	88.757218
1399.000000	88.798612
1398.000000	88.847229
1397.000000	88.890754
1396.000000	88.924269
1395.000000	88.954415
1394.000000	88.988723
1393.000000	89.032093
1392.000000	89.087718
1391.000000	89.154527
1390.000000	89.224461
1389.000000	89.290587
1388.000000	89.358100
1387.000000	89.437577
1386.000000	89.525822
1385.000000	89.611634
1384.000000	89.693250
1383.000000	89.777411
1382.000000	89.865580
1381.000000	89.953953
1380.000000	90.046853
1379.000000	90.154021
1378.000000	90.275865
1377.000000	90.402874
1376.000000	90.529811
1375.000000	90.658290
1374.000000	90.786806
1373.000000	90.907858
1372.000000	91.018384
1371.000000	91.120744
1370.000000	91.216875
1369.000000	91.311114
1368.000000	91.408649
1367.000000	91.510321
1366.000000	91.610158
1365.000000	91.701739
1364.000000	91.783612
1363.000000	91.857254
1362.000000	91.922895
1361.000000	91.981157
1360.000000	92.035021
1359.000000	92.085447
1358.000000	92.130357
1357.000000	92.169327
1356.000000	92.204670
1355.000000	92.237852
1354.000000	92.268014
1353.000000	92.293886
1352.000000	92.316457
1351.000000	92.335429
1350.000000	92.347849
1349.000000	92.353120
1348.000000	92.351427
1347.000000	92.341034
1346.000000	92.318980
1345.000000	92.287458
1344.000000	92.253516
1343.000000	92.221199
1342.000000	92.187071
1341.000000	92.145893
1340.000000	92.097769
1339.000000	92.048445
1338.000000	92.004831
1337.000000	91.972224
1336.000000	91.954179
1335.000000	91.951913
1334.000000	91.964400
1333.000000	91.991141
1332.000000	92.032759
1331.000000	92.087171
1330.000000	92.148258
1329.000000	92.210504
1328.000000	92.272818
1327.000000	92.334934
1326.000000	92.393745
1325.000000	92.446110
1324.000000	92.491386
1323.000000	92.530943
1322.000000	92.566356
1321.000000	92.599396
1320.000000	92.631604
1319.000000	92.663333
1318.000000	92.694395
1317.000000	92.726260
1316.000000	92.761983
1315.000000	92.803468
1314.000000	92.850202
1313.000000	92.900088
1312.000000	92.950387
1311.000000	92.998633
1310.000000	93.044934
1309.000000	93.092619
1308.000000	93.145143
1307.000000	93.202188
1306.000000	93.260497
1305.000000	93.318121
1304.000000	93.374611
1303.000000	93.429054
1302.000000	93.480378
1301.000000	93.529723
1300.000000	93.579551
1299.000000	93.630865
1298.000000	93.682520
1297.000000	93.732242
1296.000000	93.776280
1295.000000	93.809312
1294.000000	93.828359
1293.000000	93.835908
1292.000000	93.837427
1291.000000	93.836728
1290.000000	93.834542
1289.000000	93.830174
1288.000000	93.822386
1287.000000	93.810027
1286.000000	93.794245
1285.000000	93.778769
1284.000000	93.766677
1283.000000	93.758407
1282.000000	93.753674
1281.000000	93.752962
1280.000000	93.754526
1279.000000	93.752142
1278.000000	93.739519
1277.000000	93.715990
1276.000000	93.685346
1275.000000	93.649550
1274.000000	93.607185
1273.000000	93.556990
1272.000000	93.499187
1271.000000	93.433263
1270.000000	93.357256
1269.000000	93.271055
1268.000000	93.178113
1267.000000	93.081963
1266.000000	92.982425
1265.000000	92.876177
1264.000000	92.761296
1263.000000	92.640779
1262.000000	92.521820
1261.000000	92.411967
1260.000000	92.314671
1259.000000	92.226971
1258.000000	92.142400
1257.000000	92.058097
1256.000000	91.978538
1255.000000	91.911257
1254.000000	91.859311
1253.000000	91.818502
1252.000000	91.781007
1251.000000	91.739545
1250.000000	91.690075
1249.000000	91.633712
1248.000000	91.575510
1247.000000	91.519246
1246.000000	91.463875
1245.000000	91.406723
1244.000000	91.348957
1243.000000	91.295282
1242.000000	91.249723
1241.000000	91.214561
1240.000000	91.192280
1239.000000	91.184729
1238.000000	91.190370
1237.000000	91.206987
1236.000000	91.236107
1235.000000	91.280891
1234.000000	91.340357
1233.000000	91.408905
1232.000000	91.482868
1231.000000	91.564063
1230.000000	91.657343
1229.000000	91.767651
1228.000000	91.897424
1227.000000	92.044284
1226.000000	92.201129
1225.000000	92.360822
1224.000000	92.520396
1223.000000	92.678761
1222.000000	92.832666
1221.000000	92.977078
1220.000000	93.108193
1219.000000	93.224759
1218.000000	93.328587
1217.000000	93.423630
1216.000000	93.512041
1215.000000	93.590762
1214.000000	93.653974
1213.000000	93.700483
1212.000000	93.735075
1211.000000	93.761587
1210.000000	93.778134
1209.000000	93.780398
1208.000000	93.768165
1207.000000	93.746294
1206.000000	93.721056
1205.000000	93.697594
1204.000000	93.678934
1203.000000	93.665236
1202.000000	93.654410
1201.000000	93.645369
1200.000000	93.639936
1199.000000	93.640087
1198.000000	93.644716
1197.000000	93.651286
1196.000000	93.659621
1195.000000	93.671068
1194.000000	93.684459
1193.000000	93.695677
1192.000000	93.701569
1191.000000	93.702373
1190.000000	93.700061
1189.000000	93.695554
1188.000000	93.687760
1187.000000	93.674125
1186.000000	93.651810
1185.000000	93.619894
1184.000000	93.580145
1183.000000	93.534901
1182.000000	93.484355
1181.000000	93.426453
1180.000000	93.359736
1179.000000	93.284820
1178.000000	93.203706
1177.000000	93.119534
1176.000000	93.036669
1175.000000	92.958789
1174.000000	92.885782
1173.000000	92.814367
1172.000000	92.742347
1171.000000	92.670767
1170.000000	92.601706
1169.000000	92.536316
1168.000000	92.475657
1167.000000	92.420948
1166.000000	92.372790
1165.000000	92.331793
1164.000000	92.300424
1163.000000	92.282387
1162.000000	92.279511
1161.000000	92.292598
1160.000000	92.324015
1159.000000	92.376122
1158.000000	92.447878
1157.000000	92.535525
1156.000000	92.637664
1155.000000	92.755411
1154.000000	92.888040
1153.000000	93.032959
1152.000000	93.188847
1151.000000	93.355709
1150.000000	93.530886
1149.000000	93.708451
1148.000000	93.883638
1147.000000	94.055490
1146.000000	94.225298
1145.000000	94.393866
1144.000000	94.559860
1143.000000	94.719077
1142.000000	94.866564
1141.000000	95.000739
1140.000000	95.124768
1139.000000	95.243048
1138.000000	95.356321
1137.000000	95.461649
1136.000000	95.555504
1135.000000	95.635528
1134.000000	95.700849
1133.000000	95.752004
1132.000000	95.791504
1131.000000	95.822495
1130.000000	95.845794
1129.000000	95.860012
1128.000000	95.865290
1127.000000	95.866203
1126.000000	95.868087
1125.000000	95.870521
1124.000000	95.867937
1123.000000	95.857063
1122.000000	95.840998
1121.000000	95.823384
1120.000000	95.800622
1119.000000	95.763656
1118.000000	95.706073
1117.000000	95.628231
1116.000000	95.534174
1115.000000	95.427699
1114.000000	95.312841
1113.000000	95.195936
1112.000000	95.085977
1111.000000	94.992139
1110.000000	94.920487
1109.000000	94.872638
1108.000000	94.847768
1107.000000	94.843844
1106.000000	94.854906
1105.000000	94.870305
1104.000000	94.879712
1103.000000	94.879708
1102.000000	94.872913
1101.000000	94.860527
1100.000000	94.838688
1099.000000	94.803385
1098.000000	94.756310
1097.000000	94.703493
1096.000000	94.650595
1095.000000	94.601242
1094.000000	94.558001
1093.000000	94.522759
1092.000000	94.497672
1091.000000	94.486586
1090.000000	94.493514
1089.000000	94.517089
1088.000000	94.548695
1087.000000	94.579585
1086.000000	94.609085
1085.000000	94.644150
1084.000000	94.690763
1083.000000	94.748513
1082.000000	94.813444
1081.000000	94.882325
1080.000000	94.953452
1079.000000	95.026227
1078.000000	95.101849
1077.000000	95.181928
1076.000000	95.264336
1075.000000	95.342674
1074.000000	95.411808
1073.000000	95.471821
1072.000000	95.524503
1071.000000	95.569162
1070.000000	95.604067
1069.000000	95.629394
1068.000000	95.646236
1067.000000	95.654823
1066.000000	95.656923
1065.000000	95.657284
1064.000000	95.659621
1063.000000	95.663095
1062.000000	95.665415
1061.000000	95.667811
1060.000000	95.673557
1059.000000	95.683084
1058.000000	95.694414
1057.000000	95.708125
1056.000000	95.727985
1055.000000	95.755694
1054.000000	95.787696
1053.000000	95.818366
1052.000000	95.844905
1051.000000	95.868546
1050.000000	95.892540
1049.000000	95.919372
1048.000000	95.948615
1047.000000	95.976790
1046.000000	95.999872
1045.000000	96.015607
1044.000000	96.022695
1043.000000	96.019502
1042.000000	96.004849
1041.000000	95.979581
1040.000000	95.945834
1039.000000	95.904592
1038.000000	95.855439
1037.000000	95.798343
1036.000000	95.735573
1035.000000	95.672219
1034.000000	95.614734
1033.000000	95.567823
1032.000000	95.532130
1031.000000	95.505678
1030.000000	95.487662
1029.000000	95.480197
1028.000000	95.485245
1027.000000	95.501407
1026.000000	95.525440
1025.000000	95.555691
1024.000000	95.592172
1023.000000	95.633248
1022.000000	95.675228
1021.000000	95.716011
1020.000000	95.756767
1019.000000	95.799275
1018.000000	95.842882
1017.000000	95.884971
1016.000000	95.923520
1015.000000	95.958996
1014.000000	95.995144
1013.000000	96.037874
1012.000000	96.091772
1011.000000	96.156876
1010.000000	96.228847
1009.000000	96.301976
1008.000000	96.371507
1007.000000	96.434654
1006.000000	96.491692
1005.000000	96.545502
1004.000000	96.598091
1003.000000	96.648198
1002.000000	96.694415
1001.000000	96.739294
1000.000000	96.787268
999.000000	96.838115
998.000000	96.885438
997.000000	96.922858
996.000000	96.949536
995.000000	96.969236
994.000000	96.985851
993.000000	97.000935
992.000000	97.014372
991.000000	97.025924
990.000000	97.036533
989.000000	97.048226
988.000000	97.062280
987.000000	97.077565
986.000000	97.091210
985.000000	97.100680
984.000000	97.104269
983.000000	97.100349
982.000000	97.088404
981.000000	97.070920
980.000000	97.052404
979.000000	97.035244
978.000000	97.017611
977.000000	96.996537
976.000000	96.971934
975.000000	96.946553
974.000000	96.923011
973.000000	96.903041
972.000000	96.889264
971.000000	96.885204
970.000000	96.891873
969.000000	96.905623
968.000000	96.921121
967.000000	96.936006
966.000000	96.952453
965.000000	96.974447
964.000000	97.003981
963.000000	97.039633
962.000000	97.078044
961.000000	97.117175
960.000000	97.157981
959.000000	97.202109
958.000000	97.248435
957.000000	97.293389
956.000000	97.335575
955.000000	97.378155
954.000000	97.424855
953.000000	97.474865
952.000000	97.523859
951.000000	97.569422
950.000000	97.612495
949.000000	97.653473
948.000000	97.690317
947.000000	97.722107
946.000000	97.751542
945.000000	97.781390
944.000000	97.810798
943.000000	97.837415
942.000000	97.861282
941.000000	97.883427
940.000000	97.902099
939.000000	97.914242
938.000000	97.920483
937.000000	97.926184
936.000000	97.937660
935.000000	97.959061
934.000000	97.990918
933.000000	98.028355
932.000000	98.062041
931.000000	98.085120
930.000000	98.099351
929.000000	98.111686
928.000000	98.125767
927.000000	98.140529
926.000000	98.155867
925.000000	98.173760
924.000000	98.193456
923.000000	98.211316
922.000000	98.227517
921.000000	98.247571
920.000000	98.274473
919.000000	98.303907
918.000000	98.331063
917.000000	98.358160
916.000000	98.390297
915.000000	98.426651
914.000000	98.460509
913.000000	98.487225
912.000000	98.508216
911.000000	98.527631
910.000000	98.548529
909.000000	98.571995
908.000000	98.597092
907.000000	98.621174
906.000000	98.641944
905.000000	98.659011
904.000000	98.672355
903.000000	98.680659
902.000000	98.683662
901.000000	98.685689
900.000000	98.694289
899.000000	98.714079
898.000000	98.742433
897.000000	98.770873
896.000000	98.790761
895.000000	98.799110
894.000000	98.800514
893.000000	98.803075
892.000000	98.810713
891.000000	98.817911
890.000000	98.809048
889.000000	98.761120
888.000000	98.649775
887.000000	98.458818
886.000000	98.191625
885.000000	97.873527
884.000000	97.539667
883.000000	97.215649
882.000000	96.902096
881.000000	96.576296
880.000000	96.212585
879.000000	95.807055
878.000000	95.384934
877.000000	94.988301
876.000000	94.659381
875.000000	94.433543
874.000000	94.340137
873.000000	94.399314
872.000000	94.615072
871.000000	94.964960
870.000000	95.398479
869.000000	95.853316
868.000000	96.277635
867.000000	96.643474
866.000000	96.944825
865.000000	97.188183
864.000000	97.384039
863.000000	97.543689
862.000000	97.678077
861.000000	97.795586
860.000000	97.900232
859.000000	97.992548
858.000000	98.072723
857.000000	98.141061
856.000000	98.197190
855.000000	98.242038
854.000000	98.279489
853.000000	98.311941
852.000000	98.333046
851.000000	98.331112
850.000000	98.304965
849.000000	98.274050
848.000000	98.267513
847.000000	98.300672
846.000000	98.362959
845.000000	98.429118
844.000000	98.480572
843.000000	98.516421
842.000000	98.546968
841.000000	98.579776
840.000000	98.613191
839.000000	98.641228
838.000000	98.661078
837.000000	98.673952
836.000000	98.681155
835.000000	98.683497
834.000000	98.683884
833.000000	98.686184
832.000000	98.690441
831.000000	98.693002
830.000000	98.692906
829.000000	98.694718
828.000000	98.702914
827.000000	98.716386
826.000000	98.730848
825.000000	98.743185
824.000000	98.750591
823.000000	98.750211
822.000000	98.744848
821.000000	98.744738
820.000000	98.756784
819.000000	98.773999
818.000000	98.782841
817.000000	98.780561
816.000000	98.777690
815.000000	98.782102
814.000000	98.788150
813.000000	98.786743
812.000000	98.780112
811.000000	98.778783
810.000000	98.786470
809.000000	98.795122
808.000000	98.795717
807.000000	98.788110
806.000000	98.778332
805.000000	98.770991
804.000000	98.766972
803.000000	98.765530
802.000000	98.765328
801.000000	98.764232
800.000000	98.759941
799.000000	98.750241
798.000000	98.732837
797.000000	98.707629
796.000000	98.679924
795.000000	98.658153
794.000000	98.645816
793.000000	98.637652
792.000000	98.626139
791.000000	98.609870
790.000000	98.593138
789.000000	98.578997
788.000000	98.566177
787.000000	98.552853
786.000000	98.540848
785.000000	98.535102
784.000000	98.539564
783.000000	98.553215
782.000000	98.569443
781.000000	98.580202
780.000000	98.581910
779.000000	98.577156
778.000000	98.570558
777.000000	98.563599
776.000000	98.553488
775.000000	98.535780
774.000000	98.508213
773.000000	98.474355
772.000000	98.444126
771.000000	98.427756
770.000000	98.427168
769.000000	98.435017
768.000000	98.442933
767.000000	98.447428
766.000000	98.446387
765.000000	98.434891
764.000000	98.409679
763.000000	98.375611
762.000000	98.342237
761.000000	98.313964
760.000000	98.287672
759.000000	98.259838
758.000000	98.231227
757.000000	98.203086
756.000000	98.173081
755.000000	98.138949
754.000000	98.105336
753.000000	98.083352
752.000000	98.080506
751.000000	98.090978
750.000000	98.097953
749.000000	98.088472
748.000000	98.065989
747.000000	98.046066
746.000000	98.040117
745.000000	98.046031
744.000000	98.053957
743.000000	98.056067
742.000000	98.049617
741.000000	98.036703
740.000000	98.024803
739.000000	98.021945
738.000000	98.025440
737.000000	98.019027
736.000000	97.987713
735.000000	97.934279
734.000000	97.875922
733.000000	97.826688
732.000000	97.788777
731.000000	97.758180
730.000000	97.730138
729.000000	97.698353
728.000000	97.658900
727.000000	97.618066
726.000000	97.588433
725.000000	97.574333
724.000000	97.566256
723.000000	97.550960
722.000000	97.520624
721.000000	97.470109
720.000000	97.393609
719.000000	97.289451
718.000000	97.160219
717.000000	97.000282
716.000000	96.790799
715.000000	96.522809
714.000000	96.231192
713.000000	95.995454
712.000000	95.892236
711.000000	95.938303
710.000000	96.079567
709.000000	96.234551
708.000000	96.348783
707.000000	96.415797
706.000000	96.456448
705.000000	96.488021
704.000000	96.512419
703.000000	96.523277
702.000000	96.517858
701.000000	96.500967
700.000000	96.479260
699.000000	96.455943
698.000000	96.431163
697.000000	96.407444
696.000000	96.391147
695.000000	96.384577
694.000000	96.382103
693.000000	96.377180
692.000000	96.370185
691.000000	96.366572
690.000000	96.367822
689.000000	96.369956
688.000000	96.369879
687.000000	96.367092
686.000000	96.360499
685.000000	96.347852
684.000000	96.328654
683.000000	96.305197
682.000000	96.280077
681.000000	96.255930
680.000000	96.236689
679.000000	96.225902
678.000000	96.222309
677.000000	96.218821
676.000000	96.211304
675.000000	96.201838
674.000000	96.197094
673.000000	96.204707
672.000000	96.228658
671.000000	96.265830
670.000000	96.309746
669.000000	96.346683
668.000000	96.343565
667.000000	96.320119
666.000000	96.331089
665.000000	96.348213
664.000000	96.348662
663.000000	96.344657
662.000000	96.348490
661.000000	96.353201
660.000000	96.349263
659.000000	96.346242
658.000000	96.358609
657.000000	96.380153
656.000000	96.392611
655.000000	96.386504
654.000000	96.363497
653.000000	96.328059
652.000000	96.287566
651.000000	96.251587
650.000000	96.221946
649.000000	96.189165
648.000000	96.146659
647.000000	96.098575
646.000000	96.048074
645.000000	95.992296
644.000000	95.934400
643.000000	95.886529
642.000000	95.854837
641.000000	95.831631
640.000000	95.809437
639.000000	95.790789
638.000000	95.775924
637.000000	95.756290
636.000000	95.729401
635.000000	95.706358
634.000000	95.697210
633.000000	95.701142
632.000000	95.715869
631.000000	95.740607
630.000000	95.762040
629.000000	95.757351
628.000000	95.723708
627.000000	95.688597
626.000000	95.677298
625.000000	95.683821
624.000000	95.686846
623.000000	95.678428
622.000000	95.662788
621.000000	95.641481
620.000000	95.616268
619.000000	95.595563
618.000000	95.582204
617.000000	95.563728
616.000000	95.530076
615.000000	95.490952
614.000000	95.459795
613.000000	95.432892
612.000000	95.401470
611.000000	95.375667
610.000000	95.377374
609.000000	95.413206
608.000000	95.468948
607.000000	95.525909
606.000000	95.571349
605.000000	95.602181
604.000000	95.630358
603.000000	95.676924
602.000000	95.748239
601.000000	95.824379
600.000000	95.883014
599.000000	95.926637
598.000000	95.974679
597.000000	96.035934
596.000000	96.104855
595.000000	96.177826
594.000000	96.254777
593.000000	96.326316
592.000000	96.374820
591.000000	96.392771
590.000000	96.390675
589.000000	96.385119
588.000000	96.387045
587.000000	96.399917
586.000000	96.418305
585.000000	96.429853
584.000000	96.429640
583.000000	96.429960
582.000000	96.444793
581.000000	96.468403
580.000000	96.482381
579.000000	96.481257
578.000000	96.476700
577.000000	96.475849
576.000000	96.471400
575.000000	96.457130
574.000000	96.440433
573.000000	96.430480
572.000000	96.423965
571.000000	96.411128
570.000000	96.391321
569.000000	96.377215
568.000000	96.382726
567.000000	96.408812
566.000000	96.441497
565.000000	96.463852
564.000000	96.467668
563.000000	96.453809
562.000000	96.428314
561.000000	96.402116
560.000000	96.387533
559.000000	96.385485
558.000000	96.381575
557.000000	96.367342
556.000000	96.359472
555.000000	96.378073
554.000000	96.408369
553.000000	96.412948
552.000000	96.386530
551.000000	96.370336
550.000000	96.398734
549.000000	96.454865
548.000000	96.499419
547.000000	96.518720
546.000000	96.523963
545.000000	96.521769
544.000000	96.511134
543.000000	96.499652
542.000000	96.499244
541.000000	96.509648
540.000000	96.519999
539.000000	96.520353
538.000000	96.503030
537.000000	96.465129
536.000000	96.421530
535.000000	96.400742
534.000000	96.412892
533.000000	96.433998
532.000000	96.434125
531.000000	96.407990
530.000000	96.370460
529.000000	96.340203
528.000000	96.340159
527.000000	96.390411
526.000000	96.475159
525.000000	96.539577
524.000000	96.551201
523.000000	96.534176
522.000000	96.524168
521.000000	96.524982
520.000000	96.524846
519.000000	96.527986
518.000000	96.544670
517.000000	96.567702
516.000000	96.588272
515.000000	96.615005
514.000000	96.650511
513.000000	96.674359
512.000000	96.674803
511.000000	96.675612
510.000000	96.705638
509.000000	96.759933
508.000000	96.818495
507.000000	96.879387
506.000000	96.940056
505.000000	96.974246
504.000000	96.966754
503.000000	96.952071
502.000000	96.979080
501.000000	97.041797
500.000000	97.096761
499.000000	97.137028
498.000000	97.188872
497.000000	97.249231
496.000000	97.275592
495.000000	97.242857
494.000000	97.176962
493.000000	97.124742
492.000000	97.117965
491.000000	97.167769
490.000000	97.262354
489.000000	97.362304
488.000000	97.422133
487.000000	97.423918
486.000000	97.382484
485.000000	97.328977
484.000000	97.299789
483.000000	97.323804
482.000000	97.392365
481.000000	97.456005
480.000000	97.478443
479.000000	97.477892
478.000000	97.493506
477.000000	97.527609
476.000000	97.554299
475.000000	97.571203
474.000000	97.600057
473.000000	97.641080
472.000000	97.673915
471.000000	97.706470
470.000000	97.764042
469.000000	97.833321
468.000000	97.875385
467.000000	97.890480
466.000000	97.925298
465.000000	97.998832
464.000000	98.071886
463.000000	98.109168
462.000000	98.136897
461.000000	98.202497
460.000000	98.316339
459.000000	98.422879
458.000000	98.431687
457.000000	98.404053
456.000000	98.378982
455.000000	98.440195
454.000000	98.586712
453.000000	98.740368
452.000000	98.810841
451.000000	98.797829
450.000000	98.770856
