PE IR       SUBTECH     SPECTRUM    ASCII       PEDS        4.00        
   -1
3C-YYX-C019_1.ASC
23/09/07
11:26:45.00
23/09/07
11:30:09.00
uco
Sample 019 By uco Date Thursday, September 07 2023
450.000000
#HDR
-1
-1
#GR
cm-1
%T
1.0
0.0
4000.000000
-1.000000
3551
8
98.412638
75.401920
#DATA
4000.000000	98.342732
3999.000000	98.338282
3998.000000	98.332593
3997.000000	98.328846
3996.000000	98.328874
3995.000000	98.331814
3994.000000	98.334710
3993.000000	98.334663
3992.000000	98.330778
3991.000000	98.324347
3990.000000	98.317552
3989.000000	98.311919
3988.000000	98.307898
3987.000000	98.305371
3986.000000	98.304185
3985.000000	98.304300
3984.000000	98.305677
3983.000000	98.308064
3982.000000	98.310823
3981.000000	98.313022
3980.000000	98.313770
3979.000000	98.312530
3978.000000	98.309310
3977.000000	98.304859
3976.000000	98.300713
3975.000000	98.298675
3974.000000	98.299725
3973.000000	98.303406
3972.000000	98.308305
3971.000000	98.313005
3970.000000	98.316667
3969.000000	98.318886
3968.000000	98.319485
3967.000000	98.318357
3966.000000	98.315413
3965.000000	98.310828
3964.000000	98.305422
3963.000000	98.300543
3962.000000	98.297214
3961.000000	98.295485
3960.000000	98.294551
3959.000000	98.293473
3958.000000	98.291760
3957.000000	98.289390
3956.000000	98.286921
3955.000000	98.285329
3954.000000	98.285366
3953.000000	98.287038
3952.000000	98.289716
3951.000000	98.292791
3950.000000	98.295820
3949.000000	98.298163
3948.000000	98.298972
3947.000000	98.297828
3946.000000	98.295488
3945.000000	98.293623
3944.000000	98.293758
3943.000000	98.296305
3942.000000	98.300096
3941.000000	98.303569
3940.000000	98.305870
3939.000000	98.306444
3938.000000	98.304636
3937.000000	98.300086
3936.000000	98.293914
3935.000000	98.288776
3934.000000	98.287403
3933.000000	98.291139
3932.000000	98.298824
3931.000000	98.307215
3930.000000	98.312618
3929.000000	98.313070
3928.000000	98.309720
3927.000000	98.305321
3926.000000	98.301836
3925.000000	98.299380
3924.000000	98.297486
3923.000000	98.296547
3922.000000	98.296858
3921.000000	98.296883
3920.000000	98.294157
3919.000000	98.287930
3918.000000	98.280753
3917.000000	98.276946
3916.000000	98.279166
3915.000000	98.286472
3914.000000	98.294909
3913.000000	98.299989
3912.000000	98.299139
3911.000000	98.293015
3910.000000	98.284590
3909.000000	98.276475
3908.000000	98.269889
3907.000000	98.264935
3906.000000	98.261464
3905.000000	98.259649
3904.000000	98.260542
3903.000000	98.266168
3902.000000	98.277419
3901.000000	98.291203
3900.000000	98.301976
3899.000000	98.306048
3898.000000	98.304288
3897.000000	98.300330
3896.000000	98.296487
3895.000000	98.292955
3894.000000	98.290027
3893.000000	98.289128
3892.000000	98.291372
3891.000000	98.295115
3890.000000	98.297465
3889.000000	98.297339
3888.000000	98.295327
3887.000000	98.292285
3886.000000	98.288615
3885.000000	98.284759
3884.000000	98.283449
3883.000000	98.287697
3882.000000	98.296404
3881.000000	98.303058
3880.000000	98.300387
3879.000000	98.288649
3878.000000	98.276108
3877.000000	98.270248
3876.000000	98.272961
3875.000000	98.280526
3874.000000	98.285518
3873.000000	98.282875
3872.000000	98.274472
3871.000000	98.266207
3870.000000	98.261787
3869.000000	98.261153
3868.000000	98.264584
3867.000000	98.272867
3866.000000	98.284479
3865.000000	98.295773
3864.000000	98.303349
3863.000000	98.306028
3862.000000	98.304347
3861.000000	98.299158
3860.000000	98.292281
3859.000000	98.284942
3858.000000	98.276115
3857.000000	98.263053
3856.000000	98.245757
3855.000000	98.229895
3854.000000	98.222021
3853.000000	98.223522
3852.000000	98.233453
3851.000000	98.249790
3850.000000	98.266742
3849.000000	98.278863
3848.000000	98.284882
3847.000000	98.286775
3846.000000	98.286301
3845.000000	98.283330
3844.000000	98.277230
3843.000000	98.269224
3842.000000	98.262808
3841.000000	98.261619
3840.000000	98.266687
3839.000000	98.274746
3838.000000	98.280840
3837.000000	98.283519
3836.000000	98.286312
3835.000000	98.292319
3834.000000	98.300003
3833.000000	98.305144
3832.000000	98.305318
3831.000000	98.301796
3830.000000	98.297797
3829.000000	98.295050
3828.000000	98.292883
3827.000000	98.289171
3826.000000	98.282250
3825.000000	98.273248
3824.000000	98.266618
3823.000000	98.267936
3822.000000	98.277464
3821.000000	98.285308
3820.000000	98.282409
3819.000000	98.273475
3818.000000	98.268602
3817.000000	98.271349
3816.000000	98.277383
3815.000000	98.280423
3814.000000	98.280309
3813.000000	98.280066
3812.000000	98.279796
3811.000000	98.278247
3810.000000	98.275594
3809.000000	98.273799
3808.000000	98.274450
3807.000000	98.276206
3806.000000	98.276168
3805.000000	98.274145
3804.000000	98.272710
3803.000000	98.275250
3802.000000	98.282180
3801.000000	98.287764
3800.000000	98.287372
3799.000000	98.284125
3798.000000	98.281609
3797.000000	98.280435
3796.000000	98.280049
3795.000000	98.280264
3794.000000	98.281175
3793.000000	98.282616
3792.000000	98.284810
3791.000000	98.289037
3790.000000	98.295946
3789.000000	98.303926
3788.000000	98.310543
3787.000000	98.314214
3786.000000	98.314144
3785.000000	98.310224
3784.000000	98.304283
3783.000000	98.300218
3782.000000	98.301137
3781.000000	98.306112
3780.000000	98.310466
3779.000000	98.309610
3778.000000	98.303484
3777.000000	98.296256
3776.000000	98.292135
3775.000000	98.292716
3774.000000	98.297032
3773.000000	98.303010
3772.000000	98.308770
3771.000000	98.312836
3770.000000	98.314032
3769.000000	98.312433
3768.000000	98.310752
3767.000000	98.311630
3766.000000	98.314303
3765.000000	98.315308
3764.000000	98.312677
3763.000000	98.308113
3762.000000	98.304432
3761.000000	98.302554
3760.000000	98.301844
3759.000000	98.301748
3758.000000	98.302263
3757.000000	98.303132
3756.000000	98.303931
3755.000000	98.304417
3754.000000	98.303933
3753.000000	98.301085
3752.000000	98.295051
3751.000000	98.286615
3750.000000	98.277018
3749.000000	98.267779
3748.000000	98.261776
3747.000000	98.262444
3746.000000	98.271976
3745.000000	98.286736
3744.000000	98.297055
3743.000000	98.302044
3742.000000	98.308009
3741.000000	98.312741
3740.000000	98.310711
3739.000000	98.302373
3738.000000	98.293785
3737.000000	98.291397
3736.000000	98.299733
3735.000000	98.319707
3734.000000	98.344056
3733.000000	98.360796
3732.000000	98.363744
3731.000000	98.356076
3730.000000	98.344250
3729.000000	98.331892
3728.000000	98.320573
3727.000000	98.311929
3726.000000	98.307020
3725.000000	98.305550
3724.000000	98.306814
3723.000000	98.310402
3722.000000	98.315146
3721.000000	98.319970
3720.000000	98.325236
3719.000000	98.330861
3718.000000	98.334193
3717.000000	98.331806
3716.000000	98.324259
3715.000000	98.316112
3714.000000	98.309888
3713.000000	98.303037
3712.000000	98.292809
3711.000000	98.283295
3710.000000	98.281798
3709.000000	98.289199
3708.000000	98.300993
3707.000000	98.312741
3706.000000	98.322508
3705.000000	98.331248
3704.000000	98.340996
3703.000000	98.351179
3702.000000	98.356949
3701.000000	98.353882
3700.000000	98.344582
3699.000000	98.335797
3698.000000	98.330063
3697.000000	98.323932
3696.000000	98.313332
3695.000000	98.298828
3694.000000	98.285356
3693.000000	98.279423
3692.000000	98.286451
3691.000000	98.307395
3690.000000	98.332760
3689.000000	98.344320
3688.000000	98.333317
3687.000000	98.311085
3686.000000	98.293118
3685.000000	98.284382
3684.000000	98.281581
3683.000000	98.279529
3682.000000	98.274211
3681.000000	98.262822
3680.000000	98.244395
3679.000000	98.221511
3678.000000	98.200192
3677.000000	98.187654
3676.000000	98.186467
3675.000000	98.189426
3674.000000	98.188578
3673.000000	98.185749
3672.000000	98.185964
3671.000000	98.192381
3670.000000	98.202430
3669.000000	98.207661
3668.000000	98.204734
3667.000000	98.197845
3666.000000	98.190406
3665.000000	98.183492
3664.000000	98.177601
3663.000000	98.172663
3662.000000	98.167193
3661.000000	98.159627
3660.000000	98.151047
3659.000000	98.144421
3658.000000	98.140304
3657.000000	98.135058
3656.000000	98.125557
3655.000000	98.115193
3654.000000	98.109199
3653.000000	98.107329
3652.000000	98.105087
3651.000000	98.098381
3650.000000	98.086628
3649.000000	98.074334
3648.000000	98.066746
3647.000000	98.062992
3646.000000	98.058443
3645.000000	98.050728
3644.000000	98.041196
3643.000000	98.032829
3642.000000	98.027425
3641.000000	98.024222
3640.000000	98.021704
3639.000000	98.019197
3638.000000	98.015514
3637.000000	98.008655
3636.000000	97.997914
3635.000000	97.985158
3634.000000	97.972848
3633.000000	97.961547
3632.000000	97.950210
3631.000000	97.938226
3630.000000	97.925829
3629.000000	97.913786
3628.000000	97.904770
3627.000000	97.901958
3626.000000	97.903600
3625.000000	97.903387
3624.000000	97.898726
3623.000000	97.893141
3622.000000	97.891033
3621.000000	97.891754
3620.000000	97.888817
3619.000000	97.875701
3618.000000	97.853106
3617.000000	97.827855
3616.000000	97.805568
3615.000000	97.786821
3614.000000	97.767811
3613.000000	97.744316
3612.000000	97.717275
3611.000000	97.692608
3610.000000	97.674402
3609.000000	97.663196
3608.000000	97.659289
3607.000000	97.662685
3606.000000	97.670134
3605.000000	97.675384
3604.000000	97.674193
3603.000000	97.666730
3602.000000	97.655872
3601.000000	97.644557
3600.000000	97.634599
3599.000000	97.626361
3598.000000	97.617694
3597.000000	97.604748
3596.000000	97.585100
3595.000000	97.560718
3594.000000	97.536160
3593.000000	97.515264
3592.000000	97.499292
3591.000000	97.487999
3590.000000	97.480104
3589.000000	97.473824
3588.000000	97.467429
3587.000000	97.459943
3586.000000	97.450385
3585.000000	97.437892
3584.000000	97.423099
3583.000000	97.407848
3582.000000	97.393723
3581.000000	97.381198
3580.000000	97.369932
3579.000000	97.359778
3578.000000	97.350088
3577.000000	97.339340
3576.000000	97.325858
3575.000000	97.308822
3574.000000	97.288174
3573.000000	97.265027
3572.000000	97.242692
3571.000000	97.225367
3570.000000	97.214644
3569.000000	97.207443
3568.000000	97.198492
3567.000000	97.185571
3566.000000	97.170708
3565.000000	97.155755
3564.000000	97.140578
3563.000000	97.124202
3562.000000	97.106020
3561.000000	97.086836
3560.000000	97.069053
3559.000000	97.054369
3558.000000	97.041485
3557.000000	97.027355
3556.000000	97.010942
3555.000000	96.993837
3554.000000	96.977121
3553.000000	96.959479
3552.000000	96.940042
3551.000000	96.920853
3550.000000	96.904204
3549.000000	96.889368
3548.000000	96.873809
3547.000000	96.856639
3546.000000	96.839423
3545.000000	96.824013
3544.000000	96.810680
3543.000000	96.798089
3542.000000	96.783890
3541.000000	96.766676
3540.000000	96.748415
3539.000000	96.733353
3538.000000	96.723176
3537.000000	96.714253
3536.000000	96.701290
3535.000000	96.683048
3534.000000	96.662596
3533.000000	96.643831
3532.000000	96.629395
3531.000000	96.620541
3530.000000	96.616235
3529.000000	96.612920
3528.000000	96.607061
3527.000000	96.597836
3526.000000	96.586098
3525.000000	96.571976
3524.000000	96.555185
3523.000000	96.536630
3522.000000	96.517920
3521.000000	96.499702
3520.000000	96.481624
3519.000000	96.463377
3518.000000	96.444886
3517.000000	96.426436
3516.000000	96.409172
3515.000000	96.394760
3514.000000	96.383388
3513.000000	96.373032
3512.000000	96.361306
3511.000000	96.347512
3510.000000	96.332394
3509.000000	96.316935
3508.000000	96.302186
3507.000000	96.289348
3506.000000	96.279025
3505.000000	96.270693
3504.000000	96.263208
3503.000000	96.254968
3502.000000	96.243733
3501.000000	96.228131
3500.000000	96.209707
3499.000000	96.192029
3498.000000	96.177254
3497.000000	96.164541
3496.000000	96.151738
3495.000000	96.137434
3494.000000	96.120965
3493.000000	96.102234
3492.000000	96.082652
3491.000000	96.064947
3490.000000	96.050912
3489.000000	96.039998
3488.000000	96.030402
3487.000000	96.020252
3486.000000	96.007502
3485.000000	95.990580
3484.000000	95.970338
3483.000000	95.950493
3482.000000	95.934845
3481.000000	95.924274
3480.000000	95.917047
3479.000000	95.910973
3478.000000	95.904503
3477.000000	95.896673
3476.000000	95.887076
3475.000000	95.875582
3474.000000	95.862024
3473.000000	95.846787
3472.000000	95.831345
3471.000000	95.817113
3470.000000	95.803898
3469.000000	95.790625
3468.000000	95.777143
3467.000000	95.763861
3466.000000	95.750361
3465.000000	95.736399
3464.000000	95.723875
3463.000000	95.715414
3462.000000	95.710503
3461.000000	95.705155
3460.000000	95.695885
3459.000000	95.682199
3458.000000	95.665208
3457.000000	95.646224
3456.000000	95.627350
3455.000000	95.611184
3454.000000	95.598599
3453.000000	95.588639
3452.000000	95.580945
3451.000000	95.576561
3450.000000	95.575395
3449.000000	95.574664
3448.000000	95.571028
3447.000000	95.563251
3446.000000	95.551946
3445.000000	95.538000
3444.000000	95.522324
3443.000000	95.506246
3442.000000	95.491344
3441.000000	95.479228
3440.000000	95.471193
3439.000000	95.466752
3438.000000	95.462595
3437.000000	95.454773
3436.000000	95.442348
3435.000000	95.427647
3434.000000	95.413089
3433.000000	95.399657
3432.000000	95.388066
3431.000000	95.378996
3430.000000	95.371489
3429.000000	95.363256
3428.000000	95.353294
3427.000000	95.342162
3426.000000	95.329704
3425.000000	95.315101
3424.000000	95.299716
3423.000000	95.286900
3422.000000	95.277386
3421.000000	95.267368
3420.000000	95.252995
3419.000000	95.234972
3418.000000	95.217021
3417.000000	95.201813
3416.000000	95.189928
3415.000000	95.180677
3414.000000	95.172175
3413.000000	95.162047
3412.000000	95.149685
3411.000000	95.136831
3410.000000	95.125369
3409.000000	95.115924
3408.000000	95.108958
3407.000000	95.104787
3406.000000	95.101530
3405.000000	95.095381
3404.000000	95.084512
3403.000000	95.071009
3402.000000	95.057593
3401.000000	95.044606
3400.000000	95.031267
3399.000000	95.017676
3398.000000	95.003751
3397.000000	94.988177
3396.000000	94.970489
3395.000000	94.952784
3394.000000	94.937417
3393.000000	94.924068
3392.000000	94.910612
3391.000000	94.895944
3390.000000	94.880668
3389.000000	94.865982
3388.000000	94.853176
3387.000000	94.843230
3386.000000	94.835544
3385.000000	94.827649
3384.000000	94.817118
3383.000000	94.803251
3382.000000	94.786792
3381.000000	94.769341
3380.000000	94.753218
3379.000000	94.740055
3378.000000	94.728855
3377.000000	94.717017
3376.000000	94.703720
3375.000000	94.690425
3374.000000	94.677494
3373.000000	94.662564
3372.000000	94.643653
3371.000000	94.622078
3370.000000	94.600840
3369.000000	94.581386
3368.000000	94.563271
3367.000000	94.545932
3366.000000	94.529575
3365.000000	94.514871
3364.000000	94.502374
3363.000000	94.491314
3362.000000	94.478933
3361.000000	94.462553
3360.000000	94.442680
3359.000000	94.422274
3358.000000	94.402539
3357.000000	94.381297
3356.000000	94.356422
3355.000000	94.329214
3354.000000	94.303274
3353.000000	94.281371
3352.000000	94.264318
3351.000000	94.251278
3350.000000	94.239897
3349.000000	94.227135
3348.000000	94.210833
3347.000000	94.190160
3346.000000	94.164933
3345.000000	94.136169
3344.000000	94.107261
3343.000000	94.082441
3342.000000	94.063006
3341.000000	94.046400
3340.000000	94.029380
3339.000000	94.010555
3338.000000	93.989781
3337.000000	93.967393
3336.000000	93.944873
3335.000000	93.924406
3334.000000	93.906602
3333.000000	93.889855
3332.000000	93.872593
3331.000000	93.854761
3330.000000	93.836742
3329.000000	93.818347
3328.000000	93.799359
3327.000000	93.779789
3326.000000	93.759509
3325.000000	93.739111
3324.000000	93.720845
3323.000000	93.706507
3322.000000	93.694219
3321.000000	93.679805
3320.000000	93.661745
3319.000000	93.642569
3318.000000	93.624830
3317.000000	93.608065
3316.000000	93.590653
3315.000000	93.572504
3314.000000	93.554568
3313.000000	93.537446
3312.000000	93.521433
3311.000000	93.506459
3310.000000	93.491478
3309.000000	93.475566
3308.000000	93.459981
3307.000000	93.446857
3306.000000	93.435373
3305.000000	93.421562
3304.000000	93.402805
3303.000000	93.380716
3302.000000	93.359050
3301.000000	93.340554
3300.000000	93.326243
3299.000000	93.315247
3298.000000	93.304618
3297.000000	93.291844
3296.000000	93.278319
3295.000000	93.267880
3294.000000	93.260914
3293.000000	93.252924
3292.000000	93.240413
3291.000000	93.225466
3290.000000	93.212703
3289.000000	93.203778
3288.000000	93.196873
3287.000000	93.189944
3286.000000	93.182650
3285.000000	93.176509
3284.000000	93.174191
3283.000000	93.176975
3282.000000	93.182045
3281.000000	93.184466
3280.000000	93.183345
3279.000000	93.183513
3278.000000	93.189866
3277.000000	93.202128
3276.000000	93.216888
3275.000000	93.232695
3274.000000	93.250212
3273.000000	93.268960
3272.000000	93.286401
3271.000000	93.299769
3270.000000	93.307487
3269.000000	93.309915
3268.000000	93.310356
3267.000000	93.314169
3266.000000	93.325008
3265.000000	93.342118
3264.000000	93.362166
3263.000000	93.382611
3262.000000	93.402488
3261.000000	93.421385
3260.000000	93.439332
3259.000000	93.457087
3258.000000	93.475668
3257.000000	93.496158
3256.000000	93.520048
3255.000000	93.548279
3254.000000	93.579211
3253.000000	93.609046
3252.000000	93.634969
3251.000000	93.656726
3250.000000	93.674913
3249.000000	93.689893
3248.000000	93.703235
3247.000000	93.717768
3246.000000	93.734600
3245.000000	93.751406
3244.000000	93.765270
3243.000000	93.776161
3242.000000	93.786474
3241.000000	93.798555
3240.000000	93.813777
3239.000000	93.832628
3238.000000	93.854305
3237.000000	93.876968
3236.000000	93.899195
3235.000000	93.920376
3234.000000	93.939407
3233.000000	93.954598
3232.000000	93.965468
3231.000000	93.973324
3230.000000	93.979384
3229.000000	93.983899
3228.000000	93.987739
3227.000000	93.992994
3226.000000	94.000979
3225.000000	94.011170
3224.000000	94.022816
3223.000000	94.036106
3222.000000	94.051118
3221.000000	94.067323
3220.000000	94.084746
3219.000000	94.103437
3218.000000	94.120941
3217.000000	94.132857
3216.000000	94.137646
3215.000000	94.139278
3214.000000	94.143137
3213.000000	94.150554
3212.000000	94.159098
3211.000000	94.166977
3210.000000	94.175179
3209.000000	94.185446
3208.000000	94.197872
3207.000000	94.210607
3206.000000	94.221506
3205.000000	94.230184
3204.000000	94.238601
3203.000000	94.248985
3202.000000	94.261280
3201.000000	94.273592
3200.000000	94.284883
3199.000000	94.295913
3198.000000	94.307621
3197.000000	94.320321
3196.000000	94.334476
3195.000000	94.350377
3194.000000	94.366880
3193.000000	94.382337
3192.000000	94.397199
3191.000000	94.413817
3190.000000	94.433191
3189.000000	94.453756
3188.000000	94.473607
3187.000000	94.491788
3186.000000	94.507247
3185.000000	94.519215
3184.000000	94.529612
3183.000000	94.542468
3182.000000	94.559648
3181.000000	94.578927
3180.000000	94.597139
3179.000000	94.612970
3178.000000	94.626154
3177.000000	94.636793
3176.000000	94.647195
3175.000000	94.661616
3174.000000	94.681814
3173.000000	94.704577
3172.000000	94.725341
3171.000000	94.742716
3170.000000	94.757814
3169.000000	94.771525
3168.000000	94.784845
3167.000000	94.800163
3166.000000	94.819279
3165.000000	94.840638
3164.000000	94.860854
3163.000000	94.878534
3162.000000	94.895035
3161.000000	94.911969
3160.000000	94.929685
3159.000000	94.947660
3158.000000	94.964771
3157.000000	94.979451
3156.000000	94.991061
3155.000000	95.001187
3154.000000	95.012602
3153.000000	95.026935
3152.000000	95.043541
3151.000000	95.060009
3150.000000	95.073622
3149.000000	95.083715
3148.000000	95.093193
3147.000000	95.106360
3146.000000	95.124132
3145.000000	95.142714
3144.000000	95.157888
3143.000000	95.169487
3142.000000	95.180484
3141.000000	95.193133
3140.000000	95.207350
3139.000000	95.221813
3138.000000	95.234939
3137.000000	95.245546
3136.000000	95.253574
3135.000000	95.259880
3134.000000	95.264804
3133.000000	95.268130
3132.000000	95.271001
3131.000000	95.276200
3130.000000	95.285267
3129.000000	95.296634
3128.000000	95.307784
3127.000000	95.318107
3126.000000	95.328408
3125.000000	95.338697
3124.000000	95.348035
3123.000000	95.355712
3122.000000	95.361258
3121.000000	95.364182
3120.000000	95.365220
3119.000000	95.367043
3118.000000	95.371926
3117.000000	95.378970
3116.000000	95.384888
3115.000000	95.387380
3114.000000	95.386720
3113.000000	95.384535
3112.000000	95.382380
3111.000000	95.381505
3110.000000	95.382603
3109.000000	95.385259
3108.000000	95.387813
3107.000000	95.388061
3106.000000	95.384449
3105.000000	95.377524
3104.000000	95.370430
3103.000000	95.366621
3102.000000	95.366050
3101.000000	95.364456
3100.000000	95.357822
3099.000000	95.347139
3098.000000	95.337725
3097.000000	95.334091
3096.000000	95.336275
3095.000000	95.340594
3094.000000	95.343060
3093.000000	95.342192
3092.000000	95.339293
3091.000000	95.336366
3090.000000	95.333705
3089.000000	95.329780
3088.000000	95.323385
3087.000000	95.315213
3086.000000	95.307003
3085.000000	95.299910
3084.000000	95.294378
3083.000000	95.290746
3082.000000	95.289036
3081.000000	95.288146
3080.000000	95.285977
3079.000000	95.280643
3078.000000	95.271772
3077.000000	95.261019
3076.000000	95.251251
3075.000000	95.244836
3074.000000	95.242418
3073.000000	95.243384
3072.000000	95.246933
3071.000000	95.252105
3070.000000	95.257231
3069.000000	95.260485
3068.000000	95.261172
3067.000000	95.259916
3066.000000	95.257785
3065.000000	95.256008
3064.000000	95.256178
3063.000000	95.259666
3062.000000	95.266824
3061.000000	95.277321
3060.000000	95.290582
3059.000000	95.304789
3058.000000	95.316425
3057.000000	95.322974
3056.000000	95.326183
3055.000000	95.330879
3054.000000	95.339980
3053.000000	95.351976
3052.000000	95.363408
3051.000000	95.372407
3050.000000	95.379720
3049.000000	95.387830
3048.000000	95.399242
3047.000000	95.414284
3046.000000	95.430287
3045.000000	95.444171
3044.000000	95.455781
3043.000000	95.467098
3042.000000	95.478375
3041.000000	95.487256
3040.000000	95.492579
3039.000000	95.497177
3038.000000	95.505660
3037.000000	95.520152
3036.000000	95.538739
3035.000000	95.556960
3034.000000	95.570457
3033.000000	95.577632
3032.000000	95.580690
3031.000000	95.583586
3030.000000	95.588703
3029.000000	95.596177
3028.000000	95.605746
3027.000000	95.617349
3026.000000	95.629825
3025.000000	95.640972
3024.000000	95.649584
3023.000000	95.656211
3022.000000	95.661717
3021.000000	95.666492
3020.000000	95.671213
3019.000000	95.676470
3018.000000	95.681271
3017.000000	95.683581
3016.000000	95.682934
3015.000000	95.680814
3014.000000	95.677848
3013.000000	95.672413
3012.000000	95.662797
3011.000000	95.649155
3010.000000	95.632672
3009.000000	95.614287
3008.000000	95.595129
3007.000000	95.576731
3006.000000	95.559966
3005.000000	95.544599
3004.000000	95.529911
3003.000000	95.514513
3002.000000	95.495740
3001.000000	95.471341
3000.000000	95.442239
2999.000000	95.411604
2998.000000	95.380649
2997.000000	95.347383
2996.000000	95.310131
2995.000000	95.269904
2994.000000	95.227767
2993.000000	95.182139
2992.000000	95.130667
2991.000000	95.073244
2990.000000	95.011479
2989.000000	94.946076
2988.000000	94.876521
2987.000000	94.802476
2986.000000	94.723916
2985.000000	94.640486
2984.000000	94.551725
2983.000000	94.457784
2982.000000	94.359175
2981.000000	94.256091
2980.000000	94.148502
2979.000000	94.036263
2978.000000	93.919049
2977.000000	93.796842
2976.000000	93.670171
2975.000000	93.538910
2974.000000	93.400813
2973.000000	93.252945
2972.000000	93.094904
2971.000000	92.929132
2970.000000	92.758212
2969.000000	92.583534
2968.000000	92.407216
2967.000000	92.233215
2966.000000	92.065519
2965.000000	91.906748
2964.000000	91.759056
2963.000000	91.625231
2962.000000	91.507676
2961.000000	91.408217
2960.000000	91.329767
2959.000000	91.276732
2958.000000	91.252667
2957.000000	91.257553
2956.000000	91.288483
2955.000000	91.341336
2954.000000	91.411281
2953.000000	91.492443
2952.000000	91.577765
2951.000000	91.659210
2950.000000	91.727296
2949.000000	91.772772
2948.000000	91.789579
2947.000000	91.776408
2946.000000	91.734826
2945.000000	91.666649
2944.000000	91.573698
2943.000000	91.458010
2942.000000	91.321712
2941.000000	91.166748
2940.000000	90.995900
2939.000000	90.813078
2938.000000	90.622026
2937.000000	90.425952
2936.000000	90.228603
2935.000000	90.035377
2934.000000	89.852259
2933.000000	89.684165
2932.000000	89.534076
2931.000000	89.402662
2930.000000	89.288576
2929.000000	89.189869
2928.000000	89.106397
2927.000000	89.040462
2926.000000	88.995117
2925.000000	88.972273
2924.000000	88.971810
2923.000000	88.991859
2922.000000	89.029664
2921.000000	89.083655
2920.000000	89.155261
2919.000000	89.247894
2918.000000	89.364527
2917.000000	89.506682
2916.000000	89.674900
2915.000000	89.867493
2914.000000	90.077428
2913.000000	90.292422
2912.000000	90.500110
2911.000000	90.694038
2910.000000	90.874733
2909.000000	91.046216
2908.000000	91.212366
2907.000000	91.375120
2906.000000	91.534630
2905.000000	91.690489
2904.000000	91.843096
2903.000000	91.993511
2902.000000	92.142325
2901.000000	92.289932
2900.000000	92.437325
2899.000000	92.585703
2898.000000	92.733834
2897.000000	92.877342
2896.000000	93.011893
2895.000000	93.136352
2894.000000	93.252244
2893.000000	93.361004
2892.000000	93.462767
2891.000000	93.556972
2890.000000	93.642636
2889.000000	93.718072
2888.000000	93.781164
2887.000000	93.829996
2886.000000	93.863371
2885.000000	93.881226
2884.000000	93.884663
2883.000000	93.874634
2882.000000	93.850115
2881.000000	93.808567
2880.000000	93.748704
2879.000000	93.672407
2878.000000	93.583757
2877.000000	93.487724
2876.000000	93.390270
2875.000000	93.298624
2874.000000	93.220316
2873.000000	93.161358
2872.000000	93.124960
2871.000000	93.110185
2870.000000	93.110805
2869.000000	93.116334
2868.000000	93.115869
2867.000000	93.101902
2866.000000	93.071298
2865.000000	93.023939
2864.000000	92.960733
2863.000000	92.882552
2862.000000	92.790525
2861.000000	92.687900
2860.000000	92.581190
2859.000000	92.478542
2858.000000	92.386611
2857.000000	92.309821
2856.000000	92.252199
2855.000000	92.217749
2854.000000	92.209384
2853.000000	92.229194
2852.000000	92.281275
2851.000000	92.373329
2850.000000	92.513525
2849.000000	92.705061
2848.000000	92.942425
2847.000000	93.211107
2846.000000	93.490604
2845.000000	93.760908
2844.000000	94.008631
2843.000000	94.228939
2842.000000	94.422282
2841.000000	94.590385
2840.000000	94.735814
2839.000000	94.862481
2838.000000	94.974312
2837.000000	95.073471
2836.000000	95.160626
2835.000000	95.236403
2834.000000	95.301984
2833.000000	95.358820
2832.000000	95.408504
2831.000000	95.452471
2830.000000	95.491525
2829.000000	95.526608
2828.000000	95.559798
2827.000000	95.593063
2826.000000	95.625711
2825.000000	95.654690
2824.000000	95.678349
2823.000000	95.698444
2822.000000	95.717793
2821.000000	95.737455
2820.000000	95.757139
2819.000000	95.776747
2818.000000	95.796152
2817.000000	95.814750
2816.000000	95.832713
2815.000000	95.851668
2814.000000	95.872817
2813.000000	95.895299
2812.000000	95.917624
2811.000000	95.939880
2810.000000	95.963334
2809.000000	95.988684
2808.000000	96.015816
2807.000000	96.044156
2806.000000	96.071682
2805.000000	96.094700
2804.000000	96.110679
2803.000000	96.121239
2802.000000	96.130810
2801.000000	96.142376
2800.000000	96.155582
2799.000000	96.168547
2798.000000	96.180081
2797.000000	96.190152
2796.000000	96.199632
2795.000000	96.209931
2794.000000	96.222058
2793.000000	96.235692
2792.000000	96.249588
2791.000000	96.262808
2790.000000	96.275260
2789.000000	96.287458
2788.000000	96.300350
2787.000000	96.314887
2786.000000	96.330851
2785.000000	96.346193
2784.000000	96.358265
2783.000000	96.365944
2782.000000	96.370475
2781.000000	96.374582
2780.000000	96.380782
2779.000000	96.389925
2778.000000	96.400805
2777.000000	96.411409
2776.000000	96.420598
2775.000000	96.428200
2774.000000	96.433850
2773.000000	96.437291
2772.000000	96.440154
2771.000000	96.445741
2770.000000	96.455653
2769.000000	96.467516
2768.000000	96.477361
2767.000000	96.483774
2766.000000	96.488705
2765.000000	96.494565
2764.000000	96.501702
2763.000000	96.508718
2762.000000	96.514364
2761.000000	96.518895
2760.000000	96.523898
2759.000000	96.530815
2758.000000	96.539355
2757.000000	96.547494
2756.000000	96.553221
2755.000000	96.556165
2754.000000	96.557545
2753.000000	96.559027
2752.000000	96.561669
2751.000000	96.565383
2750.000000	96.569125
2749.000000	96.571983
2748.000000	96.574173
2747.000000	96.576584
2746.000000	96.579578
2745.000000	96.583069
2744.000000	96.587614
2743.000000	96.594127
2742.000000	96.602138
2741.000000	96.609406
2740.000000	96.613936
2739.000000	96.615755
2738.000000	96.616404
2737.000000	96.617543
2736.000000	96.620389
2735.000000	96.625412
2734.000000	96.631749
2733.000000	96.637562
2732.000000	96.641785
2731.000000	96.645129
2730.000000	96.649052
2729.000000	96.654278
2728.000000	96.660653
2727.000000	96.667734
2726.000000	96.674961
2725.000000	96.681799
2724.000000	96.688202
2723.000000	96.694480
2722.000000	96.700526
2721.000000	96.705904
2720.000000	96.710915
2719.000000	96.716545
2718.000000	96.722876
2717.000000	96.728498
2716.000000	96.732190
2715.000000	96.734426
2714.000000	96.736501
2713.000000	96.738914
2712.000000	96.741413
2711.000000	96.744050
2710.000000	96.747295
2709.000000	96.751290
2708.000000	96.755667
2707.000000	96.760125
2706.000000	96.764865
2705.000000	96.770375
2704.000000	96.776684
2703.000000	96.782625
2702.000000	96.786331
2701.000000	96.787209
2700.000000	96.787178
2699.000000	96.788914
2698.000000	96.792911
2697.000000	96.797319
2696.000000	96.800751
2695.000000	96.803952
2694.000000	96.808181
2693.000000	96.813079
2692.000000	96.816878
2691.000000	96.818034
2690.000000	96.816176
2689.000000	96.812185
2688.000000	96.807917
2687.000000	96.805358
2686.000000	96.805475
2685.000000	96.807985
2684.000000	96.812050
2683.000000	96.816607
2682.000000	96.820339
2681.000000	96.822481
2680.000000	96.823798
2679.000000	96.825852
2678.000000	96.829143
2677.000000	96.832842
2676.000000	96.836201
2675.000000	96.838961
2674.000000	96.840383
2673.000000	96.839518
2672.000000	96.837024
2671.000000	96.835246
2670.000000	96.835734
2669.000000	96.837748
2668.000000	96.839872
2667.000000	96.841897
2666.000000	96.844340
2665.000000	96.847194
2664.000000	96.850167
2663.000000	96.853355
2662.000000	96.856683
2661.000000	96.859276
2660.000000	96.860219
2659.000000	96.859607
2658.000000	96.858409
2657.000000	96.857829
2656.000000	96.859175
2655.000000	96.863521
2654.000000	96.870777
2653.000000	96.879564
2652.000000	96.888432
2651.000000	96.896770
2650.000000	96.904389
2649.000000	96.911179
2648.000000	96.917711
2647.000000	96.925201
2646.000000	96.934054
2645.000000	96.942843
2644.000000	96.949317
2643.000000	96.952196
2642.000000	96.952199
2641.000000	96.952077
2640.000000	96.955403
2639.000000	96.963882
2638.000000	96.975316
2637.000000	96.985268
2636.000000	96.991154
2635.000000	96.993845
2634.000000	96.995382
2633.000000	96.996860
2632.000000	96.998989
2631.000000	97.002891
2630.000000	97.009051
2629.000000	97.016579
2628.000000	97.024450
2627.000000	97.032512
2626.000000	97.040633
2625.000000	97.047967
2624.000000	97.053908
2623.000000	97.058713
2622.000000	97.062433
2621.000000	97.064273
2620.000000	97.063801
2619.000000	97.062000
2618.000000	97.060569
2617.000000	97.060914
2616.000000	97.063851
2615.000000	97.068965
2614.000000	97.074296
2613.000000	97.078438
2612.000000	97.083172
2611.000000	97.091717
2610.000000	97.103531
2609.000000	97.113299
2608.000000	97.116625
2607.000000	97.115001
2606.000000	97.113303
2605.000000	97.114052
2604.000000	97.116193
2603.000000	97.118140
2602.000000	97.119560
2601.000000	97.120301
2600.000000	97.119665
2599.000000	97.117425
2598.000000	97.114889
2597.000000	97.114734
2596.000000	97.119710
2595.000000	97.130681
2594.000000	97.145138
2593.000000	97.158107
2592.000000	97.165402
2591.000000	97.166345
2590.000000	97.163729
2589.000000	97.161603
2588.000000	97.162443
2587.000000	97.165216
2586.000000	97.166312
2585.000000	97.163275
2584.000000	97.157528
2583.000000	97.152511
2582.000000	97.149879
2581.000000	97.149186
2580.000000	97.150563
2579.000000	97.155372
2578.000000	97.163784
2577.000000	97.173598
2576.000000	97.181917
2575.000000	97.186881
2574.000000	97.187989
2573.000000	97.186335
2572.000000	97.184537
2571.000000	97.184938
2570.000000	97.188153
2569.000000	97.194427
2568.000000	97.204829
2567.000000	97.218486
2566.000000	97.230065
2565.000000	97.233795
2564.000000	97.230471
2563.000000	97.227277
2562.000000	97.230163
2561.000000	97.238857
2560.000000	97.249161
2559.000000	97.257015
2558.000000	97.259849
2557.000000	97.257246
2556.000000	97.251541
2555.000000	97.245535
2554.000000	97.239301
2553.000000	97.231706
2552.000000	97.224525
2551.000000	97.221451
2550.000000	97.222777
2549.000000	97.225057
2548.000000	97.226687
2547.000000	97.229758
2546.000000	97.235170
2545.000000	97.240228
2544.000000	97.243285
2543.000000	97.246792
2542.000000	97.252774
2541.000000	97.258161
2540.000000	97.257670
2539.000000	97.249646
2538.000000	97.237069
2537.000000	97.224670
2536.000000	97.216575
2535.000000	97.214357
2534.000000	97.214921
2533.000000	97.211905
2532.000000	97.200844
2531.000000	97.182285
2530.000000	97.159507
2529.000000	97.135949
2528.000000	97.115812
2527.000000	97.103969
2526.000000	97.102290
2525.000000	97.106997
2524.000000	97.111549
2523.000000	97.111653
2522.000000	97.107389
2521.000000	97.101987
2520.000000	97.099163
2519.000000	97.100074
2518.000000	97.102153
2517.000000	97.102120
2516.000000	97.099928
2515.000000	97.098005
2514.000000	97.097457
2513.000000	97.097784
2512.000000	97.099720
2511.000000	97.104884
2510.000000	97.112515
2509.000000	97.120352
2508.000000	97.129105
2507.000000	97.142060
2506.000000	97.159282
2505.000000	97.176367
2504.000000	97.190673
2503.000000	97.205097
2502.000000	97.223349
2501.000000	97.244501
2500.000000	97.264391
2499.000000	97.279846
2498.000000	97.290025
2497.000000	97.296606
2496.000000	97.303986
2495.000000	97.316151
2494.000000	97.331301
2493.000000	97.342785
2492.000000	97.347408
2491.000000	97.349331
2490.000000	97.353707
2489.000000	97.360189
2488.000000	97.366332
2487.000000	97.373923
2486.000000	97.387026
2485.000000	97.405102
2484.000000	97.422161
2483.000000	97.432967
2482.000000	97.437469
2481.000000	97.439181
2480.000000	97.441253
2479.000000	97.444008
2478.000000	97.445126
2477.000000	97.442772
2476.000000	97.438957
2475.000000	97.438467
2474.000000	97.443504
2473.000000	97.450951
2472.000000	97.456153
2471.000000	97.457988
2470.000000	97.459103
2469.000000	97.462650
2468.000000	97.470007
2467.000000	97.480075
2466.000000	97.489490
2465.000000	97.494682
2464.000000	97.495071
2463.000000	97.493286
2462.000000	97.491764
2461.000000	97.490667
2460.000000	97.489557
2459.000000	97.489047
2458.000000	97.489456
2457.000000	97.489549
2456.000000	97.487867
2455.000000	97.484417
2454.000000	97.480587
2453.000000	97.478965
2452.000000	97.483127
2451.000000	97.494920
2450.000000	97.510694
2449.000000	97.522682
2448.000000	97.526088
2447.000000	97.523525
2446.000000	97.521252
2445.000000	97.522563
2444.000000	97.526117
2443.000000	97.528966
2442.000000	97.529579
2441.000000	97.528603
2440.000000	97.527820
2439.000000	97.528020
2438.000000	97.527703
2437.000000	97.524831
2436.000000	97.519885
2435.000000	97.515910
2434.000000	97.515583
2433.000000	97.519587
2432.000000	97.527295
2431.000000	97.536976
2430.000000	97.545279
2429.000000	97.548879
2428.000000	97.547486
2427.000000	97.543883
2426.000000	97.540887
2425.000000	97.539600
2424.000000	97.540123
2423.000000	97.541852
2422.000000	97.543316
2421.000000	97.543711
2420.000000	97.544268
2419.000000	97.546071
2418.000000	97.547319
2417.000000	97.545501
2416.000000	97.541771
2415.000000	97.539906
2414.000000	97.540930
2413.000000	97.542026
2412.000000	97.541640
2411.000000	97.542675
2410.000000	97.549401
2409.000000	97.562817
2408.000000	97.579502
2407.000000	97.593415
2406.000000	97.599166
2405.000000	97.595758
2404.000000	97.587493
2403.000000	97.579631
2402.000000	97.573884
2401.000000	97.569874
2400.000000	97.569057
2399.000000	97.573540
2398.000000	97.581616
2397.000000	97.588099
2396.000000	97.589485
2395.000000	97.586231
2394.000000	97.580526
2393.000000	97.575043
2392.000000	97.573225
2391.000000	97.577191
2390.000000	97.584745
2389.000000	97.591363
2388.000000	97.595926
2387.000000	97.600615
2386.000000	97.606745
2385.000000	97.613439
2384.000000	97.620507
2383.000000	97.630040
2382.000000	97.642081
2381.000000	97.653738
2380.000000	97.661161
2379.000000	97.660641
2378.000000	97.649694
2377.000000	97.630630
2376.000000	97.612661
2375.000000	97.604581
2374.000000	97.607010
2373.000000	97.615209
2372.000000	97.628048
2371.000000	97.646417
2370.000000	97.665241
2369.000000	97.676065
2368.000000	97.673402
2367.000000	97.657503
2366.000000	97.633366
2365.000000	97.611812
2364.000000	97.604259
2363.000000	97.606587
2362.000000	97.601251
2361.000000	97.582594
2360.000000	97.565034
2359.000000	97.564689
2358.000000	97.581536
2357.000000	97.601904
2356.000000	97.612373
2355.000000	97.603449
2354.000000	97.588789
2353.000000	97.588720
2352.000000	97.605091
2351.000000	97.619214
2350.000000	97.616028
2349.000000	97.594324
2348.000000	97.563519
2347.000000	97.541633
2346.000000	97.540907
2345.000000	97.551050
2344.000000	97.556363
2343.000000	97.555887
2342.000000	97.559656
2341.000000	97.568957
2340.000000	97.573238
2339.000000	97.564793
2338.000000	97.549237
2337.000000	97.538836
2336.000000	97.535398
2335.000000	97.535886
2334.000000	97.540379
2333.000000	97.553217
2332.000000	97.565253
2331.000000	97.568540
2330.000000	97.560636
2329.000000	97.549411
2328.000000	97.530357
2327.000000	97.500142
2326.000000	97.463415
2325.000000	97.434975
2324.000000	97.424509
2323.000000	97.432168
2322.000000	97.449250
2321.000000	97.466252
2320.000000	97.475277
2319.000000	97.478299
2318.000000	97.478916
2317.000000	97.483672
2316.000000	97.493081
2315.000000	97.508735
2314.000000	97.525309
2313.000000	97.538903
2312.000000	97.547231
2311.000000	97.558157
2310.000000	97.576650
2309.000000	97.600295
2308.000000	97.619557
2307.000000	97.631766
2306.000000	97.639227
2305.000000	97.643923
2304.000000	97.643676
2303.000000	97.639531
2302.000000	97.634384
2301.000000	97.630156
2300.000000	97.624027
2299.000000	97.616693
2298.000000	97.610768
2297.000000	97.609623
2296.000000	97.610652
2295.000000	97.611044
2294.000000	97.609127
2293.000000	97.605996
2292.000000	97.602557
2291.000000	97.600900
2290.000000	97.603365
2289.000000	97.609180
2288.000000	97.612796
2287.000000	97.608387
2286.000000	97.597797
2285.000000	97.590646
2284.000000	97.596525
2283.000000	97.614748
2282.000000	97.635900
2281.000000	97.651479
2280.000000	97.660409
2279.000000	97.663286
2278.000000	97.656803
2277.000000	97.640507
2276.000000	97.625597
2275.000000	97.628505
2274.000000	97.653348
2273.000000	97.687468
2272.000000	97.715078
2271.000000	97.731094
2270.000000	97.739695
2269.000000	97.746316
2268.000000	97.754001
2267.000000	97.762777
2266.000000	97.768374
2265.000000	97.765258
2264.000000	97.753686
2263.000000	97.741090
2262.000000	97.734913
2261.000000	97.736519
2260.000000	97.742375
2259.000000	97.746903
2258.000000	97.745547
2257.000000	97.739863
2256.000000	97.739579
2255.000000	97.752339
2254.000000	97.770967
2253.000000	97.779008
2252.000000	97.770203
2251.000000	97.755408
2250.000000	97.748471
2249.000000	97.754170
2248.000000	97.770191
2247.000000	97.791898
2246.000000	97.810858
2245.000000	97.818491
2244.000000	97.815654
2243.000000	97.811699
2242.000000	97.811021
2241.000000	97.808811
2240.000000	97.801936
2239.000000	97.793856
2238.000000	97.785728
2237.000000	97.774901
2236.000000	97.766963
2235.000000	97.776491
2234.000000	97.807755
2233.000000	97.845525
2232.000000	97.873215
2231.000000	97.889756
2230.000000	97.899699
2229.000000	97.898658
2228.000000	97.881625
2227.000000	97.857064
2226.000000	97.840129
2225.000000	97.837074
2224.000000	97.845779
2223.000000	97.864329
2222.000000	97.888040
2221.000000	97.904578
2220.000000	97.904752
2219.000000	97.894921
2218.000000	97.888185
2217.000000	97.887566
2216.000000	97.887518
2215.000000	97.888024
2214.000000	97.895802
2213.000000	97.913110
2212.000000	97.934744
2211.000000	97.955515
2210.000000	97.972649
2209.000000	97.981601
2208.000000	97.977760
2207.000000	97.962778
2206.000000	97.943933
2205.000000	97.927085
2204.000000	97.913483
2203.000000	97.902472
2202.000000	97.895253
2201.000000	97.896482
2200.000000	97.910940
2199.000000	97.935174
2198.000000	97.955064
2197.000000	97.960177
2196.000000	97.961266
2195.000000	97.982977
2194.000000	98.034682
2193.000000	98.095763
2192.000000	98.132923
2191.000000	98.126971
2190.000000	98.082740
2189.000000	98.026378
2188.000000	97.994661
2187.000000	98.010468
2186.000000	98.059967
2185.000000	98.103929
2184.000000	98.119919
2183.000000	98.124124
2182.000000	98.141597
2181.000000	98.166130
2180.000000	98.164411
2179.000000	98.116329
2178.000000	98.040825
2177.000000	97.983475
2176.000000	97.980704
2175.000000	98.029483
2174.000000	98.089520
2173.000000	98.119870
2172.000000	98.113972
2171.000000	98.094747
2170.000000	98.081559
2169.000000	98.072403
2168.000000	98.055510
2167.000000	98.027621
2166.000000	98.000532
2165.000000	97.997350
2164.000000	98.036179
2163.000000	98.105472
2162.000000	98.163713
2161.000000	98.181860
2160.000000	98.183160
2159.000000	98.216053
2158.000000	98.284356
2157.000000	98.341928
2156.000000	98.357221
2155.000000	98.340374
2154.000000	98.311852
2153.000000	98.283215
2152.000000	98.263701
2151.000000	98.255698
2150.000000	98.245035
2149.000000	98.218218
2148.000000	98.187559
2147.000000	98.174843
2146.000000	98.172958
2145.000000	98.150841
2144.000000	98.099177
2143.000000	98.043734
2142.000000	98.009256
2141.000000	97.995123
2140.000000	97.991156
2139.000000	97.993740
2138.000000	97.997976
2137.000000	97.996080
2136.000000	97.993848
2135.000000	98.008704
2134.000000	98.039946
2133.000000	98.060422
2132.000000	98.049246
2131.000000	98.016191
2130.000000	97.983557
2129.000000	97.960908
2128.000000	97.947111
2127.000000	97.941805
2126.000000	97.941791
2125.000000	97.936122
2124.000000	97.917904
2123.000000	97.894693
2122.000000	97.877626
2121.000000	97.866399
2120.000000	97.853811
2119.000000	97.838555
2118.000000	97.823877
2117.000000	97.809549
2116.000000	97.794776
2115.000000	97.784543
2114.000000	97.783526
2113.000000	97.787089
2112.000000	97.786818
2111.000000	97.781924
2110.000000	97.776876
2109.000000	97.771550
2108.000000	97.763264
2107.000000	97.756085
2106.000000	97.758053
2105.000000	97.768999
2104.000000	97.779277
2103.000000	97.781123
2102.000000	97.775280
2101.000000	97.766706
2100.000000	97.759589
2099.000000	97.757621
2098.000000	97.765288
2097.000000	97.786676
2096.000000	97.822409
2095.000000	97.864017
2094.000000	97.892884
2093.000000	97.892853
2092.000000	97.867367
2091.000000	97.836892
2090.000000	97.816920
2089.000000	97.805582
2088.000000	97.795997
2087.000000	97.791932
2086.000000	97.802323
2085.000000	97.826355
2084.000000	97.853300
2083.000000	97.874670
2082.000000	97.888524
2081.000000	97.893729
2080.000000	97.887993
2079.000000	97.871883
2078.000000	97.850195
2077.000000	97.829254
2076.000000	97.816135
2075.000000	97.817475
2074.000000	97.835776
2073.000000	97.867414
2072.000000	97.904428
2071.000000	97.936589
2070.000000	97.951309
2069.000000	97.940586
2068.000000	97.913318
2067.000000	97.893377
2066.000000	97.898565
2065.000000	97.923188
2064.000000	97.945001
2063.000000	97.948217
2062.000000	97.936889
2061.000000	97.929720
2060.000000	97.943804
2059.000000	97.977470
2058.000000	98.009230
2057.000000	98.019728
2056.000000	98.014148
2055.000000	98.013466
2054.000000	98.023725
2053.000000	98.028403
2052.000000	98.015223
2051.000000	97.996808
2050.000000	97.996549
2049.000000	98.022760
2048.000000	98.064586
2047.000000	98.107787
2046.000000	98.143309
2045.000000	98.164595
2044.000000	98.168712
2043.000000	98.158890
2042.000000	98.140518
2041.000000	98.119221
2040.000000	98.104168
2039.000000	98.104217
2038.000000	98.119361
2037.000000	98.144492
2036.000000	98.180108
2035.000000	98.226535
2034.000000	98.268366
2033.000000	98.284784
2032.000000	98.279960
2031.000000	98.280049
2030.000000	98.293990
2029.000000	98.300577
2028.000000	98.283039
2027.000000	98.256652
2026.000000	98.249042
2025.000000	98.269184
2024.000000	98.301225
2023.000000	98.319838
2022.000000	98.307771
2021.000000	98.273946
2020.000000	98.255269
2019.000000	98.281157
2018.000000	98.333846
2017.000000	98.361549
2016.000000	98.338787
2015.000000	98.291813
2014.000000	98.257832
2013.000000	98.248360
2012.000000	98.256475
2011.000000	98.274689
2010.000000	98.295650
2009.000000	98.312448
2008.000000	98.327717
2007.000000	98.348469
2006.000000	98.367050
2005.000000	98.366061
2004.000000	98.342871
2003.000000	98.312261
2002.000000	98.281493
2001.000000	98.243287
2000.000000	98.195306
1999.000000	98.147143
1998.000000	98.111546
1997.000000	98.097718
1996.000000	98.111113
1995.000000	98.145325
1994.000000	98.177277
1993.000000	98.185070
1992.000000	98.173898
1991.000000	98.166527
1990.000000	98.166705
1989.000000	98.158015
1988.000000	98.138866
1987.000000	98.130610
1986.000000	98.145989
1985.000000	98.173015
1984.000000	98.194363
1983.000000	98.201262
1982.000000	98.183197
1981.000000	98.132291
1980.000000	98.070420
1979.000000	98.044413
1978.000000	98.080433
1977.000000	98.153867
1976.000000	98.222853
1975.000000	98.272442
1974.000000	98.308350
1973.000000	98.333023
1972.000000	98.347492
1971.000000	98.356852
1970.000000	98.361709
1969.000000	98.358473
1968.000000	98.350847
1967.000000	98.345506
1966.000000	98.338151
1965.000000	98.323223
1964.000000	98.312000
1963.000000	98.317703
1962.000000	98.327882
1961.000000	98.318388
1960.000000	98.292786
1959.000000	98.278104
1958.000000	98.281846
1957.000000	98.284652
1956.000000	98.275714
1955.000000	98.262776
1954.000000	98.245882
1953.000000	98.213703
1952.000000	98.174007
1951.000000	98.160305
1950.000000	98.188881
1949.000000	98.236583
1948.000000	98.272128
1947.000000	98.286577
1946.000000	98.282918
1945.000000	98.259621
1944.000000	98.220791
1943.000000	98.184753
1942.000000	98.165373
1941.000000	98.156803
1940.000000	98.148410
1939.000000	98.141114
1938.000000	98.138432
1937.000000	98.136270
1936.000000	98.132462
1935.000000	98.133861
1934.000000	98.144133
1933.000000	98.153948
1932.000000	98.153454
1931.000000	98.146115
1930.000000	98.134763
1929.000000	98.117790
1928.000000	98.101569
1927.000000	98.101567
1926.000000	98.124993
1925.000000	98.156069
1924.000000	98.181249
1923.000000	98.202831
1922.000000	98.222868
1921.000000	98.228442
1920.000000	98.208740
1919.000000	98.175775
1918.000000	98.152661
1917.000000	98.145398
1916.000000	98.143523
1915.000000	98.138238
1914.000000	98.131373
1913.000000	98.127705
1912.000000	98.130972
1911.000000	98.145362
1910.000000	98.167977
1909.000000	98.187716
1908.000000	98.194726
1907.000000	98.190169
1906.000000	98.183195
1905.000000	98.175528
1904.000000	98.169672
1903.000000	98.169444
1902.000000	98.170671
1901.000000	98.165062
1900.000000	98.153900
1899.000000	98.148354
1898.000000	98.155444
1897.000000	98.167272
1896.000000	98.178078
1895.000000	98.194391
1894.000000	98.219348
1893.000000	98.239622
1892.000000	98.240815
1891.000000	98.226408
1890.000000	98.211168
1889.000000	98.203445
1888.000000	98.201792
1887.000000	98.201982
1886.000000	98.200981
1885.000000	98.197634
1884.000000	98.195353
1883.000000	98.200772
1882.000000	98.212589
1881.000000	98.221706
1880.000000	98.222793
1879.000000	98.220251
1878.000000	98.221801
1877.000000	98.224916
1876.000000	98.221732
1875.000000	98.215903
1874.000000	98.217725
1873.000000	98.229136
1872.000000	98.246398
1871.000000	98.273081
1870.000000	98.316410
1869.000000	98.365528
1868.000000	98.392358
1867.000000	98.381379
1866.000000	98.338845
1865.000000	98.282327
1864.000000	98.233529
1863.000000	98.208318
1862.000000	98.206084
1861.000000	98.213472
1860.000000	98.220923
1859.000000	98.229988
1858.000000	98.243789
1857.000000	98.257688
1856.000000	98.265247
1855.000000	98.268443
1854.000000	98.271110
1853.000000	98.272890
1852.000000	98.272908
1851.000000	98.268997
1850.000000	98.271313
1849.000000	98.290488
1848.000000	98.320707
1847.000000	98.339267
1846.000000	98.331246
1845.000000	98.309483
1844.000000	98.301472
1843.000000	98.315541
1842.000000	98.327649
1841.000000	98.316014
1840.000000	98.289527
1839.000000	98.272201
1838.000000	98.270250
1837.000000	98.264910
1836.000000	98.250499
1835.000000	98.244266
1834.000000	98.257275
1833.000000	98.280607
1832.000000	98.303977
1831.000000	98.331000
1830.000000	98.369442
1829.000000	98.401902
1828.000000	98.401067
1827.000000	98.363440
1826.000000	98.316911
1825.000000	98.290779
1824.000000	98.284763
1823.000000	98.281189
1822.000000	98.271807
1821.000000	98.263465
1820.000000	98.261037
1819.000000	98.261827
1818.000000	98.263793
1817.000000	98.266942
1816.000000	98.276987
1815.000000	98.294224
1814.000000	98.309156
1813.000000	98.312291
1812.000000	98.300628
1811.000000	98.285328
1810.000000	98.272121
1809.000000	98.251049
1808.000000	98.216316
1807.000000	98.177704
1806.000000	98.146813
1805.000000	98.120547
1804.000000	98.089576
1803.000000	98.051191
1802.000000	98.009828
1801.000000	97.972325
1800.000000	97.934772
1799.000000	97.898249
1798.000000	97.870851
1797.000000	97.860901
1796.000000	97.866428
1795.000000	97.876592
1794.000000	97.888709
1793.000000	97.917590
1792.000000	97.969050
1791.000000	98.030510
1790.000000	98.082625
1789.000000	98.114318
1788.000000	98.126906
1787.000000	98.132765
1786.000000	98.146722
1785.000000	98.175849
1784.000000	98.217822
1783.000000	98.257376
1782.000000	98.278675
1781.000000	98.287840
1780.000000	98.289615
1779.000000	98.290732
1778.000000	98.295987
1777.000000	98.313499
1776.000000	98.344528
1775.000000	98.371380
1774.000000	98.382845
1773.000000	98.388327
1772.000000	98.388592
1771.000000	98.363511
1770.000000	98.291594
1769.000000	98.172366
1768.000000	98.049047
1767.000000	97.971379
1766.000000	97.932995
1765.000000	97.881144
1764.000000	97.778657
1763.000000	97.633993
1762.000000	97.470492
1761.000000	97.294453
1760.000000	97.085753
1759.000000	96.818824
1758.000000	96.464617
1757.000000	96.023891
1756.000000	95.546935
1755.000000	95.086605
1754.000000	94.627420
1753.000000	94.111489
1752.000000	93.512141
1751.000000	92.869354
1750.000000	92.243253
1749.000000	91.634586
1748.000000	91.044987
1747.000000	90.514924
1746.000000	90.066117
1745.000000	89.681280
1744.000000	89.353590
1743.000000	89.108048
1742.000000	88.944630
1741.000000	88.832339
1740.000000	88.783978
1739.000000	88.848269
1738.000000	88.989914
1737.000000	89.123322
1736.000000	89.252448
1735.000000	89.520859
1734.000000	90.030511
1733.000000	90.606266
1732.000000	91.066435
1731.000000	91.447945
1730.000000	91.840776
1729.000000	92.272659
1728.000000	92.720105
1727.000000	93.155750
1726.000000	93.574194
1725.000000	93.979487
1724.000000	94.373046
1723.000000	94.759355
1722.000000	95.114913
1721.000000	95.406097
1720.000000	95.643056
1719.000000	95.893473
1718.000000	96.196880
1717.000000	96.473721
1716.000000	96.638892
1715.000000	96.712221
1714.000000	96.739261
1713.000000	96.739202
1712.000000	96.728337
1711.000000	96.728355
1710.000000	96.747060
1709.000000	96.774545
1708.000000	96.791323
1707.000000	96.783526
1706.000000	96.756927
1705.000000	96.723230
1704.000000	96.683919
1703.000000	96.604623
1702.000000	96.456551
1701.000000	96.284445
1700.000000	96.179977
1699.000000	96.156471
1698.000000	96.081961
1697.000000	95.854432
1696.000000	95.543329
1695.000000	95.309818
1694.000000	95.180501
1693.000000	95.056874
1692.000000	94.896144
1691.000000	94.731315
1690.000000	94.590290
1689.000000	94.475240
1688.000000	94.380494
1687.000000	94.288632
1686.000000	94.179777
1685.000000	94.018496
1684.000000	93.795852
1683.000000	93.589960
1682.000000	93.407281
1681.000000	93.194088
1680.000000	92.974339
1679.000000	92.793675
1678.000000	92.638262
1677.000000	92.457415
1676.000000	92.245368
1675.000000	92.059170
1674.000000	91.935283
1673.000000	91.830152
1672.000000	91.684313
1671.000000	91.493143
1670.000000	91.262029
1669.000000	91.002493
1668.000000	90.757031
1667.000000	90.556656
1666.000000	90.382950
1665.000000	90.195045
1664.000000	89.972532
1663.000000	89.732405
1662.000000	89.499705
1661.000000	89.283882
1660.000000	89.074007
1659.000000	88.879908
1658.000000	88.728659
1657.000000	88.622355
1656.000000	88.519332
1655.000000	88.380305
1654.000000	88.180702
1653.000000	87.924992
1652.000000	87.779120
1651.000000	87.769798
1650.000000	87.760552
1649.000000	87.705742
1648.000000	87.623051
1647.000000	87.545306
1646.000000	87.501719
1645.000000	87.487183
1644.000000	87.482053
1643.000000	87.483137
1642.000000	87.498148
1641.000000	87.546311
1640.000000	87.632094
1639.000000	87.736755
1638.000000	87.834176
1637.000000	87.910829
1636.000000	87.972066
1635.000000	88.031119
1634.000000	88.095789
1633.000000	88.144067
1632.000000	88.178976
1631.000000	88.230519
1630.000000	88.321723
1629.000000	88.452671
1628.000000	88.609988
1627.000000	88.775532
1626.000000	88.931818
1625.000000	89.081766
1624.000000	89.248164
1623.000000	89.446499
1622.000000	89.651724
1621.000000	89.831335
1620.000000	89.976031
1619.000000	90.101849
1618.000000	90.245246
1617.000000	90.437503
1616.000000	90.661702
1615.000000	90.857726
1614.000000	90.993664
1613.000000	91.090946
1612.000000	91.198305
1611.000000	91.340305
1610.000000	91.497407
1609.000000	91.644443
1608.000000	91.779956
1607.000000	91.908273
1606.000000	92.020877
1605.000000	92.119253
1604.000000	92.210195
1603.000000	92.292818
1602.000000	92.359500
1601.000000	92.410369
1600.000000	92.457588
1599.000000	92.509068
1598.000000	92.561575
1597.000000	92.610671
1596.000000	92.656852
1595.000000	92.698111
1594.000000	92.726191
1593.000000	92.739238
1592.000000	92.745431
1591.000000	92.750056
1590.000000	92.748308
1589.000000	92.737099
1588.000000	92.720691
1587.000000	92.702212
1586.000000	92.676462
1585.000000	92.642353
1584.000000	92.606319
1583.000000	92.561218
1582.000000	92.507511
1581.000000	92.464686
1580.000000	92.446939
1579.000000	92.435424
1578.000000	92.404616
1577.000000	92.344891
1576.000000	92.273997
1575.000000	92.220936
1574.000000	92.177475
1573.000000	92.119326
1572.000000	92.046195
1571.000000	91.972454
1570.000000	91.891624
1569.000000	91.796423
1568.000000	91.703357
1567.000000	91.605251
1566.000000	91.487858
1565.000000	91.365510
1564.000000	91.274724
1563.000000	91.215976
1562.000000	91.161574
1561.000000	91.100807
1560.000000	91.039133
1559.000000	90.855416
1558.000000	90.577258
1557.000000	90.342128
1556.000000	90.104414
1555.000000	89.842875
1554.000000	89.598019
1553.000000	89.405210
1552.000000	89.236303
1551.000000	89.052875
1550.000000	88.857226
1549.000000	88.676145
1548.000000	88.530602
1547.000000	88.408402
1546.000000	88.301999
1545.000000	88.220181
1544.000000	88.170314
1543.000000	88.143600
1542.000000	88.115434
1541.000000	88.036337
1540.000000	87.891214
1539.000000	87.760704
1538.000000	87.697777
1537.000000	87.659336
1536.000000	87.615110
1535.000000	87.579081
1534.000000	87.574311
1533.000000	87.592365
1532.000000	87.603843
1531.000000	87.604554
1530.000000	87.603405
1529.000000	87.604431
1528.000000	87.611853
1527.000000	87.635061
1526.000000	87.680337
1525.000000	87.738139
1524.000000	87.780149
1523.000000	87.788369
1522.000000	87.768300
1521.000000	87.744707
1520.000000	87.741829
1519.000000	87.739597
1518.000000	87.702769
1517.000000	87.630370
1516.000000	87.559828
1515.000000	87.520606
1514.000000	87.501089
1513.000000	87.499820
1512.000000	87.542874
1511.000000	87.646615
1510.000000	87.779569
1509.000000	87.899250
1508.000000	87.986515
1507.000000	88.026685
1506.000000	88.016800
1505.000000	87.993251
1504.000000	87.971499
1503.000000	87.946562
1502.000000	87.925919
1501.000000	87.919903
1500.000000	87.930841
1499.000000	87.946512
1498.000000	87.942071
1497.000000	87.893728
1496.000000	87.825946
1495.000000	87.791035
1494.000000	87.783017
1493.000000	87.764935
1492.000000	87.730772
1491.000000	87.703514
1490.000000	87.673599
1489.000000	87.597485
1488.000000	87.468774
1487.000000	87.324823
1486.000000	87.181426
1485.000000	87.032491
1484.000000	86.879481
1483.000000	86.719423
1482.000000	86.546858
1481.000000	86.354714
1480.000000	86.154314
1479.000000	85.955308
1478.000000	85.750920
1477.000000	85.530498
1476.000000	85.303497
1475.000000	85.076657
1474.000000	84.803240
1473.000000	84.423943
1472.000000	83.977055
1471.000000	83.577719
1470.000000	83.246096
1469.000000	82.941080
1468.000000	82.654465
1467.000000	82.400114
1466.000000	82.167439
1465.000000	81.940694
1464.000000	81.737231
1463.000000	81.582015
1462.000000	81.462164
1461.000000	81.348842
1460.000000	81.229461
1459.000000	81.083570
1458.000000	80.855660
1457.000000	80.521701
1456.000000	80.221841
1455.000000	80.040057
1454.000000	79.893215
1453.000000	79.731200
1452.000000	79.578769
1451.000000	79.466792
1450.000000	79.375507
1449.000000	79.267421
1448.000000	79.144700
1447.000000	79.033791
1446.000000	78.928874
1445.000000	78.816852
1444.000000	78.695522
1443.000000	78.575108
1442.000000	78.457092
1441.000000	78.335035
1440.000000	78.204421
1439.000000	78.056110
1438.000000	77.873058
1437.000000	77.648765
1436.000000	77.438608
1435.000000	77.299936
1434.000000	77.201676
1433.000000	77.097183
1432.000000	76.989933
1431.000000	76.890970
1430.000000	76.773984
1429.000000	76.606216
1428.000000	76.409091
1427.000000	76.223153
1426.000000	76.053441
1425.000000	75.906231
1424.000000	75.807055
1423.000000	75.762146
1422.000000	75.725133
1421.000000	75.654835
1420.000000	75.568290
1419.000000	75.505519
1418.000000	75.466151
1417.000000	75.427451
1416.000000	75.401920
1415.000000	75.414510
1414.000000	75.464758
1413.000000	75.540297
1412.000000	75.646276
1411.000000	75.792937
1410.000000	75.966599
1409.000000	76.144993
1408.000000	76.331749
1407.000000	76.540200
1406.000000	76.760209
1405.000000	76.978287
1404.000000	77.191925
1403.000000	77.391314
1402.000000	77.554656
1401.000000	77.681984
1400.000000	77.806543
1399.000000	77.950084
1398.000000	78.089807
1397.000000	78.201408
1396.000000	78.304716
1395.000000	78.430326
1394.000000	78.573401
1393.000000	78.717684
1392.000000	78.864447
1391.000000	79.018743
1390.000000	79.176890
1389.000000	79.342553
1388.000000	79.533324
1387.000000	79.750896
1386.000000	79.961494
1385.000000	80.142327
1384.000000	80.307928
1383.000000	80.480281
1382.000000	80.662650
1381.000000	80.849399
1380.000000	81.050266
1379.000000	81.278010
1378.000000	81.529022
1377.000000	81.794190
1376.000000	82.076837
1375.000000	82.375527
1374.000000	82.663458
1373.000000	82.913949
1372.000000	83.129554
1371.000000	83.325034
1370.000000	83.507911
1369.000000	83.688348
1368.000000	83.873310
1367.000000	84.055556
1366.000000	84.223098
1365.000000	84.380437
1364.000000	84.541590
1363.000000	84.701330
1362.000000	84.836304
1361.000000	84.941603
1360.000000	85.034544
1359.000000	85.124255
1358.000000	85.207702
1357.000000	85.287751
1356.000000	85.373850
1355.000000	85.468026
1354.000000	85.566123
1353.000000	85.669195
1352.000000	85.779737
1351.000000	85.889943
1350.000000	85.985467
1349.000000	86.065973
1348.000000	86.136234
1347.000000	86.190824
1346.000000	86.220552
1345.000000	86.231807
1344.000000	86.238975
1343.000000	86.241828
1342.000000	86.226432
1341.000000	86.185029
1340.000000	86.120834
1339.000000	86.039356
1338.000000	85.949829
1337.000000	85.872036
1336.000000	85.826004
1335.000000	85.816946
1334.000000	85.839059
1333.000000	85.890180
1332.000000	85.970794
1331.000000	86.072628
1330.000000	86.182271
1329.000000	86.295071
1328.000000	86.412982
1327.000000	86.531516
1326.000000	86.641684
1325.000000	86.743233
1324.000000	86.840421
1323.000000	86.931314
1322.000000	87.013318
1321.000000	87.093593
1320.000000	87.180248
1319.000000	87.268760
1318.000000	87.351159
1317.000000	87.432836
1316.000000	87.524587
1315.000000	87.624860
1314.000000	87.724716
1313.000000	87.823681
1312.000000	87.926574
1311.000000	88.030866
1310.000000	88.131600
1309.000000	88.232753
1308.000000	88.339819
1307.000000	88.448155
1306.000000	88.550556
1305.000000	88.650848
1304.000000	88.755129
1303.000000	88.859267
1302.000000	88.957584
1301.000000	89.056081
1300.000000	89.162464
1299.000000	89.271155
1298.000000	89.372080
1297.000000	89.465808
1296.000000	89.556707
1295.000000	89.639068
1294.000000	89.705667
1293.000000	89.760943
1292.000000	89.811663
1291.000000	89.853302
1290.000000	89.878978
1289.000000	89.894357
1288.000000	89.909669
1287.000000	89.925172
1286.000000	89.937507
1285.000000	89.951231
1284.000000	89.970700
1283.000000	89.989421
1282.000000	89.999658
1281.000000	90.004228
1280.000000	90.006363
1279.000000	89.997787
1278.000000	89.969769
1277.000000	89.925346
1276.000000	89.868928
1275.000000	89.792695
1274.000000	89.687843
1273.000000	89.559075
1272.000000	89.414174
1271.000000	89.249280
1270.000000	89.057210
1269.000000	88.843021
1268.000000	88.617532
1267.000000	88.381893
1266.000000	88.132391
1265.000000	87.873554
1264.000000	87.615365
1263.000000	87.362408
1262.000000	87.115415
1261.000000	86.878251
1260.000000	86.653554
1259.000000	86.437129
1258.000000	86.227673
1257.000000	86.038983
1256.000000	85.891209
1255.000000	85.793205
1254.000000	85.739047
1253.000000	85.715698
1252.000000	85.707234
1251.000000	85.694989
1250.000000	85.666361
1249.000000	85.622950
1248.000000	85.572834
1247.000000	85.518868
1246.000000	85.461002
1245.000000	85.403856
1244.000000	85.353203
1243.000000	85.309693
1242.000000	85.274864
1241.000000	85.257736
1240.000000	85.266565
1239.000000	85.299486
1238.000000	85.351194
1237.000000	85.424699
1236.000000	85.525018
1235.000000	85.646708
1234.000000	85.779571
1233.000000	85.921693
1232.000000	86.078211
1231.000000	86.251591
1230.000000	86.444372
1229.000000	86.666755
1228.000000	86.926825
1227.000000	87.217933
1226.000000	87.525116
1225.000000	87.838564
1224.000000	88.150491
1223.000000	88.446267
1222.000000	88.713809
1221.000000	88.955675
1220.000000	89.179706
1219.000000	89.383502
1218.000000	89.561383
1217.000000	89.716842
1216.000000	89.855021
1215.000000	89.972284
1214.000000	90.064956
1213.000000	90.141575
1212.000000	90.211694
1211.000000	90.270546
1210.000000	90.308114
1209.000000	90.323959
1208.000000	90.322745
1207.000000	90.304134
1206.000000	90.269732
1205.000000	90.231506
1204.000000	90.199334
1203.000000	90.168513
1202.000000	90.130431
1201.000000	90.087607
1200.000000	90.047674
1199.000000	90.010586
1198.000000	89.973073
1197.000000	89.937289
1196.000000	89.903978
1195.000000	89.865095
1194.000000	89.813538
1193.000000	89.753123
1192.000000	89.690045
1191.000000	89.623018
1190.000000	89.550614
1189.000000	89.477773
1188.000000	89.405331
1187.000000	89.322928
1186.000000	89.221745
1185.000000	89.105531
1184.000000	88.979273
1183.000000	88.838199
1182.000000	88.678487
1181.000000	88.507597
1180.000000	88.333564
1179.000000	88.153026
1178.000000	87.961440
1177.000000	87.765270
1176.000000	87.572874
1175.000000	87.383513
1174.000000	87.195242
1173.000000	87.014439
1172.000000	86.846671
1171.000000	86.687673
1170.000000	86.533475
1169.000000	86.390809
1168.000000	86.266653
1167.000000	86.155421
1166.000000	86.049867
1165.000000	85.956519
1164.000000	85.888596
1163.000000	85.850986
1162.000000	85.842101
1161.000000	85.866034
1160.000000	85.928912
1159.000000	86.028672
1158.000000	86.161087
1157.000000	86.327898
1156.000000	86.530725
1155.000000	86.762185
1154.000000	87.015106
1153.000000	87.294507
1152.000000	87.605653
1151.000000	87.940109
1150.000000	88.285560
1149.000000	88.640800
1148.000000	89.007417
1147.000000	89.375667
1146.000000	89.735000
1145.000000	90.088525
1144.000000	90.441585
1143.000000	90.785327
1142.000000	91.107594
1141.000000	91.409316
1140.000000	91.694745
1139.000000	91.957867
1138.000000	92.192240
1137.000000	92.403883
1136.000000	92.597722
1135.000000	92.763121
1134.000000	92.889725
1133.000000	92.983752
1132.000000	93.056901
1131.000000	93.110955
1130.000000	93.146181
1129.000000	93.171471
1128.000000	93.190683
1127.000000	93.194527
1126.000000	93.178151
1125.000000	93.151246
1124.000000	93.119629
1123.000000	93.072920
1122.000000	93.004580
1121.000000	92.925866
1120.000000	92.843357
1119.000000	92.741326
1118.000000	92.600553
1117.000000	92.420154
1116.000000	92.206169
1115.000000	91.956005
1114.000000	91.672953
1113.000000	91.380616
1112.000000	91.107663
1111.000000	90.869349
1110.000000	90.675898
1109.000000	90.541888
1108.000000	90.472599
1107.000000	90.452319
1106.000000	90.459238
1105.000000	90.483680
1104.000000	90.518561
1103.000000	90.547880
1102.000000	90.558104
1101.000000	90.548205
1100.000000	90.517542
1099.000000	90.456881
1098.000000	90.366388
1097.000000	90.264984
1096.000000	90.170329
1095.000000	90.084260
1094.000000	90.008999
1093.000000	89.960248
1092.000000	89.951885
1091.000000	89.982759
1090.000000	90.051458
1089.000000	90.164597
1088.000000	90.317222
1087.000000	90.485304
1086.000000	90.652640
1085.000000	90.830116
1084.000000	91.030517
1083.000000	91.242530
1082.000000	91.446675
1081.000000	91.638331
1080.000000	91.818135
1079.000000	91.978341
1078.000000	92.118163
1077.000000	92.253301
1076.000000	92.392700
1075.000000	92.522655
1074.000000	92.630251
1073.000000	92.722655
1072.000000	92.806156
1071.000000	92.869529
1070.000000	92.905035
1069.000000	92.925273
1068.000000	92.941435
1067.000000	92.945758
1066.000000	92.933404
1065.000000	92.919230
1064.000000	92.914485
1063.000000	92.909457
1062.000000	92.896571
1061.000000	92.888707
1060.000000	92.895765
1059.000000	92.906505
1058.000000	92.913134
1057.000000	92.930819
1056.000000	92.971472
1055.000000	93.019920
1054.000000	93.059448
1053.000000	93.100077
1052.000000	93.159062
1051.000000	93.230782
1050.000000	93.299912
1049.000000	93.365787
1048.000000	93.430765
1047.000000	93.483611
1046.000000	93.515939
1045.000000	93.536372
1044.000000	93.549740
1043.000000	93.543814
1042.000000	93.512294
1041.000000	93.469982
1040.000000	93.426810
1039.000000	93.368783
1038.000000	93.284134
1037.000000	93.186782
1036.000000	93.094591
1035.000000	93.005614
1034.000000	92.914522
1033.000000	92.831162
1032.000000	92.763018
1031.000000	92.699874
1030.000000	92.635982
1029.000000	92.588204
1028.000000	92.572267
1027.000000	92.579464
1026.000000	92.595393
1025.000000	92.621118
1024.000000	92.658535
1023.000000	92.695167
1022.000000	92.724397
1021.000000	92.760818
1020.000000	92.815379
1019.000000	92.876012
1018.000000	92.930880
1017.000000	92.990178
1016.000000	93.064546
1015.000000	93.143950
1014.000000	93.218515
1013.000000	93.299589
1012.000000	93.399027
1011.000000	93.508453
1010.000000	93.617928
1009.000000	93.734437
1008.000000	93.861616
1007.000000	93.983038
1006.000000	94.086793
1005.000000	94.184962
1004.000000	94.288308
1003.000000	94.382539
1002.000000	94.452305
1001.000000	94.506865
1000.000000	94.560963
999.000000	94.609386
998.000000	94.643008
997.000000	94.670708
996.000000	94.702779
995.000000	94.731161
994.000000	94.746530
993.000000	94.758128
992.000000	94.776657
991.000000	94.795554
990.000000	94.807003
989.000000	94.817922
988.000000	94.831178
987.000000	94.831844
986.000000	94.811099
985.000000	94.785062
984.000000	94.769854
983.000000	94.757225
982.000000	94.734221
981.000000	94.706723
980.000000	94.684042
979.000000	94.658272
978.000000	94.619178
977.000000	94.571616
976.000000	94.520597
975.000000	94.457714
974.000000	94.381118
973.000000	94.309530
972.000000	94.258372
971.000000	94.220011
970.000000	94.184515
969.000000	94.160230
968.000000	94.156297
967.000000	94.164621
966.000000	94.177409
965.000000	94.203369
964.000000	94.247761
963.000000	94.297499
962.000000	94.343441
961.000000	94.398925
960.000000	94.476702
959.000000	94.567387
958.000000	94.659130
957.000000	94.757751
956.000000	94.869124
955.000000	94.982278
954.000000	95.089698
953.000000	95.203456
952.000000	95.331732
951.000000	95.459366
950.000000	95.571743
949.000000	95.676501
948.000000	95.782877
947.000000	95.881284
946.000000	95.963634
945.000000	96.041478
944.000000	96.123848
943.000000	96.198642
942.000000	96.255952
941.000000	96.308035
940.000000	96.365335
939.000000	96.416423
938.000000	96.451404
937.000000	96.484009
936.000000	96.529071
935.000000	96.580702
934.000000	96.631634
933.000000	96.690913
932.000000	96.761628
931.000000	96.824903
930.000000	96.867748
929.000000	96.903969
928.000000	96.947875
927.000000	96.990760
926.000000	97.024845
925.000000	97.064346
924.000000	97.120837
923.000000	97.180694
922.000000	97.230489
921.000000	97.280910
920.000000	97.342995
919.000000	97.404156
918.000000	97.451381
917.000000	97.495939
916.000000	97.551284
915.000000	97.609389
914.000000	97.660436
913.000000	97.713914
912.000000	97.777005
911.000000	97.835814
910.000000	97.879986
909.000000	97.923694
908.000000	97.979588
907.000000	98.035948
906.000000	98.081050
905.000000	98.124097
904.000000	98.169868
903.000000	98.199540
902.000000	98.202977
901.000000	98.203993
900.000000	98.228489
899.000000	98.269401
898.000000	98.308120
897.000000	98.344214
896.000000	98.380436
895.000000	98.403081
894.000000	98.403506
893.000000	98.396631
892.000000	98.392638
891.000000	98.371629
890.000000	98.300640
889.000000	98.145397
888.000000	97.847652
887.000000	97.331299
886.000000	96.577083
885.000000	95.670057
884.000000	94.736755
883.000000	93.846517
882.000000	92.979282
881.000000	92.064621
880.000000	91.033738
879.000000	89.869825
878.000000	88.643233
877.000000	87.492858
876.000000	86.555476
875.000000	85.922222
874.000000	85.662947
873.000000	85.840023
872.000000	86.471798
871.000000	87.486030
870.000000	88.735448
869.000000	90.054590
868.000000	91.293694
867.000000	92.346940
866.000000	93.188515
865.000000	93.868610
864.000000	94.444465
863.000000	94.933749
862.000000	95.340821
861.000000	95.688668
860.000000	95.994617
859.000000	96.247906
858.000000	96.444831
857.000000	96.613339
856.000000	96.774964
855.000000	96.915961
854.000000	97.023260
853.000000	97.111252
852.000000	97.177462
851.000000	97.174429
850.000000	97.076788
849.000000	96.948518
848.000000	96.896176
847.000000	96.966635
846.000000	97.123498
845.000000	97.303804
844.000000	97.460188
843.000000	97.567145
842.000000	97.627653
841.000000	97.669202
840.000000	97.709541
839.000000	97.737736
838.000000	97.743855
837.000000	97.743258
836.000000	97.749463
835.000000	97.750403
834.000000	97.735736
833.000000	97.723042
832.000000	97.731229
831.000000	97.753134
830.000000	97.778976
829.000000	97.820584
828.000000	97.885724
827.000000	97.954339
826.000000	98.008168
825.000000	98.056769
824.000000	98.108498
823.000000	98.147498
822.000000	98.167596
821.000000	98.192594
820.000000	98.235173
819.000000	98.271446
818.000000	98.283786
817.000000	98.293249
816.000000	98.321336
815.000000	98.353190
814.000000	98.367334
813.000000	98.371627
812.000000	98.380159
811.000000	98.383875
810.000000	98.372550
809.000000	98.358161
808.000000	98.349687
807.000000	98.332994
806.000000	98.299869
805.000000	98.267513
804.000000	98.245982
803.000000	98.218679
802.000000	98.178250
801.000000	98.146372
800.000000	98.132890
799.000000	98.111641
798.000000	98.064729
797.000000	98.015043
796.000000	97.987081
795.000000	97.970501
794.000000	97.949816
793.000000	97.934136
792.000000	97.929008
791.000000	97.913579
790.000000	97.874785
789.000000	97.831971
788.000000	97.801321
787.000000	97.769128
786.000000	97.725629
785.000000	97.690839
784.000000	97.679634
783.000000	97.673675
782.000000	97.654041
781.000000	97.629899
780.000000	97.610478
779.000000	97.582153
778.000000	97.538665
777.000000	97.500646
776.000000	97.479426
775.000000	97.454628
774.000000	97.412563
773.000000	97.373121
772.000000	97.353331
771.000000	97.339178
770.000000	97.318586
769.000000	97.306506
768.000000	97.309814
767.000000	97.302861
766.000000	97.266518
765.000000	97.217628
764.000000	97.173180
763.000000	97.120585
762.000000	97.051435
761.000000	96.987563
760.000000	96.944071
759.000000	96.901319
758.000000	96.843260
757.000000	96.788185
756.000000	96.752374
755.000000	96.719949
754.000000	96.679486
753.000000	96.653642
752.000000	96.658026
751.000000	96.666016
750.000000	96.648715
749.000000	96.619159
748.000000	96.603234
747.000000	96.597957
746.000000	96.590401
745.000000	96.587157
744.000000	96.592673
743.000000	96.588462
742.000000	96.564669
741.000000	96.542097
740.000000	96.534450
739.000000	96.519294
738.000000	96.475303
737.000000	96.415534
736.000000	96.356522
735.000000	96.286857
734.000000	96.195387
733.000000	96.097115
732.000000	96.004875
731.000000	95.909052
730.000000	95.810469
729.000000	95.734553
728.000000	95.690524
727.000000	95.653812
726.000000	95.608254
725.000000	95.570290
724.000000	95.545964
723.000000	95.504387
722.000000	95.418980
721.000000	95.297098
720.000000	95.140864
719.000000	94.915286
718.000000	94.580015
717.000000	94.109893
716.000000	93.471776
715.000000	92.656072
714.000000	91.781237
713.000000	91.103101
712.000000	90.845132
711.000000	91.024218
710.000000	91.472603
709.000000	91.987781
708.000000	92.427730
707.000000	92.724879
706.000000	92.880266
705.000000	92.944639
704.000000	92.966544
703.000000	92.957366
702.000000	92.921678
701.000000	92.886088
700.000000	92.863921
699.000000	92.834672
698.000000	92.784928
697.000000	92.739166
696.000000	92.720407
695.000000	92.711825
694.000000	92.697203
693.000000	92.695288
692.000000	92.714560
691.000000	92.725810
690.000000	92.711911
689.000000	92.703685
688.000000	92.726110
687.000000	92.747445
686.000000	92.737413
685.000000	92.719175
684.000000	92.716519
683.000000	92.708855
682.000000	92.683280
681.000000	92.673895
680.000000	92.700114
679.000000	92.723908
678.000000	92.717139
677.000000	92.706649
676.000000	92.726375
675.000000	92.764100
674.000000	92.805863
673.000000	92.878208
672.000000	93.003299
671.000000	93.166751
670.000000	93.363535
669.000000	93.607795
668.000000	93.788709
667.000000	93.754136
666.000000	93.649746
665.000000	93.575823
664.000000	93.542217
663.000000	93.532539
662.000000	93.527024
661.000000	93.533801
660.000000	93.566113
659.000000	93.606297
658.000000	93.628252
657.000000	93.624310
656.000000	93.600700
655.000000	93.548575
654.000000	93.456030
653.000000	93.338811
652.000000	93.228144
651.000000	93.131783
650.000000	93.037593
649.000000	92.941479
648.000000	92.845665
647.000000	92.737795
646.000000	92.599328
645.000000	92.437397
644.000000	92.274767
643.000000	92.116874
642.000000	91.961819
641.000000	91.821483
640.000000	91.707004
639.000000	91.609406
638.000000	91.516733
637.000000	91.438810
636.000000	91.394293
635.000000	91.381130
634.000000	91.388813
633.000000	91.422568
632.000000	91.483402
631.000000	91.542758
630.000000	91.569232
629.000000	91.565459
628.000000	91.551966
627.000000	91.533930
626.000000	91.506839
625.000000	91.480587
624.000000	91.460377
623.000000	91.425997
622.000000	91.363658
621.000000	91.294910
620.000000	91.240285
619.000000	91.181664
618.000000	91.094931
617.000000	90.994919
616.000000	90.910087
615.000000	90.838577
614.000000	90.768211
613.000000	90.711085
612.000000	90.683044
611.000000	90.674167
610.000000	90.674329
609.000000	90.699173
608.000000	90.759896
607.000000	90.837737
606.000000	90.919756
605.000000	91.032920
604.000000	91.202949
603.000000	91.414250
602.000000	91.649309
601.000000	91.921490
600.000000	92.224671
599.000000	92.501844
598.000000	92.714542
597.000000	92.897517
596.000000	93.092100
595.000000	93.278664
594.000000	93.423141
593.000000	93.541387
592.000000	93.658890
591.000000	93.753380
590.000000	93.801436
589.000000	93.834902
588.000000	93.891387
587.000000	93.953786
586.000000	93.992469
585.000000	94.023026
584.000000	94.070350
583.000000	94.116257
582.000000	94.137433
581.000000	94.151766
580.000000	94.177960
579.000000	94.195904
578.000000	94.197314
577.000000	94.222869
576.000000	94.295462
575.000000	94.367328
574.000000	94.391639
573.000000	94.393319
572.000000	94.409947
571.000000	94.426865
570.000000	94.422090
569.000000	94.422257
568.000000	94.453596
567.000000	94.490237
566.000000	94.508304
565.000000	94.532748
564.000000	94.575689
563.000000	94.593874
562.000000	94.565538
561.000000	94.543936
560.000000	94.571682
559.000000	94.604831
558.000000	94.590096
557.000000	94.553798
556.000000	94.545989
555.000000	94.555426
554.000000	94.550968
553.000000	94.550347
552.000000	94.577772
551.000000	94.607793
550.000000	94.615339
549.000000	94.630348
548.000000	94.677229
547.000000	94.717823
546.000000	94.715847
545.000000	94.701139
544.000000	94.706753
543.000000	94.709151
542.000000	94.688241
541.000000	94.677419
540.000000	94.694668
539.000000	94.695800
538.000000	94.658219
537.000000	94.637613
536.000000	94.676175
535.000000	94.726073
534.000000	94.734052
533.000000	94.725213
532.000000	94.731620
531.000000	94.717993
530.000000	94.660099
529.000000	94.618468
528.000000	94.653238
527.000000	94.730270
526.000000	94.780615
525.000000	94.802842
524.000000	94.823142
523.000000	94.820128
522.000000	94.778226
521.000000	94.747229
520.000000	94.773405
519.000000	94.824920
518.000000	94.853820
517.000000	94.877470
516.000000	94.919082
515.000000	94.944717
514.000000	94.938946
513.000000	94.957081
512.000000	95.036408
511.000000	95.126627
510.000000	95.175574
509.000000	95.210803
508.000000	95.265997
507.000000	95.304128
506.000000	95.291975
505.000000	95.271145
504.000000	95.278672
503.000000	95.284539
502.000000	95.274163
501.000000	95.303797
500.000000	95.391677
499.000000	95.464958
498.000000	95.484775
497.000000	95.513534
496.000000	95.593960
495.000000	95.659909
494.000000	95.651543
493.000000	95.624474
492.000000	95.649264
491.000000	95.694796
490.000000	95.711005
489.000000	95.733485
488.000000	95.801484
487.000000	95.863974
486.000000	95.864033
485.000000	95.843379
484.000000	95.871240
483.000000	95.933902
482.000000	95.987495
481.000000	96.035468
480.000000	96.078147
479.000000	96.080828
478.000000	96.063916
477.000000	96.123180
476.000000	96.284280
475.000000	96.444047
474.000000	96.524686
473.000000	96.577635
472.000000	96.648349
471.000000	96.663097
470.000000	96.586196
469.000000	96.520804
468.000000	96.550193
467.000000	96.623951
466.000000	96.678300
465.000000	96.749966
464.000000	96.866869
463.000000	96.964708
462.000000	97.023964
461.000000	97.152407
460.000000	97.409042
459.000000	97.668174
458.000000	97.771769
457.000000	97.765135
456.000000	97.793314
455.000000	97.862674
454.000000	97.939517
453.000000	98.069119
452.000000	98.257245
451.000000	98.389289
450.000000	98.412638
