PE IR       SUBTECH     SPECTRUM    ASCII       PEDS        4.00        
   -1
3C-XXX-F011_1.ASC
23/09/07
10:45:19.00
23/09/07
11:30:09.00
uco
Sample 011 By uco Date Thursday, September 07 2023
450.000000
#HDR
-1
-1
#GR
cm-1
%T
1.0
0.0
4000.000000
-1.000000
3551
8
98.821841
87.754200
#DATA
4000.000000	98.704682
3999.000000	98.703352
3998.000000	98.702889
3997.000000	98.703916
3996.000000	98.706418
3995.000000	98.709260
3994.000000	98.710748
3993.000000	98.709737
3992.000000	98.706195
3991.000000	98.700877
3990.000000	98.694837
3989.000000	98.689237
3988.000000	98.685285
3987.000000	98.683801
3986.000000	98.684664
3985.000000	98.686911
3984.000000	98.689577
3983.000000	98.692502
3982.000000	98.696099
3981.000000	98.700286
3980.000000	98.703751
3979.000000	98.704390
3978.000000	98.700645
3977.000000	98.692724
3976.000000	98.682882
3975.000000	98.674571
3974.000000	98.670736
3973.000000	98.672318
3972.000000	98.677950
3971.000000	98.684846
3970.000000	98.690263
3969.000000	98.692528
3968.000000	98.691480
3967.000000	98.688300
3966.000000	98.684724
3965.000000	98.682108
3964.000000	98.680771
3963.000000	98.680195
3962.000000	98.679900
3961.000000	98.679969
3960.000000	98.680622
3959.000000	98.681247
3958.000000	98.680103
3957.000000	98.675451
3956.000000	98.667307
3955.000000	98.658042
3954.000000	98.650932
3953.000000	98.648033
3952.000000	98.649209
3951.000000	98.652874
3950.000000	98.657394
3949.000000	98.661750
3948.000000	98.665275
3947.000000	98.667156
3946.000000	98.666690
3945.000000	98.664197
3944.000000	98.661550
3943.000000	98.661522
3942.000000	98.665866
3941.000000	98.673786
3940.000000	98.682338
3939.000000	98.688081
3938.000000	98.688495
3937.000000	98.682671
3936.000000	98.671770
3935.000000	98.659216
3934.000000	98.649943
3933.000000	98.648454
3932.000000	98.655964
3931.000000	98.668959
3930.000000	98.681339
3929.000000	98.688254
3928.000000	98.688503
3927.000000	98.684466
3926.000000	98.680352
3925.000000	98.679479
3924.000000	98.681948
3923.000000	98.684968
3922.000000	98.685506
3921.000000	98.682028
3920.000000	98.674417
3919.000000	98.663853
3918.000000	98.653391
3917.000000	98.647166
3916.000000	98.647257
3915.000000	98.651475
3914.000000	98.655181
3913.000000	98.655065
3912.000000	98.651112
3911.000000	98.645864
3910.000000	98.642087
3909.000000	98.640740
3908.000000	98.640633
3907.000000	98.639741
3906.000000	98.637104
3905.000000	98.634359
3904.000000	98.635249
3903.000000	98.642301
3902.000000	98.653855
3901.000000	98.665326
3900.000000	98.672997
3899.000000	98.675907
3898.000000	98.675333
3897.000000	98.673081
3896.000000	98.670407
3895.000000	98.667777
3894.000000	98.665122
3893.000000	98.662762
3892.000000	98.662304
3891.000000	98.665283
3890.000000	98.670136
3889.000000	98.672915
3888.000000	98.671379
3887.000000	98.667422
3886.000000	98.665266
3885.000000	98.666458
3884.000000	98.667897
3883.000000	98.666120
3882.000000	98.661509
3881.000000	98.657659
3880.000000	98.657246
3879.000000	98.658822
3878.000000	98.658828
3877.000000	98.656005
3876.000000	98.652773
3875.000000	98.652890
3874.000000	98.657112
3873.000000	98.661644
3872.000000	98.662265
3871.000000	98.659575
3870.000000	98.658674
3869.000000	98.662531
3868.000000	98.667996
3867.000000	98.670488
3866.000000	98.669275
3865.000000	98.667087
3864.000000	98.667062
3863.000000	98.669886
3862.000000	98.673510
3861.000000	98.675531
3860.000000	98.675366
3859.000000	98.674086
3858.000000	98.672816
3857.000000	98.671539
3856.000000	98.669369
3855.000000	98.665889
3854.000000	98.661633
3853.000000	98.658080
3852.000000	98.655325
3851.000000	98.652107
3850.000000	98.648915
3849.000000	98.647510
3848.000000	98.648559
3847.000000	98.651302
3846.000000	98.654659
3845.000000	98.658269
3844.000000	98.662610
3843.000000	98.667914
3842.000000	98.673478
3841.000000	98.678508
3840.000000	98.682873
3839.000000	98.686618
3838.000000	98.689282
3837.000000	98.690471
3836.000000	98.690627
3835.000000	98.690264
3834.000000	98.688907
3833.000000	98.685659
3832.000000	98.680551
3831.000000	98.674747
3830.000000	98.669254
3829.000000	98.663888
3828.000000	98.658304
3827.000000	98.653460
3826.000000	98.651081
3825.000000	98.651832
3824.000000	98.655251
3823.000000	98.661265
3822.000000	98.669964
3821.000000	98.679409
3820.000000	98.685184
3819.000000	98.683861
3818.000000	98.675873
3817.000000	98.665371
3816.000000	98.657930
3815.000000	98.655666
3814.000000	98.655656
3813.000000	98.654948
3812.000000	98.653953
3811.000000	98.654775
3810.000000	98.658185
3809.000000	98.662809
3808.000000	98.666753
3807.000000	98.669599
3806.000000	98.672252
3805.000000	98.675175
3804.000000	98.678431
3803.000000	98.683050
3802.000000	98.689710
3801.000000	98.695217
3800.000000	98.693493
3799.000000	98.682561
3798.000000	98.666698
3797.000000	98.653028
3796.000000	98.646327
3795.000000	98.645504
3794.000000	98.645945
3793.000000	98.644710
3792.000000	98.642542
3791.000000	98.642222
3790.000000	98.646049
3789.000000	98.653927
3788.000000	98.663383
3787.000000	98.671241
3786.000000	98.675696
3785.000000	98.676975
3784.000000	98.676243
3783.000000	98.674164
3782.000000	98.670760
3781.000000	98.665981
3780.000000	98.660134
3779.000000	98.654225
3778.000000	98.649759
3777.000000	98.648148
3776.000000	98.650335
3775.000000	98.656204
3774.000000	98.663696
3773.000000	98.669187
3772.000000	98.669711
3771.000000	98.665517
3770.000000	98.660508
3769.000000	98.659092
3768.000000	98.662232
3767.000000	98.667639
3766.000000	98.672630
3765.000000	98.675198
3764.000000	98.673853
3763.000000	98.667943
3762.000000	98.658763
3761.000000	98.649713
3760.000000	98.644863
3759.000000	98.646843
3758.000000	98.655209
3757.000000	98.666919
3756.000000	98.678399
3755.000000	98.687501
3754.000000	98.693890
3753.000000	98.697729
3752.000000	98.698031
3751.000000	98.694110
3750.000000	98.688756
3749.000000	98.685853
3748.000000	98.685943
3747.000000	98.687500
3746.000000	98.690602
3745.000000	98.696745
3744.000000	98.704175
3743.000000	98.707361
3742.000000	98.704013
3741.000000	98.696874
3740.000000	98.690103
3739.000000	98.686858
3738.000000	98.688934
3737.000000	98.696976
3736.000000	98.708715
3735.000000	98.718091
3734.000000	98.720086
3733.000000	98.715311
3732.000000	98.707951
3731.000000	98.701026
3730.000000	98.694785
3729.000000	98.688741
3728.000000	98.683423
3727.000000	98.679719
3726.000000	98.677153
3725.000000	98.674524
3724.000000	98.672093
3723.000000	98.671457
3722.000000	98.673669
3721.000000	98.678497
3720.000000	98.685164
3719.000000	98.692820
3718.000000	98.700344
3717.000000	98.706220
3716.000000	98.709199
3715.000000	98.708992
3714.000000	98.705895
3713.000000	98.700789
3712.000000	98.695914
3711.000000	98.694140
3710.000000	98.695183
3709.000000	98.695913
3708.000000	98.695070
3707.000000	98.694344
3706.000000	98.695800
3705.000000	98.699476
3704.000000	98.703373
3703.000000	98.704974
3702.000000	98.703866
3701.000000	98.702647
3700.000000	98.704074
3699.000000	98.707856
3698.000000	98.711415
3697.000000	98.712132
3696.000000	98.708765
3695.000000	98.702234
3694.000000	98.695528
3693.000000	98.692465
3692.000000	98.694952
3691.000000	98.700760
3690.000000	98.703925
3689.000000	98.700383
3688.000000	98.692665
3687.000000	98.686016
3686.000000	98.682529
3685.000000	98.681210
3684.000000	98.680501
3683.000000	98.679278
3682.000000	98.677236
3681.000000	98.675037
3680.000000	98.673734
3679.000000	98.673266
3678.000000	98.672358
3677.000000	98.670164
3676.000000	98.667338
3675.000000	98.665137
3674.000000	98.663175
3673.000000	98.660294
3672.000000	98.657048
3671.000000	98.655394
3670.000000	98.655399
3669.000000	98.654087
3668.000000	98.648911
3667.000000	98.640428
3666.000000	98.631036
3665.000000	98.623212
3664.000000	98.618416
3663.000000	98.616699
3662.000000	98.616946
3661.000000	98.617711
3660.000000	98.617759
3659.000000	98.616049
3658.000000	98.611958
3657.000000	98.606271
3656.000000	98.601759
3655.000000	98.601086
3654.000000	98.604286
3653.000000	98.609237
3652.000000	98.612717
3651.000000	98.609839
3650.000000	98.596377
3649.000000	98.576345
3648.000000	98.560530
3647.000000	98.553002
3646.000000	98.549023
3645.000000	98.544019
3644.000000	98.538032
3643.000000	98.533862
3642.000000	98.532884
3641.000000	98.533105
3640.000000	98.531616
3639.000000	98.527964
3638.000000	98.523716
3637.000000	98.519438
3636.000000	98.513986
3635.000000	98.507033
3634.000000	98.500590
3633.000000	98.496824
3632.000000	98.495382
3631.000000	98.493845
3630.000000	98.490180
3629.000000	98.484741
3628.000000	98.480248
3627.000000	98.477571
3626.000000	98.474696
3625.000000	98.470237
3624.000000	98.464521
3623.000000	98.458004
3622.000000	98.450032
3621.000000	98.439043
3620.000000	98.424074
3619.000000	98.407117
3618.000000	98.392900
3617.000000	98.384430
3616.000000	98.380337
3615.000000	98.376387
3614.000000	98.368331
3613.000000	98.355054
3612.000000	98.339892
3611.000000	98.327207
3610.000000	98.318223
3609.000000	98.311402
3608.000000	98.305624
3607.000000	98.301545
3606.000000	98.299577
3605.000000	98.298354
3604.000000	98.296098
3603.000000	98.292061
3602.000000	98.286777
3601.000000	98.281199
3600.000000	98.275530
3599.000000	98.268869
3598.000000	98.259590
3597.000000	98.246295
3596.000000	98.229150
3595.000000	98.210941
3594.000000	98.195888
3593.000000	98.186550
3592.000000	98.181777
3591.000000	98.178174
3590.000000	98.172508
3589.000000	98.163093
3588.000000	98.150331
3587.000000	98.137298
3586.000000	98.127812
3585.000000	98.122670
3584.000000	98.119199
3583.000000	98.113532
3582.000000	98.103191
3581.000000	98.088905
3580.000000	98.074395
3579.000000	98.063459
3578.000000	98.056751
3577.000000	98.051699
3576.000000	98.045005
3575.000000	98.035050
3574.000000	98.022088
3573.000000	98.007391
3572.000000	97.992367
3571.000000	97.978297
3570.000000	97.966367
3569.000000	97.957717
3568.000000	97.952457
3567.000000	97.948674
3566.000000	97.943606
3565.000000	97.935860
3564.000000	97.925424
3563.000000	97.912345
3562.000000	97.896510
3561.000000	97.878672
3560.000000	97.860879
3559.000000	97.844989
3558.000000	97.830944
3557.000000	97.817283
3556.000000	97.802968
3555.000000	97.788016
3554.000000	97.772752
3553.000000	97.757708
3552.000000	97.744364
3551.000000	97.734471
3550.000000	97.727978
3549.000000	97.722683
3548.000000	97.716143
3547.000000	97.707568
3546.000000	97.698000
3545.000000	97.689039
3544.000000	97.681390
3543.000000	97.674347
3542.000000	97.666243
3541.000000	97.655676
3540.000000	97.642651
3539.000000	97.628578
3538.000000	97.614963
3537.000000	97.602327
3536.000000	97.590523
3535.000000	97.579599
3534.000000	97.569664
3533.000000	97.560210
3532.000000	97.550196
3531.000000	97.538805
3530.000000	97.526090
3529.000000	97.513092
3528.000000	97.501391
3527.000000	97.492005
3526.000000	97.484328
3525.000000	97.476291
3524.000000	97.465847
3523.000000	97.452582
3522.000000	97.438065
3521.000000	97.424779
3520.000000	97.414467
3519.000000	97.406665
3518.000000	97.398320
3517.000000	97.385599
3516.000000	97.367397
3515.000000	97.346985
3514.000000	97.329650
3513.000000	97.318332
3512.000000	97.311613
3511.000000	97.305639
3510.000000	97.297855
3509.000000	97.289147
3508.000000	97.282459
3507.000000	97.279329
3506.000000	97.277800
3505.000000	97.273639
3504.000000	97.263807
3503.000000	97.249425
3502.000000	97.234838
3501.000000	97.223364
3500.000000	97.214625
3499.000000	97.206133
3498.000000	97.196366
3497.000000	97.185831
3496.000000	97.175484
3495.000000	97.164840
3494.000000	97.152375
3493.000000	97.137816
3492.000000	97.123298
3491.000000	97.111708
3490.000000	97.104007
3489.000000	97.098537
3488.000000	97.092975
3487.000000	97.086386
3486.000000	97.079077
3485.000000	97.070906
3484.000000	97.060592
3483.000000	97.046981
3482.000000	97.030947
3481.000000	97.015809
3480.000000	97.005419
3479.000000	97.001389
3478.000000	97.001872
3477.000000	97.002882
3476.000000	97.000963
3475.000000	96.995217
3474.000000	96.987046
3473.000000	96.977894
3472.000000	96.967433
3471.000000	96.954158
3470.000000	96.937735
3469.000000	96.920473
3468.000000	96.906122
3467.000000	96.896977
3466.000000	96.892213
3465.000000	96.889114
3464.000000	96.885491
3463.000000	96.880665
3462.000000	96.874531
3461.000000	96.866547
3460.000000	96.856091
3459.000000	96.843450
3458.000000	96.829887
3457.000000	96.816667
3456.000000	96.804380
3455.000000	96.793423
3454.000000	96.784837
3453.000000	96.780012
3452.000000	96.779233
3451.000000	96.780869
3450.000000	96.782534
3449.000000	96.782924
3448.000000	96.782063
3447.000000	96.779739
3446.000000	96.774280
3445.000000	96.763552
3444.000000	96.747268
3443.000000	96.728359
3442.000000	96.712016
3441.000000	96.702520
3440.000000	96.700012
3439.000000	96.700300
3438.000000	96.698271
3437.000000	96.691896
3436.000000	96.682996
3435.000000	96.674397
3434.000000	96.666969
3433.000000	96.659410
3432.000000	96.650140
3431.000000	96.638942
3430.000000	96.627308
3429.000000	96.617591
3428.000000	96.611369
3427.000000	96.608103
3426.000000	96.605539
3425.000000	96.601571
3424.000000	96.595370
3423.000000	96.586721
3422.000000	96.575284
3421.000000	96.561347
3420.000000	96.546756
3419.000000	96.534065
3418.000000	96.524704
3417.000000	96.518344
3416.000000	96.513489
3415.000000	96.508089
3414.000000	96.500142
3413.000000	96.488781
3412.000000	96.474948
3411.000000	96.460708
3410.000000	96.448126
3409.000000	96.438907
3408.000000	96.434111
3407.000000	96.432941
3406.000000	96.432047
3405.000000	96.427322
3404.000000	96.417027
3403.000000	96.402956
3402.000000	96.388615
3401.000000	96.376644
3400.000000	96.367451
3399.000000	96.359201
3398.000000	96.349007
3397.000000	96.335298
3396.000000	96.319523
3395.000000	96.304891
3394.000000	96.293127
3393.000000	96.283233
3392.000000	96.273825
3391.000000	96.265687
3390.000000	96.260842
3389.000000	96.259479
3388.000000	96.258973
3387.000000	96.256167
3386.000000	96.250011
3385.000000	96.241595
3384.000000	96.232119
3383.000000	96.221578
3382.000000	96.209426
3381.000000	96.195911
3380.000000	96.182318
3379.000000	96.170005
3378.000000	96.159450
3377.000000	96.150096
3376.000000	96.140799
3375.000000	96.130471
3374.000000	96.118773
3373.000000	96.106468
3372.000000	96.094906
3371.000000	96.084788
3370.000000	96.075273
3369.000000	96.064298
3368.000000	96.049884
3367.000000	96.031530
3366.000000	96.010801
3365.000000	95.990631
3364.000000	95.973543
3363.000000	95.960106
3362.000000	95.948938
3361.000000	95.938050
3360.000000	95.926094
3359.000000	95.912642
3358.000000	95.897826
3357.000000	95.881904
3356.000000	95.864937
3355.000000	95.846913
3354.000000	95.828391
3353.000000	95.810721
3352.000000	95.794938
3351.000000	95.780417
3350.000000	95.765313
3349.000000	95.748423
3348.000000	95.730093
3347.000000	95.711332
3346.000000	95.692872
3345.000000	95.675241
3344.000000	95.658761
3343.000000	95.642992
3342.000000	95.626957
3341.000000	95.610488
3340.000000	95.594598
3339.000000	95.580054
3338.000000	95.566390
3337.000000	95.553007
3336.000000	95.540338
3335.000000	95.528829
3334.000000	95.517248
3333.000000	95.503303
3332.000000	95.486049
3331.000000	95.466868
3330.000000	95.448000
3329.000000	95.430531
3328.000000	95.413799
3327.000000	95.396471
3326.000000	95.378321
3325.000000	95.360988
3324.000000	95.346508
3323.000000	95.334903
3322.000000	95.323917
3321.000000	95.311542
3320.000000	95.297944
3319.000000	95.284385
3318.000000	95.271173
3317.000000	95.257685
3316.000000	95.243993
3315.000000	95.231325
3314.000000	95.220879
3313.000000	95.212760
3312.000000	95.205801
3311.000000	95.197899
3310.000000	95.187076
3309.000000	95.172996
3308.000000	95.157269
3307.000000	95.141801
3306.000000	95.127447
3305.000000	95.114682
3304.000000	95.104408
3303.000000	95.096964
3302.000000	95.091097
3301.000000	95.085322
3300.000000	95.079804
3299.000000	95.075364
3298.000000	95.071164
3297.000000	95.065082
3296.000000	95.056319
3295.000000	95.045996
3294.000000	95.034918
3293.000000	95.022627
3292.000000	95.009441
3291.000000	94.997768
3290.000000	94.990075
3289.000000	94.986226
3288.000000	94.983949
3287.000000	94.981562
3286.000000	94.979412
3285.000000	94.978760
3284.000000	94.979757
3283.000000	94.980715
3282.000000	94.979626
3281.000000	94.976857
3280.000000	94.976048
3279.000000	94.981099
3278.000000	94.991807
3277.000000	95.003129
3276.000000	95.009706
3275.000000	95.011043
3274.000000	95.011579
3273.000000	95.015986
3272.000000	95.024898
3271.000000	95.035088
3270.000000	95.043092
3269.000000	95.048180
3268.000000	95.052103
3267.000000	95.056685
3266.000000	95.062209
3265.000000	95.068128
3264.000000	95.074628
3263.000000	95.082769
3262.000000	95.093149
3261.000000	95.105016
3260.000000	95.116927
3259.000000	95.128073
3258.000000	95.138869
3257.000000	95.150338
3256.000000	95.162878
3255.000000	95.175648
3254.000000	95.187482
3253.000000	95.198488
3252.000000	95.210223
3251.000000	95.223878
3250.000000	95.238653
3249.000000	95.252556
3248.000000	95.264655
3247.000000	95.275886
3246.000000	95.287553
3245.000000	95.299379
3244.000000	95.309311
3243.000000	95.315287
3242.000000	95.317286
3241.000000	95.317956
3240.000000	95.321184
3239.000000	95.329658
3238.000000	95.343397
3237.000000	95.360166
3236.000000	95.376941
3235.000000	95.391327
3234.000000	95.402489
3233.000000	95.411161
3232.000000	95.418401
3231.000000	95.424277
3230.000000	95.428408
3229.000000	95.431633
3228.000000	95.435846
3227.000000	95.441612
3226.000000	95.447351
3225.000000	95.452017
3224.000000	95.457487
3223.000000	95.466734
3222.000000	95.480048
3221.000000	95.494607
3220.000000	95.507566
3219.000000	95.518151
3218.000000	95.526579
3217.000000	95.532577
3216.000000	95.535957
3215.000000	95.537823
3214.000000	95.540299
3213.000000	95.545141
3212.000000	95.552817
3211.000000	95.562475
3210.000000	95.572467
3209.000000	95.581155
3208.000000	95.587676
3207.000000	95.592289
3206.000000	95.596297
3205.000000	95.601620
3204.000000	95.609647
3203.000000	95.619770
3202.000000	95.629442
3201.000000	95.636330
3200.000000	95.640368
3199.000000	95.643507
3198.000000	95.647965
3197.000000	95.655153
3196.000000	95.665259
3195.000000	95.676748
3194.000000	95.686883
3193.000000	95.694144
3192.000000	95.700301
3191.000000	95.709073
3190.000000	95.722597
3189.000000	95.739864
3188.000000	95.758212
3187.000000	95.775318
3186.000000	95.789995
3185.000000	95.802597
3184.000000	95.814991
3183.000000	95.829010
3182.000000	95.844417
3181.000000	95.859008
3180.000000	95.870779
3179.000000	95.879175
3178.000000	95.884658
3177.000000	95.888535
3176.000000	95.893510
3175.000000	95.902709
3174.000000	95.916998
3173.000000	95.933979
3172.000000	95.950151
3171.000000	95.963459
3170.000000	95.973416
3169.000000	95.980266
3168.000000	95.985398
3167.000000	95.991796
3166.000000	96.002423
3165.000000	96.017718
3164.000000	96.035310
3163.000000	96.052193
3162.000000	96.066895
3161.000000	96.079877
3160.000000	96.092559
3159.000000	96.105961
3158.000000	96.119666
3157.000000	96.131955
3156.000000	96.141397
3155.000000	96.148707
3154.000000	96.156933
3153.000000	96.169318
3152.000000	96.186288
3151.000000	96.204352
3150.000000	96.218498
3149.000000	96.226478
3148.000000	96.230748
3147.000000	96.236020
3146.000000	96.245109
3145.000000	96.257470
3144.000000	96.270923
3143.000000	96.283615
3142.000000	96.294503
3141.000000	96.303430
3140.000000	96.311397
3139.000000	96.319851
3138.000000	96.329015
3137.000000	96.337546
3136.000000	96.344207
3135.000000	96.349242
3134.000000	96.353692
3133.000000	96.358136
3132.000000	96.362748
3131.000000	96.367891
3130.000000	96.373789
3129.000000	96.379992
3128.000000	96.385873
3127.000000	96.391470
3126.000000	96.397270
3125.000000	96.403354
3124.000000	96.409237
3123.000000	96.414411
3122.000000	96.418708
3121.000000	96.422313
3120.000000	96.425762
3119.000000	96.429698
3118.000000	96.434199
3117.000000	96.438549
3116.000000	96.441950
3115.000000	96.444201
3114.000000	96.445328
3113.000000	96.444877
3112.000000	96.442300
3111.000000	96.438180
3110.000000	96.434597
3109.000000	96.433742
3108.000000	96.435832
3107.000000	96.438460
3106.000000	96.438394
3105.000000	96.434486
3104.000000	96.428635
3103.000000	96.423346
3102.000000	96.418405
3101.000000	96.410807
3100.000000	96.398559
3099.000000	96.384061
3098.000000	96.372958
3097.000000	96.369568
3096.000000	96.373553
3095.000000	96.380601
3094.000000	96.385920
3093.000000	96.387118
3092.000000	96.384395
3091.000000	96.378952
3090.000000	96.371813
3089.000000	96.363930
3088.000000	96.356493
3087.000000	96.350303
3086.000000	96.344939
3085.000000	96.339175
3084.000000	96.332453
3083.000000	96.325524
3082.000000	96.319535
3081.000000	96.314862
3080.000000	96.311108
3079.000000	96.307888
3078.000000	96.305237
3077.000000	96.303341
3076.000000	96.302173
3075.000000	96.301535
3074.000000	96.301384
3073.000000	96.302016
3072.000000	96.303727
3071.000000	96.306164
3070.000000	96.308255
3069.000000	96.309163
3068.000000	96.309313
3067.000000	96.310125
3066.000000	96.312522
3065.000000	96.315817
3064.000000	96.318323
3063.000000	96.319254
3062.000000	96.320133
3061.000000	96.324008
3060.000000	96.332690
3059.000000	96.344683
3058.000000	96.356394
3057.000000	96.365597
3056.000000	96.373035
3055.000000	96.380435
3054.000000	96.388024
3053.000000	96.394849
3052.000000	96.400639
3051.000000	96.406204
3050.000000	96.412575
3049.000000	96.420935
3048.000000	96.432842
3047.000000	96.448766
3046.000000	96.466279
3045.000000	96.481299
3044.000000	96.491844
3043.000000	96.499655
3042.000000	96.507666
3041.000000	96.516933
3040.000000	96.526754
3039.000000	96.536613
3038.000000	96.546695
3037.000000	96.556895
3036.000000	96.566591
3035.000000	96.575524
3034.000000	96.584055
3033.000000	96.592389
3032.000000	96.600209
3031.000000	96.607359
3030.000000	96.614429
3029.000000	96.622278
3028.000000	96.631167
3027.000000	96.640553
3026.000000	96.649609
3025.000000	96.657714
3024.000000	96.664572
3023.000000	96.670380
3022.000000	96.676270
3021.000000	96.684220
3020.000000	96.695487
3019.000000	96.708626
3018.000000	96.719642
3017.000000	96.724951
3016.000000	96.724320
3015.000000	96.720666
3014.000000	96.717182
3013.000000	96.714880
3012.000000	96.712434
3011.000000	96.707707
3010.000000	96.699574
3009.000000	96.688902
3008.000000	96.677974
3007.000000	96.668769
3006.000000	96.661844
3005.000000	96.656697
3004.000000	96.652425
3003.000000	96.647589
3002.000000	96.640300
3001.000000	96.629568
3000.000000	96.616314
2999.000000	96.602240
2998.000000	96.587940
2997.000000	96.572865
2996.000000	96.556684
2995.000000	96.539506
2994.000000	96.520801
2993.000000	96.499454
2992.000000	96.475189
2991.000000	96.448860
2990.000000	96.420950
2989.000000	96.390689
2988.000000	96.357290
2987.000000	96.321284
2986.000000	96.283967
2985.000000	96.246019
2984.000000	96.207046
2983.000000	96.166053
2982.000000	96.121869
2981.000000	96.073414
2980.000000	96.020285
2979.000000	95.963175
2978.000000	95.903694
2977.000000	95.843577
2976.000000	95.783556
2975.000000	95.722675
2974.000000	95.658917
2973.000000	95.590971
2972.000000	95.519107
2971.000000	95.444038
2970.000000	95.365790
2969.000000	95.284613
2968.000000	95.202395
2967.000000	95.121681
2966.000000	95.043332
2965.000000	94.966652
2964.000000	94.892149
2963.000000	94.823084
2962.000000	94.763597
2961.000000	94.716354
2960.000000	94.682437
2959.000000	94.662311
2958.000000	94.655925
2957.000000	94.662033
2956.000000	94.678569
2955.000000	94.703500
2954.000000	94.735205
2953.000000	94.772110
2952.000000	94.812001
2951.000000	94.851402
2950.000000	94.885166
2949.000000	94.907532
2948.000000	94.914256
2947.000000	94.904395
2946.000000	94.880350
2945.000000	94.846169
2944.000000	94.805059
2943.000000	94.757030
2942.000000	94.698972
2941.000000	94.627818
2940.000000	94.544397
2939.000000	94.453824
2938.000000	94.362030
2937.000000	94.272558
2936.000000	94.186372
2935.000000	94.103751
2934.000000	94.025644
2933.000000	93.953907
2932.000000	93.890574
2931.000000	93.836167
2930.000000	93.788473
2929.000000	93.743985
2928.000000	93.701767
2927.000000	93.665488
2926.000000	93.640738
2925.000000	93.630487
2924.000000	93.633582
2923.000000	93.647383
2922.000000	93.670628
2921.000000	93.703584
2920.000000	93.746440
2919.000000	93.798405
2918.000000	93.858808
2917.000000	93.928675
2916.000000	94.010582
2915.000000	94.105889
2914.000000	94.211430
2913.000000	94.319419
2912.000000	94.421507
2911.000000	94.513702
2910.000000	94.597605
2909.000000	94.677367
2908.000000	94.755849
2907.000000	94.832985
2906.000000	94.906893
2905.000000	94.976192
2904.000000	95.041812
2903.000000	95.106870
2902.000000	95.174484
2901.000000	95.245347
2900.000000	95.317290
2899.000000	95.387147
2898.000000	95.452948
2897.000000	95.514671
2896.000000	95.573443
2895.000000	95.630196
2894.000000	95.684740
2893.000000	95.735850
2892.000000	95.782173
2891.000000	95.823131
2890.000000	95.858851
2889.000000	95.889270
2888.000000	95.913673
2887.000000	95.931337
2886.000000	95.942487
2885.000000	95.948064
2884.000000	95.948428
2883.000000	95.942821
2882.000000	95.930519
2881.000000	95.912073
2880.000000	95.888489
2879.000000	95.859420
2878.000000	95.823540
2877.000000	95.781603
2876.000000	95.738253
2875.000000	95.699592
2874.000000	95.669204
2873.000000	95.647168
2872.000000	95.632601
2871.000000	95.625701
2870.000000	95.626637
2869.000000	95.633089
2868.000000	95.639795
2867.000000	95.640841
2866.000000	95.632629
2865.000000	95.614986
2864.000000	95.589446
2863.000000	95.556900
2862.000000	95.517499
2861.000000	95.473004
2860.000000	95.427973
2859.000000	95.387421
2858.000000	95.353695
2857.000000	95.326666
2856.000000	95.306554
2855.000000	95.295018
2854.000000	95.293927
2853.000000	95.304724
2852.000000	95.329657
2851.000000	95.372317
2850.000000	95.435724
2849.000000	95.520247
2848.000000	95.623458
2847.000000	95.740676
2846.000000	95.864890
2845.000000	95.987654
2844.000000	96.101840
2843.000000	96.204167
2842.000000	96.294534
2841.000000	96.373349
2840.000000	96.440774
2839.000000	96.498165
2838.000000	96.548640
2837.000000	96.595136
2836.000000	96.638012
2835.000000	96.675188
2834.000000	96.704810
2833.000000	96.727528
2832.000000	96.746242
2831.000000	96.763896
2830.000000	96.781890
2829.000000	96.800447
2828.000000	96.819427
2827.000000	96.838054
2826.000000	96.854602
2825.000000	96.867614
2824.000000	96.877617
2823.000000	96.886724
2822.000000	96.896522
2821.000000	96.907208
2820.000000	96.918663
2819.000000	96.931052
2818.000000	96.943908
2817.000000	96.955881
2816.000000	96.966273
2815.000000	96.975997
2814.000000	96.986240
2813.000000	96.996874
2812.000000	97.006959
2811.000000	97.016209
2810.000000	97.025203
2809.000000	97.034726
2808.000000	97.045660
2807.000000	97.058694
2806.000000	97.072966
2805.000000	97.085496
2804.000000	97.093418
2803.000000	97.096984
2802.000000	97.099331
2801.000000	97.103222
2800.000000	97.108852
2799.000000	97.114909
2798.000000	97.120679
2797.000000	97.126533
2796.000000	97.133080
2795.000000	97.140539
2794.000000	97.148694
2793.000000	97.157041
2792.000000	97.165109
2791.000000	97.172871
2790.000000	97.180783
2789.000000	97.189367
2788.000000	97.198900
2787.000000	97.209400
2786.000000	97.220364
2785.000000	97.230325
2784.000000	97.237222
2783.000000	97.239913
2782.000000	97.239455
2781.000000	97.238607
2780.000000	97.239815
2779.000000	97.243690
2778.000000	97.249296
2777.000000	97.255569
2776.000000	97.262232
2775.000000	97.269510
2774.000000	97.277442
2773.000000	97.285689
2772.000000	97.293733
2771.000000	97.300906
2770.000000	97.306357
2769.000000	97.309502
2768.000000	97.310776
2767.000000	97.311812
2766.000000	97.314566
2765.000000	97.319843
2764.000000	97.326424
2763.000000	97.331830
2762.000000	97.334584
2761.000000	97.336000
2760.000000	97.339247
2759.000000	97.346149
2758.000000	97.355061
2757.000000	97.362309
2756.000000	97.365613
2755.000000	97.365939
2754.000000	97.366347
2753.000000	97.369433
2752.000000	97.375443
2751.000000	97.382192
2750.000000	97.386847
2749.000000	97.388208
2748.000000	97.387239
2747.000000	97.385372
2746.000000	97.383192
2745.000000	97.381517
2744.000000	97.382656
2743.000000	97.388717
2742.000000	97.398495
2741.000000	97.407594
2740.000000	97.412420
2739.000000	97.413171
2738.000000	97.412503
2737.000000	97.412430
2736.000000	97.413406
2735.000000	97.415539
2734.000000	97.419281
2733.000000	97.424916
2732.000000	97.432176
2731.000000	97.440404
2730.000000	97.448608
2729.000000	97.455548
2728.000000	97.460449
2727.000000	97.463786
2726.000000	97.466928
2725.000000	97.470820
2724.000000	97.475225
2723.000000	97.479274
2722.000000	97.482413
2721.000000	97.484739
2720.000000	97.486693
2719.000000	97.488691
2718.000000	97.491028
2717.000000	97.493898
2716.000000	97.497242
2715.000000	97.500533
2714.000000	97.502965
2713.000000	97.504158
2712.000000	97.504749
2711.000000	97.506182
2710.000000	97.509756
2709.000000	97.515532
2708.000000	97.521861
2707.000000	97.526258
2706.000000	97.527519
2705.000000	97.527150
2704.000000	97.527984
2703.000000	97.531029
2702.000000	97.534444
2701.000000	97.536211
2700.000000	97.536980
2699.000000	97.539232
2698.000000	97.544177
2697.000000	97.550627
2696.000000	97.556635
2695.000000	97.560983
2694.000000	97.563029
2693.000000	97.562490
2692.000000	97.559995
2691.000000	97.557019
2690.000000	97.554755
2689.000000	97.553546
2688.000000	97.553517
2687.000000	97.554934
2686.000000	97.557511
2685.000000	97.560076
2684.000000	97.561495
2683.000000	97.561622
2682.000000	97.561112
2681.000000	97.560853
2680.000000	97.561726
2679.000000	97.564268
2678.000000	97.568107
2677.000000	97.572160
2676.000000	97.575648
2675.000000	97.578432
2674.000000	97.580193
2673.000000	97.580155
2672.000000	97.578331
2671.000000	97.576450
2670.000000	97.576684
2669.000000	97.579281
2668.000000	97.581924
2667.000000	97.581664
2666.000000	97.577537
2665.000000	97.571519
2664.000000	97.567097
2663.000000	97.566606
2662.000000	97.569534
2661.000000	97.573181
2660.000000	97.574864
2659.000000	97.573619
2658.000000	97.570379
2657.000000	97.567174
2656.000000	97.566098
2655.000000	97.568257
2654.000000	97.573250
2653.000000	97.579821
2652.000000	97.587028
2651.000000	97.594560
2650.000000	97.602167
2649.000000	97.609494
2648.000000	97.616647
2647.000000	97.624209
2646.000000	97.632230
2645.000000	97.639583
2644.000000	97.644765
2643.000000	97.647182
2642.000000	97.647544
2641.000000	97.647277
2640.000000	97.647819
2639.000000	97.650310
2638.000000	97.655526
2637.000000	97.663631
2636.000000	97.673531
2635.000000	97.682612
2634.000000	97.688113
2633.000000	97.689530
2632.000000	97.689312
2631.000000	97.690533
2630.000000	97.694244
2629.000000	97.699785
2628.000000	97.706957
2627.000000	97.716382
2626.000000	97.727612
2625.000000	97.738175
2624.000000	97.745269
2623.000000	97.748129
2622.000000	97.748693
2621.000000	97.750348
2620.000000	97.755558
2619.000000	97.763712
2618.000000	97.771246
2617.000000	97.774755
2616.000000	97.774042
2615.000000	97.771593
2614.000000	97.769856
2613.000000	97.770252
2612.000000	97.773974
2611.000000	97.781151
2610.000000	97.788742
2609.000000	97.791818
2608.000000	97.788714
2607.000000	97.783738
2606.000000	97.783012
2605.000000	97.788218
2604.000000	97.795685
2603.000000	97.801015
2602.000000	97.803131
2601.000000	97.803729
2600.000000	97.804433
2599.000000	97.805545
2598.000000	97.807030
2597.000000	97.809531
2596.000000	97.813793
2595.000000	97.819451
2594.000000	97.824906
2593.000000	97.828389
2592.000000	97.828872
2591.000000	97.826364
2590.000000	97.822199
2589.000000	97.818925
2588.000000	97.818698
2587.000000	97.821451
2586.000000	97.825687
2585.000000	97.831212
2584.000000	97.839415
2583.000000	97.850038
2582.000000	97.859557
2581.000000	97.864452
2580.000000	97.864955
2579.000000	97.864093
2578.000000	97.863989
2577.000000	97.864790
2576.000000	97.866140
2575.000000	97.867680
2574.000000	97.868525
2573.000000	97.868044
2572.000000	97.866985
2571.000000	97.866791
2570.000000	97.868586
2569.000000	97.873829
2568.000000	97.884122
2567.000000	97.898209
2566.000000	97.910692
2565.000000	97.916809
2564.000000	97.918147
2563.000000	97.920787
2562.000000	97.927822
2561.000000	97.936161
2560.000000	97.940695
2559.000000	97.939368
2558.000000	97.934117
2557.000000	97.929158
2556.000000	97.928365
2555.000000	97.931813
2554.000000	97.934676
2553.000000	97.932087
2552.000000	97.925401
2551.000000	97.921173
2550.000000	97.923239
2549.000000	97.928227
2548.000000	97.929864
2547.000000	97.925658
2546.000000	97.918424
2545.000000	97.913024
2544.000000	97.912702
2543.000000	97.916963
2542.000000	97.921716
2541.000000	97.922294
2540.000000	97.917252
2539.000000	97.909131
2538.000000	97.902203
2537.000000	97.900439
2536.000000	97.906404
2535.000000	97.919391
2534.000000	97.934268
2533.000000	97.944119
2532.000000	97.944797
2531.000000	97.936410
2530.000000	97.921499
2529.000000	97.904027
2528.000000	97.889424
2527.000000	97.882150
2526.000000	97.881980
2525.000000	97.884421
2524.000000	97.885452
2523.000000	97.884558
2522.000000	97.883338
2521.000000	97.883280
2520.000000	97.885338
2519.000000	97.889669
2518.000000	97.894728
2517.000000	97.897815
2516.000000	97.897343
2515.000000	97.894213
2514.000000	97.891300
2513.000000	97.891971
2512.000000	97.897546
2511.000000	97.904725
2510.000000	97.907347
2509.000000	97.903251
2508.000000	97.898203
2507.000000	97.899984
2506.000000	97.909361
2505.000000	97.920104
2504.000000	97.927254
2503.000000	97.931905
2502.000000	97.937757
2501.000000	97.946528
2500.000000	97.957413
2499.000000	97.967913
2498.000000	97.974730
2497.000000	97.976867
2496.000000	97.978236
2495.000000	97.983900
2494.000000	97.993060
2493.000000	97.999530
2492.000000	98.000321
2491.000000	97.999861
2490.000000	98.003852
2489.000000	98.012518
2488.000000	98.022783
2487.000000	98.033914
2486.000000	98.046945
2485.000000	98.059956
2484.000000	98.067842
2483.000000	98.067654
2482.000000	98.062247
2481.000000	98.057680
2480.000000	98.057427
2479.000000	98.059194
2478.000000	98.057522
2477.000000	98.049886
2476.000000	98.039780
2475.000000	98.033257
2474.000000	98.033347
2473.000000	98.038916
2472.000000	98.047376
2471.000000	98.056087
2470.000000	98.062055
2469.000000	98.063460
2468.000000	98.061882
2467.000000	98.060623
2466.000000	98.060729
2465.000000	98.060998
2464.000000	98.061734
2463.000000	98.065280
2462.000000	98.072148
2461.000000	98.079363
2460.000000	98.083621
2459.000000	98.083956
2458.000000	98.080843
2457.000000	98.075382
2456.000000	98.070041
2455.000000	98.067518
2454.000000	98.067878
2453.000000	98.069196
2452.000000	98.071650
2451.000000	98.078012
2450.000000	98.088748
2449.000000	98.099603
2448.000000	98.105913
2447.000000	98.107019
2446.000000	98.104836
2445.000000	98.100488
2444.000000	98.094490
2443.000000	98.088385
2442.000000	98.083971
2441.000000	98.081809
2440.000000	98.081762
2439.000000	98.083997
2438.000000	98.088563
2437.000000	98.095095
2436.000000	98.103225
2435.000000	98.111590
2434.000000	98.116419
2433.000000	98.114001
2432.000000	98.105917
2431.000000	98.099258
2430.000000	98.099660
2429.000000	98.105682
2428.000000	98.111492
2427.000000	98.113652
2426.000000	98.113686
2425.000000	98.115141
2424.000000	98.119574
2423.000000	98.124733
2422.000000	98.126160
2421.000000	98.121850
2420.000000	98.115668
2419.000000	98.114345
2418.000000	98.120212
2417.000000	98.128538
2416.000000	98.132912
2415.000000	98.131489
2414.000000	98.127079
2413.000000	98.123390
2412.000000	98.123034
2411.000000	98.127506
2410.000000	98.136475
2409.000000	98.147068
2408.000000	98.155309
2407.000000	98.158727
2406.000000	98.157304
2405.000000	98.152522
2404.000000	98.146204
2403.000000	98.139914
2402.000000	98.134780
2401.000000	98.131584
2400.000000	98.130571
2399.000000	98.130960
2398.000000	98.131370
2397.000000	98.131463
2396.000000	98.132428
2395.000000	98.135109
2394.000000	98.138593
2393.000000	98.141839
2392.000000	98.145472
2391.000000	98.150245
2390.000000	98.154718
2389.000000	98.156831
2388.000000	98.157575
2387.000000	98.160587
2386.000000	98.168130
2385.000000	98.179046
2384.000000	98.190827
2383.000000	98.202138
2382.000000	98.212612
2381.000000	98.222045
2380.000000	98.229695
2379.000000	98.233477
2378.000000	98.230793
2377.000000	98.221722
2376.000000	98.210501
2375.000000	98.201172
2374.000000	98.193172
2373.000000	98.184642
2372.000000	98.178990
2371.000000	98.182399
2370.000000	98.194421
2369.000000	98.206661
2368.000000	98.211899
2367.000000	98.210979
2366.000000	98.208630
2365.000000	98.206433
2364.000000	98.202706
2363.000000	98.196471
2362.000000	98.188584
2361.000000	98.180410
2360.000000	98.173872
2359.000000	98.169503
2358.000000	98.166911
2357.000000	98.166675
2356.000000	98.167541
2355.000000	98.167568
2354.000000	98.166967
2353.000000	98.166437
2352.000000	98.164532
2351.000000	98.160997
2350.000000	98.158818
2349.000000	98.158521
2348.000000	98.158101
2347.000000	98.155304
2346.000000	98.148740
2345.000000	98.139099
2344.000000	98.132441
2343.000000	98.136686
2342.000000	98.148130
2341.000000	98.155226
2340.000000	98.151776
2339.000000	98.140411
2338.000000	98.127348
2337.000000	98.117368
2336.000000	98.113089
2335.000000	98.116084
2334.000000	98.125854
2333.000000	98.137717
2332.000000	98.144073
2331.000000	98.142099
2330.000000	98.137985
2329.000000	98.136828
2328.000000	98.133986
2327.000000	98.117809
2326.000000	98.084298
2325.000000	98.044923
2324.000000	98.018805
2323.000000	98.018183
2322.000000	98.037928
2321.000000	98.063457
2320.000000	98.084243
2319.000000	98.098435
2318.000000	98.107351
2317.000000	98.112147
2316.000000	98.116307
2315.000000	98.124070
2314.000000	98.135991
2313.000000	98.148788
2312.000000	98.160823
2311.000000	98.173302
2310.000000	98.185758
2309.000000	98.194516
2308.000000	98.198325
2307.000000	98.200849
2306.000000	98.204578
2305.000000	98.206039
2304.000000	98.199876
2303.000000	98.186059
2302.000000	98.169844
2301.000000	98.156763
2300.000000	98.150017
2299.000000	98.150479
2298.000000	98.156580
2297.000000	98.164147
2296.000000	98.168603
2295.000000	98.167535
2294.000000	98.161755
2293.000000	98.154699
2292.000000	98.150643
2291.000000	98.151464
2290.000000	98.154205
2289.000000	98.153380
2288.000000	98.146144
2287.000000	98.134749
2286.000000	98.124323
2285.000000	98.120139
2284.000000	98.125576
2283.000000	98.139307
2282.000000	98.154192
2281.000000	98.162056
2280.000000	98.160364
2279.000000	98.152537
2278.000000	98.143106
2277.000000	98.136090
2276.000000	98.136148
2275.000000	98.145654
2274.000000	98.160744
2273.000000	98.175010
2272.000000	98.187486
2271.000000	98.201943
2270.000000	98.218167
2269.000000	98.230169
2268.000000	98.234770
2267.000000	98.236595
2266.000000	98.241590
2265.000000	98.249410
2264.000000	98.254604
2263.000000	98.252113
2262.000000	98.240262
2261.000000	98.221086
2260.000000	98.198928
2259.000000	98.177451
2258.000000	98.158938
2257.000000	98.148174
2256.000000	98.152521
2255.000000	98.173093
2254.000000	98.199019
2253.000000	98.216932
2252.000000	98.224194
2251.000000	98.226774
2250.000000	98.227939
2249.000000	98.227247
2248.000000	98.227373
2247.000000	98.231682
2246.000000	98.236514
2245.000000	98.236105
2244.000000	98.234700
2243.000000	98.242967
2242.000000	98.261768
2241.000000	98.280230
2240.000000	98.291012
2239.000000	98.296417
2238.000000	98.297450
2237.000000	98.289651
2236.000000	98.274744
2235.000000	98.265309
2234.000000	98.271156
2233.000000	98.288691
2232.000000	98.308098
2231.000000	98.322919
2230.000000	98.328391
2229.000000	98.319780
2228.000000	98.299476
2227.000000	98.279307
2226.000000	98.270359
2225.000000	98.275060
2224.000000	98.290831
2223.000000	98.313637
2222.000000	98.334996
2221.000000	98.344281
2220.000000	98.339998
2219.000000	98.332829
2218.000000	98.333350
2217.000000	98.342023
2216.000000	98.353070
2215.000000	98.361534
2214.000000	98.364187
2213.000000	98.360562
2212.000000	98.356291
2211.000000	98.359335
2210.000000	98.370654
2209.000000	98.383798
2208.000000	98.394117
2207.000000	98.402356
2206.000000	98.409066
2205.000000	98.411804
2204.000000	98.407475
2203.000000	98.392285
2202.000000	98.363208
2201.000000	98.327432
2200.000000	98.304517
2199.000000	98.307599
2198.000000	98.326766
2197.000000	98.342818
2196.000000	98.353136
2195.000000	98.369850
2194.000000	98.396692
2193.000000	98.424249
2192.000000	98.446080
2191.000000	98.461631
2190.000000	98.464156
2189.000000	98.446918
2188.000000	98.423195
2187.000000	98.418184
2186.000000	98.435536
2185.000000	98.451671
2184.000000	98.450637
2183.000000	98.445762
2182.000000	98.455414
2181.000000	98.473479
2180.000000	98.477107
2179.000000	98.453816
2178.000000	98.413438
2177.000000	98.382407
2176.000000	98.386426
2175.000000	98.424691
2174.000000	98.461390
2173.000000	98.459434
2172.000000	98.423990
2171.000000	98.395489
2170.000000	98.400685
2169.000000	98.427252
2168.000000	98.446542
2167.000000	98.444797
2166.000000	98.427928
2165.000000	98.411974
2164.000000	98.412542
2163.000000	98.428583
2162.000000	98.438717
2161.000000	98.432677
2160.000000	98.443354
2159.000000	98.514902
2158.000000	98.631829
2157.000000	98.725570
2156.000000	98.758442
2155.000000	98.750995
2154.000000	98.730667
2153.000000	98.700714
2152.000000	98.657899
2151.000000	98.607116
2150.000000	98.555124
2149.000000	98.511421
2148.000000	98.495479
2147.000000	98.520885
2146.000000	98.569471
2145.000000	98.600498
2144.000000	98.591056
2143.000000	98.552327
2142.000000	98.506717
2141.000000	98.468814
2140.000000	98.447993
2139.000000	98.448098
2138.000000	98.458693
2137.000000	98.461577
2136.000000	98.451555
2135.000000	98.439446
2134.000000	98.433068
2133.000000	98.429365
2132.000000	98.426263
2131.000000	98.427578
2130.000000	98.433628
2129.000000	98.438757
2128.000000	98.440269
2127.000000	98.440406
2126.000000	98.438729
2125.000000	98.431426
2124.000000	98.418334
2123.000000	98.401980
2122.000000	98.381021
2121.000000	98.354374
2120.000000	98.330209
2119.000000	98.319164
2118.000000	98.318599
2117.000000	98.314643
2116.000000	98.300695
2115.000000	98.283237
2114.000000	98.268762
2113.000000	98.257208
2112.000000	98.250317
2111.000000	98.253863
2110.000000	98.266898
2109.000000	98.279074
2108.000000	98.283337
2107.000000	98.283008
2106.000000	98.283164
2105.000000	98.283947
2104.000000	98.284708
2103.000000	98.285232
2102.000000	98.281411
2101.000000	98.269669
2100.000000	98.257157
2099.000000	98.257248
2098.000000	98.273309
2097.000000	98.296713
2096.000000	98.320088
2095.000000	98.340019
2094.000000	98.347931
2093.000000	98.335010
2092.000000	98.309143
2091.000000	98.291572
2090.000000	98.292940
2089.000000	98.304344
2088.000000	98.313954
2087.000000	98.320028
2086.000000	98.324450
2085.000000	98.327551
2084.000000	98.333637
2083.000000	98.348185
2082.000000	98.365163
2081.000000	98.370333
2080.000000	98.361576
2079.000000	98.352291
2078.000000	98.349934
2077.000000	98.346980
2076.000000	98.338641
2075.000000	98.333545
2074.000000	98.339442
2073.000000	98.351924
2072.000000	98.365057
2071.000000	98.378320
2070.000000	98.386029
2069.000000	98.377274
2068.000000	98.355968
2067.000000	98.344850
2066.000000	98.359311
2065.000000	98.389838
2064.000000	98.418045
2063.000000	98.435816
2062.000000	98.440360
2061.000000	98.429147
2060.000000	98.410919
2059.000000	98.404420
2058.000000	98.415555
2057.000000	98.430805
2056.000000	98.439782
2055.000000	98.445890
2054.000000	98.447309
2053.000000	98.431800
2052.000000	98.404529
2051.000000	98.396147
2050.000000	98.423384
2049.000000	98.458842
2048.000000	98.466367
2047.000000	98.453810
2046.000000	98.457494
2045.000000	98.486676
2044.000000	98.516139
2043.000000	98.524024
2042.000000	98.509465
2041.000000	98.481165
2040.000000	98.451479
2039.000000	98.435111
2038.000000	98.437760
2037.000000	98.452878
2036.000000	98.478169
2035.000000	98.520369
2034.000000	98.573248
2033.000000	98.613610
2032.000000	98.634969
2031.000000	98.657709
2030.000000	98.686297
2029.000000	98.688828
2028.000000	98.645290
2027.000000	98.586972
2026.000000	98.559495
2025.000000	98.567996
2024.000000	98.584343
2023.000000	98.589829
2022.000000	98.586308
2021.000000	98.582049
2020.000000	98.588756
2019.000000	98.618270
2018.000000	98.662357
2017.000000	98.688175
2016.000000	98.674262
2015.000000	98.636990
2014.000000	98.605579
2013.000000	98.592186
2012.000000	98.597092
2011.000000	98.620752
2010.000000	98.656335
2009.000000	98.686587
2008.000000	98.702274
2007.000000	98.709351
2006.000000	98.709813
2005.000000	98.695572
2004.000000	98.670885
2003.000000	98.655285
2002.000000	98.654102
2001.000000	98.647626
2000.000000	98.616816
1999.000000	98.567011
1998.000000	98.518723
1997.000000	98.488847
1996.000000	98.485522
1995.000000	98.504578
1994.000000	98.525400
1993.000000	98.525214
1992.000000	98.507354
1991.000000	98.497652
1990.000000	98.503674
1989.000000	98.502428
1988.000000	98.477852
1987.000000	98.445568
1986.000000	98.429496
1985.000000	98.432564
1984.000000	98.441498
1983.000000	98.443064
1982.000000	98.426562
1981.000000	98.391551
1980.000000	98.364355
1979.000000	98.388184
1978.000000	98.476653
1977.000000	98.587989
1976.000000	98.665842
1975.000000	98.690496
1974.000000	98.674163
1973.000000	98.637672
1972.000000	98.609041
1971.000000	98.612528
1970.000000	98.642882
1969.000000	98.670302
1968.000000	98.680406
1967.000000	98.688527
1966.000000	98.705403
1965.000000	98.717408
1964.000000	98.714050
1963.000000	98.706519
1962.000000	98.707194
1961.000000	98.712805
1960.000000	98.716845
1959.000000	98.718829
1958.000000	98.711917
1957.000000	98.683726
1956.000000	98.638435
1955.000000	98.599255
1954.000000	98.582199
1953.000000	98.582621
1952.000000	98.593413
1951.000000	98.615575
1950.000000	98.645205
1949.000000	98.669951
1948.000000	98.683644
1947.000000	98.689703
1946.000000	98.686369
1945.000000	98.666464
1944.000000	98.636468
1943.000000	98.617208
1942.000000	98.617171
1941.000000	98.623506
1940.000000	98.625609
1939.000000	98.625268
1938.000000	98.620617
1937.000000	98.603268
1936.000000	98.577102
1935.000000	98.562041
1934.000000	98.569418
1933.000000	98.587134
1932.000000	98.599651
1931.000000	98.603839
1930.000000	98.602363
1929.000000	98.597420
1928.000000	98.593518
1927.000000	98.596433
1926.000000	98.600177
1925.000000	98.594757
1924.000000	98.588857
1923.000000	98.602943
1922.000000	98.636651
1921.000000	98.663078
1920.000000	98.662739
1919.000000	98.643734
1918.000000	98.622809
1917.000000	98.604726
1916.000000	98.588903
1915.000000	98.579512
1914.000000	98.577655
1913.000000	98.574481
1912.000000	98.563514
1911.000000	98.549773
1910.000000	98.542519
1909.000000	98.544577
1908.000000	98.553126
1907.000000	98.566992
1906.000000	98.581021
1905.000000	98.587566
1904.000000	98.587760
1903.000000	98.588034
1902.000000	98.589956
1901.000000	98.590307
1900.000000	98.590478
1899.000000	98.596501
1898.000000	98.605640
1897.000000	98.608530
1896.000000	98.607316
1895.000000	98.613877
1894.000000	98.627803
1893.000000	98.633044
1892.000000	98.621033
1891.000000	98.602065
1890.000000	98.589092
1889.000000	98.581976
1888.000000	98.577270
1887.000000	98.579750
1886.000000	98.592950
1885.000000	98.610805
1884.000000	98.626271
1883.000000	98.637977
1882.000000	98.644741
1881.000000	98.642573
1880.000000	98.632354
1879.000000	98.624769
1878.000000	98.627726
1877.000000	98.635767
1876.000000	98.642081
1875.000000	98.649406
1874.000000	98.661143
1873.000000	98.673188
1872.000000	98.680401
1871.000000	98.683129
1870.000000	98.683268
1869.000000	98.678588
1868.000000	98.668653
1867.000000	98.659723
1866.000000	98.653629
1865.000000	98.644523
1864.000000	98.631132
1863.000000	98.620376
1862.000000	98.616777
1861.000000	98.616962
1860.000000	98.618780
1859.000000	98.626331
1858.000000	98.640730
1857.000000	98.653743
1856.000000	98.659215
1855.000000	98.660661
1854.000000	98.662843
1853.000000	98.665583
1852.000000	98.663975
1851.000000	98.658752
1850.000000	98.657848
1849.000000	98.666776
1848.000000	98.684758
1847.000000	98.704565
1846.000000	98.717129
1845.000000	98.718751
1844.000000	98.713193
1843.000000	98.703352
1842.000000	98.688329
1841.000000	98.668467
1840.000000	98.650594
1839.000000	98.644354
1838.000000	98.646878
1837.000000	98.646457
1836.000000	98.643538
1835.000000	98.650771
1834.000000	98.671954
1833.000000	98.692940
1832.000000	98.698253
1831.000000	98.695567
1830.000000	98.701645
1829.000000	98.707906
1828.000000	98.696074
1827.000000	98.670245
1826.000000	98.651132
1825.000000	98.648543
1824.000000	98.652784
1823.000000	98.654145
1822.000000	98.654301
1821.000000	98.656073
1820.000000	98.658613
1819.000000	98.663227
1818.000000	98.669605
1817.000000	98.674530
1816.000000	98.677525
1815.000000	98.680693
1814.000000	98.683842
1813.000000	98.679859
1812.000000	98.667119
1811.000000	98.655051
1810.000000	98.646852
1809.000000	98.635267
1808.000000	98.617141
1807.000000	98.600141
1806.000000	98.589523
1805.000000	98.580878
1804.000000	98.568755
1803.000000	98.553531
1802.000000	98.540197
1801.000000	98.526691
1800.000000	98.509077
1799.000000	98.492669
1798.000000	98.485552
1797.000000	98.491419
1796.000000	98.506374
1795.000000	98.521587
1794.000000	98.530629
1793.000000	98.535382
1792.000000	98.544628
1791.000000	98.561858
1790.000000	98.580143
1789.000000	98.591659
1788.000000	98.595335
1787.000000	98.599325
1786.000000	98.611923
1785.000000	98.632207
1784.000000	98.648700
1783.000000	98.649933
1782.000000	98.641552
1781.000000	98.634524
1780.000000	98.633317
1779.000000	98.638368
1778.000000	98.651281
1777.000000	98.677436
1776.000000	98.713081
1775.000000	98.743643
1774.000000	98.757085
1773.000000	98.753206
1772.000000	98.736281
1771.000000	98.708765
1770.000000	98.668841
1769.000000	98.618910
1768.000000	98.574961
1767.000000	98.550993
1766.000000	98.540659
1765.000000	98.521842
1764.000000	98.478110
1763.000000	98.412639
1762.000000	98.337693
1761.000000	98.251204
1760.000000	98.144640
1759.000000	98.011279
1758.000000	97.844715
1757.000000	97.646062
1756.000000	97.431930
1755.000000	97.227202
1754.000000	97.028757
1753.000000	96.802663
1752.000000	96.521547
1751.000000	96.200767
1750.000000	95.878707
1749.000000	95.574306
1748.000000	95.295950
1747.000000	95.060664
1746.000000	94.875605
1745.000000	94.727995
1744.000000	94.616347
1743.000000	94.552569
1742.000000	94.527049
1741.000000	94.514588
1740.000000	94.526288
1739.000000	94.597727
1738.000000	94.720498
1737.000000	94.852881
1736.000000	94.974892
1735.000000	95.128257
1734.000000	95.348765
1733.000000	95.567669
1732.000000	95.735897
1731.000000	95.898030
1730.000000	96.091196
1729.000000	96.307767
1728.000000	96.519768
1727.000000	96.715888
1726.000000	96.900389
1725.000000	97.072689
1724.000000	97.240757
1723.000000	97.418843
1722.000000	97.599428
1721.000000	97.755605
1720.000000	97.869952
1719.000000	97.959352
1718.000000	98.049091
1717.000000	98.118810
1716.000000	98.142717
1715.000000	98.140409
1714.000000	98.128375
1713.000000	98.103458
1712.000000	98.073486
1711.000000	98.056634
1710.000000	98.058720
1709.000000	98.059412
1708.000000	98.029771
1707.000000	97.967299
1706.000000	97.900059
1705.000000	97.855473
1704.000000	97.840381
1703.000000	97.833221
1702.000000	97.791872
1701.000000	97.682432
1700.000000	97.526369
1699.000000	97.382293
1698.000000	97.244262
1697.000000	97.063981
1696.000000	96.850307
1695.000000	96.660597
1694.000000	96.520855
1693.000000	96.403101
1692.000000	96.283924
1691.000000	96.164238
1690.000000	96.056137
1689.000000	95.974288
1688.000000	95.923190
1687.000000	95.886590
1686.000000	95.813548
1685.000000	95.648273
1684.000000	95.410738
1683.000000	95.189223
1682.000000	95.014507
1681.000000	94.861539
1680.000000	94.729312
1679.000000	94.626942
1678.000000	94.538057
1677.000000	94.423056
1676.000000	94.259092
1675.000000	94.073296
1674.000000	93.912309
1673.000000	93.777984
1672.000000	93.638945
1671.000000	93.470061
1670.000000	93.262180
1669.000000	93.033948
1668.000000	92.824498
1667.000000	92.662375
1666.000000	92.535695
1665.000000	92.402981
1664.000000	92.232249
1663.000000	92.028232
1662.000000	91.825277
1661.000000	91.645255
1660.000000	91.487005
1659.000000	91.359755
1658.000000	91.279853
1657.000000	91.248324
1656.000000	91.232498
1655.000000	91.176492
1654.000000	91.022640
1653.000000	90.787333
1652.000000	90.591991
1651.000000	90.495716
1650.000000	90.450169
1649.000000	90.401947
1648.000000	90.324344
1647.000000	90.237039
1646.000000	90.172884
1645.000000	90.125437
1644.000000	90.083521
1643.000000	90.052084
1642.000000	90.042242
1641.000000	90.059729
1640.000000	90.100125
1639.000000	90.153739
1638.000000	90.200236
1637.000000	90.216615
1636.000000	90.199462
1635.000000	90.172407
1634.000000	90.153278
1633.000000	90.144507
1632.000000	90.152688
1631.000000	90.183040
1630.000000	90.234078
1629.000000	90.303075
1628.000000	90.391779
1627.000000	90.495847
1626.000000	90.602948
1625.000000	90.704424
1624.000000	90.811402
1623.000000	90.943016
1622.000000	91.094232
1621.000000	91.245744
1620.000000	91.389202
1619.000000	91.525004
1618.000000	91.659833
1617.000000	91.812513
1616.000000	91.979196
1615.000000	92.127244
1614.000000	92.247020
1613.000000	92.358874
1612.000000	92.483554
1611.000000	92.621946
1610.000000	92.760224
1609.000000	92.891790
1608.000000	93.021426
1607.000000	93.147823
1606.000000	93.264256
1605.000000	93.370563
1604.000000	93.470096
1603.000000	93.562219
1602.000000	93.641392
1601.000000	93.708940
1600.000000	93.772731
1599.000000	93.834612
1598.000000	93.888752
1597.000000	93.933069
1596.000000	93.974125
1595.000000	94.014727
1594.000000	94.047987
1593.000000	94.069821
1592.000000	94.086361
1591.000000	94.103242
1590.000000	94.117862
1589.000000	94.125763
1588.000000	94.126976
1587.000000	94.121226
1586.000000	94.105883
1585.000000	94.085038
1584.000000	94.062362
1583.000000	94.034958
1582.000000	94.004567
1581.000000	93.983927
1580.000000	93.980880
1579.000000	93.981527
1578.000000	93.956235
1577.000000	93.887842
1576.000000	93.798547
1575.000000	93.719592
1574.000000	93.659677
1573.000000	93.613319
1572.000000	93.567866
1571.000000	93.501929
1570.000000	93.402396
1569.000000	93.289954
1568.000000	93.191214
1567.000000	93.103596
1566.000000	93.011204
1565.000000	92.920185
1564.000000	92.857317
1563.000000	92.842522
1562.000000	92.861698
1561.000000	92.858071
1560.000000	92.742086
1559.000000	92.501141
1558.000000	92.252365
1557.000000	92.062158
1556.000000	91.900895
1555.000000	91.747882
1554.000000	91.606522
1553.000000	91.475857
1552.000000	91.351568
1551.000000	91.235032
1550.000000	91.133268
1549.000000	91.051338
1548.000000	90.988727
1547.000000	90.937387
1546.000000	90.892756
1545.000000	90.860094
1544.000000	90.848883
1543.000000	90.855365
1542.000000	90.842712
1541.000000	90.770878
1540.000000	90.667059
1539.000000	90.591918
1538.000000	90.557554
1537.000000	90.547943
1536.000000	90.550878
1535.000000	90.556429
1534.000000	90.567799
1533.000000	90.585276
1532.000000	90.601540
1531.000000	90.621383
1530.000000	90.648707
1529.000000	90.679026
1528.000000	90.713208
1527.000000	90.763457
1526.000000	90.835552
1525.000000	90.910357
1524.000000	90.962390
1523.000000	90.986948
1522.000000	91.007481
1521.000000	91.041285
1520.000000	91.070164
1519.000000	91.077873
1518.000000	91.070571
1517.000000	91.067368
1516.000000	91.084242
1515.000000	91.118829
1514.000000	91.164892
1513.000000	91.223229
1512.000000	91.304788
1511.000000	91.416730
1510.000000	91.547613
1509.000000	91.669372
1508.000000	91.767102
1507.000000	91.863203
1506.000000	91.943414
1505.000000	91.974291
1504.000000	91.983440
1503.000000	92.009562
1502.000000	92.066021
1501.000000	92.145296
1500.000000	92.227516
1499.000000	92.298955
1498.000000	92.354494
1497.000000	92.390918
1496.000000	92.418489
1495.000000	92.456944
1494.000000	92.510508
1493.000000	92.565551
1492.000000	92.609793
1491.000000	92.646118
1490.000000	92.676149
1489.000000	92.681396
1488.000000	92.657972
1487.000000	92.628170
1486.000000	92.600754
1485.000000	92.569740
1484.000000	92.527609
1483.000000	92.474951
1482.000000	92.415199
1481.000000	92.347230
1480.000000	92.273941
1479.000000	92.200073
1478.000000	92.122986
1477.000000	92.035781
1476.000000	91.943407
1475.000000	91.844479
1474.000000	91.707005
1473.000000	91.493162
1472.000000	91.230416
1471.000000	90.996274
1470.000000	90.816926
1469.000000	90.672308
1468.000000	90.548643
1467.000000	90.435254
1466.000000	90.313682
1465.000000	90.174589
1464.000000	90.039328
1463.000000	89.942614
1462.000000	89.889927
1461.000000	89.863532
1460.000000	89.836872
1459.000000	89.771832
1458.000000	89.619797
1457.000000	89.380559
1456.000000	89.153456
1455.000000	89.009291
1454.000000	88.920874
1453.000000	88.852353
1452.000000	88.799232
1451.000000	88.765505
1450.000000	88.737898
1449.000000	88.695559
1448.000000	88.642423
1447.000000	88.596905
1446.000000	88.565534
1445.000000	88.540346
1444.000000	88.515159
1443.000000	88.494894
1442.000000	88.483187
1441.000000	88.480283
1440.000000	88.483598
1439.000000	88.482842
1438.000000	88.453718
1437.000000	88.382854
1436.000000	88.301968
1435.000000	88.254580
1434.000000	88.242486
1433.000000	88.243312
1432.000000	88.242788
1431.000000	88.233648
1430.000000	88.208346
1429.000000	88.163752
1428.000000	88.113362
1427.000000	88.067643
1426.000000	88.022526
1425.000000	87.976375
1424.000000	87.944454
1423.000000	87.944665
1422.000000	87.964584
1421.000000	87.967530
1420.000000	87.927642
1419.000000	87.859971
1418.000000	87.799936
1417.000000	87.763713
1416.000000	87.754200
1415.000000	87.769456
1414.000000	87.798013
1413.000000	87.826809
1412.000000	87.856453
1411.000000	87.898947
1410.000000	87.957690
1409.000000	88.023518
1408.000000	88.091182
1407.000000	88.158130
1406.000000	88.219386
1405.000000	88.275771
1404.000000	88.336417
1403.000000	88.405999
1402.000000	88.472491
1401.000000	88.521738
1400.000000	88.557728
1399.000000	88.598752
1398.000000	88.649867
1397.000000	88.698389
1396.000000	88.738181
1395.000000	88.775399
1394.000000	88.817840
1393.000000	88.869800
1392.000000	88.935800
1391.000000	89.016729
1390.000000	89.102074
1389.000000	89.178518
1388.000000	89.246526
1387.000000	89.317284
1386.000000	89.393712
1385.000000	89.471732
1384.000000	89.551858
1383.000000	89.637134
1382.000000	89.724235
1381.000000	89.809802
1380.000000	89.901860
1379.000000	90.011103
1378.000000	90.135244
1377.000000	90.262974
1376.000000	90.390590
1375.000000	90.523174
1374.000000	90.659920
1373.000000	90.789019
1372.000000	90.903484
1371.000000	91.005653
1370.000000	91.100519
1369.000000	91.195204
1368.000000	91.295155
1367.000000	91.399124
1366.000000	91.499134
1365.000000	91.589152
1364.000000	91.670608
1363.000000	91.747192
1362.000000	91.816528
1361.000000	91.875326
1360.000000	91.926903
1359.000000	91.975010
1358.000000	92.019142
1357.000000	92.059135
1356.000000	92.097641
1355.000000	92.136235
1354.000000	92.172018
1353.000000	92.201107
1352.000000	92.224899
1351.000000	92.246292
1350.000000	92.265784
1349.000000	92.282401
1348.000000	92.292571
1347.000000	92.291386
1346.000000	92.275947
1345.000000	92.250219
1344.000000	92.221452
1343.000000	92.191529
1342.000000	92.154984
1341.000000	92.107936
1340.000000	92.055356
1339.000000	92.007424
1338.000000	91.971106
1337.000000	91.948352
1336.000000	91.939729
1335.000000	91.945492
1334.000000	91.964847
1333.000000	91.997432
1332.000000	92.043293
1331.000000	92.099720
1330.000000	92.160949
1329.000000	92.222610
1328.000000	92.284452
1327.000000	92.346544
1326.000000	92.406869
1325.000000	92.463404
1324.000000	92.514452
1323.000000	92.557786
1322.000000	92.591813
1321.000000	92.618738
1320.000000	92.643955
1319.000000	92.672074
1318.000000	92.704681
1317.000000	92.742140
1316.000000	92.784815
1315.000000	92.831877
1314.000000	92.881458
1313.000000	92.932437
1312.000000	92.984386
1311.000000	93.036091
1310.000000	93.086639
1309.000000	93.137337
1308.000000	93.190525
1307.000000	93.245997
1306.000000	93.301390
1305.000000	93.355695
1304.000000	93.409309
1303.000000	93.462111
1302.000000	93.513667
1301.000000	93.565210
1300.000000	93.618146
1299.000000	93.671326
1298.000000	93.721688
1297.000000	93.767207
1296.000000	93.806867
1295.000000	93.838659
1294.000000	93.860956
1293.000000	93.874666
1292.000000	93.881780
1291.000000	93.882799
1290.000000	93.877488
1289.000000	93.867516
1288.000000	93.855867
1287.000000	93.844333
1286.000000	93.833664
1285.000000	93.824805
1284.000000	93.818123
1283.000000	93.812689
1282.000000	93.808252
1281.000000	93.806652
1280.000000	93.808190
1279.000000	93.807850
1278.000000	93.798681
1277.000000	93.778593
1276.000000	93.750861
1275.000000	93.717484
1274.000000	93.676095
1273.000000	93.623905
1272.000000	93.561425
1271.000000	93.490752
1270.000000	93.411802
1269.000000	93.323141
1268.000000	93.225674
1267.000000	93.123027
1266.000000	93.018053
1265.000000	92.909847
1264.000000	92.795792
1263.000000	92.676133
1262.000000	92.555697
1261.000000	92.441312
1260.000000	92.337264
1259.000000	92.242547
1258.000000	92.152907
1257.000000	92.066952
1256.000000	91.989410
1255.000000	91.926778
1254.000000	91.880020
1253.000000	91.843117
1252.000000	91.808644
1251.000000	91.771540
1250.000000	91.728371
1249.000000	91.677153
1248.000000	91.619361
1247.000000	91.559790
1246.000000	91.502440
1245.000000	91.447820
1244.000000	91.395553
1243.000000	91.347668
1242.000000	91.307886
1241.000000	91.278551
1240.000000	91.259861
1239.000000	91.251592
1238.000000	91.254420
1237.000000	91.270706
1236.000000	91.303030
1235.000000	91.351214
1234.000000	91.411980
1233.000000	91.482060
1232.000000	91.561682
1231.000000	91.653483
1230.000000	91.759683
1229.000000	91.881896
1228.000000	92.020563
1227.000000	92.173352
1226.000000	92.335279
1225.000000	92.501502
1224.000000	92.668341
1223.000000	92.831044
1222.000000	92.984444
1221.000000	93.126648
1220.000000	93.258623
1219.000000	93.379167
1218.000000	93.484802
1217.000000	93.575043
1216.000000	93.653620
1215.000000	93.723187
1214.000000	93.781696
1213.000000	93.826811
1212.000000	93.860077
1211.000000	93.884311
1210.000000	93.899392
1209.000000	93.902240
1208.000000	93.890874
1207.000000	93.867083
1206.000000	93.836389
1205.000000	93.806541
1204.000000	93.784051
1203.000000	93.770786
1202.000000	93.764252
1201.000000	93.761907
1200.000000	93.763876
1199.000000	93.770727
1198.000000	93.780587
1197.000000	93.790339
1196.000000	93.798618
1195.000000	93.805716
1194.000000	93.811510
1193.000000	93.815021
1192.000000	93.815331
1191.000000	93.811689
1190.000000	93.803472
1189.000000	93.790810
1188.000000	93.774575
1187.000000	93.755049
1186.000000	93.731064
1185.000000	93.701366
1184.000000	93.665451
1183.000000	93.622572
1182.000000	93.571469
1181.000000	93.511828
1180.000000	93.445285
1179.000000	93.373631
1178.000000	93.297638
1177.000000	93.218948
1176.000000	93.140762
1175.000000	93.064624
1174.000000	92.988205
1173.000000	92.909460
1172.000000	92.831555
1171.000000	92.760055
1170.000000	92.695756
1169.000000	92.634303
1168.000000	92.573089
1167.000000	92.514486
1166.000000	92.462497
1165.000000	92.420006
1164.000000	92.390473
1163.000000	92.378404
1162.000000	92.385474
1161.000000	92.409975
1160.000000	92.450238
1159.000000	92.505853
1158.000000	92.576225
1157.000000	92.660686
1156.000000	92.761290
1155.000000	92.880711
1154.000000	93.016864
1153.000000	93.163741
1152.000000	93.316978
1151.000000	93.475826
1150.000000	93.639306
1149.000000	93.804750
1148.000000	93.971457
1147.000000	94.141732
1146.000000	94.316196
1145.000000	94.489831
1144.000000	94.654686
1143.000000	94.805922
1142.000000	94.944943
1141.000000	95.076456
1140.000000	95.202835
1139.000000	95.321954
1138.000000	95.429557
1137.000000	95.523477
1136.000000	95.604167
1135.000000	95.671817
1134.000000	95.725279
1133.000000	95.763985
1132.000000	95.791033
1131.000000	95.812377
1130.000000	95.831596
1129.000000	95.846698
1128.000000	95.853277
1127.000000	95.851203
1126.000000	95.845226
1125.000000	95.838024
1124.000000	95.826426
1123.000000	95.806598
1122.000000	95.780513
1121.000000	95.753034
1120.000000	95.723389
1119.000000	95.684114
1118.000000	95.628148
1117.000000	95.554227
1116.000000	95.464970
1115.000000	95.363090
1114.000000	95.251850
1113.000000	95.137298
1112.000000	95.028513
1111.000000	94.934877
1110.000000	94.862608
1109.000000	94.812859
1108.000000	94.783376
1107.000000	94.771118
1106.000000	94.771901
1105.000000	94.779607
1104.000000	94.787732
1103.000000	94.792887
1102.000000	94.794600
1101.000000	94.790321
1100.000000	94.772906
1099.000000	94.736364
1098.000000	94.683749
1097.000000	94.626440
1096.000000	94.574951
1095.000000	94.531864
1094.000000	94.493976
1093.000000	94.459589
1092.000000	94.432687
1091.000000	94.420243
1090.000000	94.426746
1089.000000	94.450775
1088.000000	94.486314
1087.000000	94.527150
1086.000000	94.570150
1085.000000	94.616246
1084.000000	94.668514
1083.000000	94.729277
1082.000000	94.798301
1081.000000	94.872568
1080.000000	94.948328
1079.000000	95.023857
1078.000000	95.099989
1077.000000	95.177238
1076.000000	95.253082
1075.000000	95.323638
1074.000000	95.387413
1073.000000	95.445062
1072.000000	95.495525
1071.000000	95.535968
1070.000000	95.565564
1069.000000	95.586108
1068.000000	95.598541
1067.000000	95.602336
1066.000000	95.599787
1065.000000	95.596422
1064.000000	95.595063
1063.000000	95.593259
1062.000000	95.588835
1061.000000	95.584974
1060.000000	95.586999
1059.000000	95.597012
1058.000000	95.614399
1057.000000	95.638833
1056.000000	95.669036
1055.000000	95.700618
1054.000000	95.729338
1053.000000	95.755523
1052.000000	95.781850
1051.000000	95.807516
1050.000000	95.828692
1049.000000	95.844519
1048.000000	95.858906
1047.000000	95.875796
1046.000000	95.895032
1045.000000	95.912643
1044.000000	95.922892
1043.000000	95.921244
1042.000000	95.907609
1041.000000	95.886146
1040.000000	95.859668
1039.000000	95.825136
1038.000000	95.777813
1037.000000	95.719180
1036.000000	95.658176
1035.000000	95.604081
1034.000000	95.559818
1033.000000	95.522285
1032.000000	95.487649
1031.000000	95.456160
1030.000000	95.433135
1029.000000	95.426102
1028.000000	95.438701
1027.000000	95.466415
1026.000000	95.499164
1025.000000	95.528689
1024.000000	95.553588
1023.000000	95.577839
1022.000000	95.606639
1021.000000	95.643313
1020.000000	95.687403
1019.000000	95.734644
1018.000000	95.780062
1017.000000	95.822083
1016.000000	95.863139
1015.000000	95.906632
1014.000000	95.954813
1013.000000	96.008757
1012.000000	96.068250
1011.000000	96.131471
1010.000000	96.196110
1009.000000	96.260935
1008.000000	96.325181
1007.000000	96.387507
1006.000000	96.447322
1005.000000	96.505780
1004.000000	96.562988
1003.000000	96.615535
1002.000000	96.660090
1001.000000	96.698684
1000.000000	96.737232
999.000000	96.778490
998.000000	96.819223
997.000000	96.854562
996.000000	96.881999
995.000000	96.901245
994.000000	96.913510
993.000000	96.922592
992.000000	96.934254
991.000000	96.952138
990.000000	96.974608
989.000000	96.996152
988.000000	97.011367
987.000000	97.017888
986.000000	97.017141
985.000000	97.012864
984.000000	97.007556
983.000000	97.000015
982.000000	96.987699
981.000000	96.971427
980.000000	96.956043
979.000000	96.945111
978.000000	96.936178
977.000000	96.922971
976.000000	96.901735
975.000000	96.874398
974.000000	96.845839
973.000000	96.819956
972.000000	96.799009
971.000000	96.785150
970.000000	96.780216
969.000000	96.783828
968.000000	96.793661
967.000000	96.808331
966.000000	96.829230
965.000000	96.857957
964.000000	96.892570
963.000000	96.928564
962.000000	96.963639
961.000000	96.999865
960.000000	97.039921
959.000000	97.083028
958.000000	97.126476
957.000000	97.169830
956.000000	97.215591
955.000000	97.265835
954.000000	97.319934
953.000000	97.375435
952.000000	97.429596
951.000000	97.480202
950.000000	97.526386
949.000000	97.568935
948.000000	97.608934
947.000000	97.646326
946.000000	97.680223
945.000000	97.709804
944.000000	97.734493
943.000000	97.754466
942.000000	97.771989
941.000000	97.790324
940.000000	97.809630
939.000000	97.825667
938.000000	97.834973
937.000000	97.840910
936.000000	97.851992
935.000000	97.874062
934.000000	97.905672
933.000000	97.941095
932.000000	97.976012
931.000000	98.009114
930.000000	98.039404
929.000000	98.063762
928.000000	98.078361
927.000000	98.083386
926.000000	98.085545
925.000000	98.093673
924.000000	98.111069
923.000000	98.133726
922.000000	98.157224
921.000000	98.182821
920.000000	98.214208
919.000000	98.249932
918.000000	98.283189
917.000000	98.310055
916.000000	98.334465
915.000000	98.362971
914.000000	98.396029
913.000000	98.426752
912.000000	98.448519
911.000000	98.462117
910.000000	98.474594
909.000000	98.491796
908.000000	98.513546
907.000000	98.536393
906.000000	98.558683
905.000000	98.580603
904.000000	98.600262
903.000000	98.613382
902.000000	98.618652
901.000000	98.621522
900.000000	98.630609
899.000000	98.650226
898.000000	98.677053
897.000000	98.703319
896.000000	98.722758
895.000000	98.734121
894.000000	98.740031
893.000000	98.743141
892.000000	98.743354
891.000000	98.737596
890.000000	98.717497
889.000000	98.663741
888.000000	98.546660
887.000000	98.340333
886.000000	98.044231
885.000000	97.690148
884.000000	97.324060
883.000000	96.977455
882.000000	96.648224
881.000000	96.305749
880.000000	95.917147
879.000000	95.476286
878.000000	95.012910
877.000000	94.579136
876.000000	94.227865
875.000000	93.999779
874.000000	93.922158
873.000000	94.009217
872.000000	94.260151
871.000000	94.650459
870.000000	95.128795
869.000000	95.631153
868.000000	96.101699
867.000000	96.506447
866.000000	96.835041
865.000000	97.095989
864.000000	97.307213
863.000000	97.485308
862.000000	97.638042
861.000000	97.765069
860.000000	97.865371
859.000000	97.943321
858.000000	98.008566
857.000000	98.069081
856.000000	98.125626
855.000000	98.174769
854.000000	98.215403
853.000000	98.248485
852.000000	98.269136
851.000000	98.266137
850.000000	98.236923
849.000000	98.201373
848.000000	98.192424
847.000000	98.227708
846.000000	98.293496
845.000000	98.360600
844.000000	98.412508
843.000000	98.453253
842.000000	98.491207
841.000000	98.524698
840.000000	98.547002
839.000000	98.558247
838.000000	98.565217
837.000000	98.571072
836.000000	98.572544
835.000000	98.568663
834.000000	98.566249
833.000000	98.572888
832.000000	98.587353
831.000000	98.601432
830.000000	98.610317
829.000000	98.617950
828.000000	98.631759
827.000000	98.654112
826.000000	98.679570
825.000000	98.699386
824.000000	98.708652
823.000000	98.710287
822.000000	98.711729
821.000000	98.716973
820.000000	98.722618
819.000000	98.722444
818.000000	98.714976
817.000000	98.704790
816.000000	98.696988
815.000000	98.692496
814.000000	98.689277
813.000000	98.687024
812.000000	98.689278
811.000000	98.700121
810.000000	98.718372
809.000000	98.735511
808.000000	98.741227
807.000000	98.732285
806.000000	98.715174
805.000000	98.699429
804.000000	98.689635
803.000000	98.684821
802.000000	98.682729
801.000000	98.681036
800.000000	98.675514
799.000000	98.661315
798.000000	98.637836
797.000000	98.610183
796.000000	98.584499
795.000000	98.563500
794.000000	98.547517
793.000000	98.537742
792.000000	98.535890
791.000000	98.540489
790.000000	98.544777
789.000000	98.539395
788.000000	98.518474
787.000000	98.485170
786.000000	98.452103
785.000000	98.433914
784.000000	98.436197
783.000000	98.450566
782.000000	98.461503
781.000000	98.458838
780.000000	98.443780
779.000000	98.424090
778.000000	98.405957
777.000000	98.391002
776.000000	98.378636
775.000000	98.368351
774.000000	98.359672
773.000000	98.351939
772.000000	98.345254
771.000000	98.340498
770.000000	98.337254
769.000000	98.332681
768.000000	98.323846
767.000000	98.311003
766.000000	98.297238
765.000000	98.284283
764.000000	98.269708
763.000000	98.249413
762.000000	98.222510
761.000000	98.192359
760.000000	98.162634
759.000000	98.133922
758.000000	98.105076
757.000000	98.076272
756.000000	98.048893
755.000000	98.023809
754.000000	98.002738
753.000000	97.990450
752.000000	97.990850
751.000000	97.999519
750.000000	98.004417
749.000000	97.997458
748.000000	97.982443
747.000000	97.968022
746.000000	97.956156
745.000000	97.942722
744.000000	97.927441
743.000000	97.915921
742.000000	97.910740
741.000000	97.906486
740.000000	97.896428
739.000000	97.879842
738.000000	97.859767
737.000000	97.837062
736.000000	97.809779
735.000000	97.776245
734.000000	97.736076
733.000000	97.690189
732.000000	97.642577
731.000000	97.599941
730.000000	97.566142
729.000000	97.537633
728.000000	97.508533
727.000000	97.478969
726.000000	97.453794
725.000000	97.434665
724.000000	97.416903
723.000000	97.393180
722.000000	97.356965
721.000000	97.303110
720.000000	97.229336
719.000000	97.136216
718.000000	97.019178
717.000000	96.859297
716.000000	96.631353
715.000000	96.333847
714.000000	96.016222
713.000000	95.768117
712.000000	95.666824
711.000000	95.723578
710.000000	95.879050
709.000000	96.050191
708.000000	96.181682
707.000000	96.261649
706.000000	96.302264
705.000000	96.318673
704.000000	96.322975
703.000000	96.322090
702.000000	96.315155
701.000000	96.297309
700.000000	96.268254
699.000000	96.235908
698.000000	96.209656
697.000000	96.193681
696.000000	96.187360
695.000000	96.186530
694.000000	96.186582
693.000000	96.187471
692.000000	96.193910
691.000000	96.207910
690.000000	96.220885
689.000000	96.219756
688.000000	96.201708
687.000000	96.176229
686.000000	96.153182
685.000000	96.134805
684.000000	96.118582
683.000000	96.101648
682.000000	96.080492
681.000000	96.052634
680.000000	96.021368
679.000000	95.996015
678.000000	95.984564
677.000000	95.986631
676.000000	95.997691
675.000000	96.013119
674.000000	96.030503
673.000000	96.050926
672.000000	96.078902
671.000000	96.117703
670.000000	96.165442
669.000000	96.206326
668.000000	96.202667
667.000000	96.179142
666.000000	96.197767
665.000000	96.226367
664.000000	96.229357
663.000000	96.210554
662.000000	96.190672
661.000000	96.184424
660.000000	96.191537
659.000000	96.205402
658.000000	96.216512
657.000000	96.213581
656.000000	96.194807
655.000000	96.169194
654.000000	96.143275
653.000000	96.116448
652.000000	96.091685
651.000000	96.074531
650.000000	96.057724
649.000000	96.023137
648.000000	95.967404
647.000000	95.907960
646.000000	95.856667
645.000000	95.807365
644.000000	95.756193
643.000000	95.712564
642.000000	95.680629
641.000000	95.646961
640.000000	95.600626
639.000000	95.551323
638.000000	95.512554
637.000000	95.482414
636.000000	95.455484
635.000000	95.438971
634.000000	95.442772
633.000000	95.464479
632.000000	95.494547
631.000000	95.524044
630.000000	95.538674
629.000000	95.522801
628.000000	95.483058
627.000000	95.453128
626.000000	95.457829
625.000000	95.482620
624.000000	95.493345
623.000000	95.474519
622.000000	95.436107
621.000000	95.395048
620.000000	95.364680
619.000000	95.351815
618.000000	95.347373
617.000000	95.327959
616.000000	95.282817
615.000000	95.231182
614.000000	95.198669
613.000000	95.187001
612.000000	95.180736
611.000000	95.174730
610.000000	95.178288
609.000000	95.197760
608.000000	95.230630
607.000000	95.273129
606.000000	95.320092
605.000000	95.362667
604.000000	95.397564
603.000000	95.435808
602.000000	95.493085
601.000000	95.571615
600.000000	95.659008
599.000000	95.741451
598.000000	95.812727
597.000000	95.873383
596.000000	95.927591
595.000000	95.980392
594.000000	96.034229
593.000000	96.088330
592.000000	96.139939
591.000000	96.182102
590.000000	96.204091
589.000000	96.203035
588.000000	96.192834
587.000000	96.192078
586.000000	96.204127
585.000000	96.219244
584.000000	96.235932
583.000000	96.262434
582.000000	96.292190
581.000000	96.300006
580.000000	96.275121
579.000000	96.241241
578.000000	96.229547
577.000000	96.245434
576.000000	96.273447
575.000000	96.298995
574.000000	96.312903
573.000000	96.309310
572.000000	96.295388
571.000000	96.292393
570.000000	96.310216
569.000000	96.328623
568.000000	96.322238
567.000000	96.295225
566.000000	96.272410
565.000000	96.264425
564.000000	96.262114
563.000000	96.258723
562.000000	96.258044
561.000000	96.263713
560.000000	96.274473
559.000000	96.289539
558.000000	96.307618
557.000000	96.322534
556.000000	96.328199
555.000000	96.323131
554.000000	96.305975
553.000000	96.277765
552.000000	96.254928
551.000000	96.265256
550.000000	96.316354
549.000000	96.380736
548.000000	96.426908
547.000000	96.449130
546.000000	96.456977
545.000000	96.453891
544.000000	96.441632
543.000000	96.430102
542.000000	96.425060
541.000000	96.417382
540.000000	96.399793
539.000000	96.381497
538.000000	96.370352
537.000000	96.356523
536.000000	96.332546
535.000000	96.313648
534.000000	96.317003
533.000000	96.333766
532.000000	96.341725
531.000000	96.331823
530.000000	96.306103
529.000000	96.267832
528.000000	96.233926
527.000000	96.239319
526.000000	96.296615
525.000000	96.361721
524.000000	96.383667
523.000000	96.369281
522.000000	96.359218
521.000000	96.366609
520.000000	96.372720
519.000000	96.371249
518.000000	96.384744
517.000000	96.431318
516.000000	96.500720
515.000000	96.568800
514.000000	96.612589
513.000000	96.616897
512.000000	96.592335
511.000000	96.581948
510.000000	96.623206
509.000000	96.704732
508.000000	96.782628
507.000000	96.830959
506.000000	96.856063
505.000000	96.871184
504.000000	96.884050
503.000000	96.907101
502.000000	96.948856
501.000000	96.991509
500.000000	97.009157
499.000000	97.006782
498.000000	97.014319
497.000000	97.047431
496.000000	97.092949
495.000000	97.131021
494.000000	97.153925
493.000000	97.162197
492.000000	97.162098
491.000000	97.168022
490.000000	97.191158
489.000000	97.224952
488.000000	97.253396
487.000000	97.268432
486.000000	97.270768
485.000000	97.264767
484.000000	97.264057
483.000000	97.289225
482.000000	97.340945
481.000000	97.391017
480.000000	97.416715
479.000000	97.429015
478.000000	97.453474
477.000000	97.494599
476.000000	97.537962
475.000000	97.574946
474.000000	97.604269
473.000000	97.621748
472.000000	97.629979
471.000000	97.640160
470.000000	97.649148
469.000000	97.643676
468.000000	97.642279
467.000000	97.699446
466.000000	97.829166
465.000000	97.959790
464.000000	98.013771
463.000000	98.004478
462.000000	98.011152
461.000000	98.075580
460.000000	98.147075
459.000000	98.148346
458.000000	98.146605
457.000000	98.187346
456.000000	98.308896
455.000000	98.491936
454.000000	98.687171
453.000000	98.817310
452.000000	98.821841
451.000000	98.734371
450.000000	98.651666
