PE IR       SUBTECH     SPECTRUM    ASCII       PEDS        4.00        
   -1
3C-YYX-F020_1.ASC
23/09/07
11:09:03.00
23/09/07
11:30:09.00
uco
Sample 020 By uco Date Thursday, September 07 2023
450.000000
#HDR
-1
-1
#GR
cm-1
%T
1.0
0.0
4000.000000
-1.000000
3551
8
98.659019
81.604651
#DATA
4000.000000	98.610450
3999.000000	98.611247
3998.000000	98.609592
3997.000000	98.606166
3996.000000	98.602483
3995.000000	98.600032
3994.000000	98.599236
3993.000000	98.599237
3992.000000	98.598546
3991.000000	98.595949
3990.000000	98.591072
3989.000000	98.584594
3988.000000	98.578288
3987.000000	98.574409
3986.000000	98.574368
3985.000000	98.577566
3984.000000	98.581651
3983.000000	98.584244
3982.000000	98.584551
3981.000000	98.583550
3980.000000	98.582697
3979.000000	98.582310
3978.000000	98.581113
3977.000000	98.577400
3976.000000	98.570958
3975.000000	98.564026
3974.000000	98.559972
3973.000000	98.560775
3972.000000	98.565538
3971.000000	98.571269
3970.000000	98.575179
3969.000000	98.576371
3968.000000	98.575997
3967.000000	98.575991
3966.000000	98.577469
3965.000000	98.580105
3964.000000	98.582642
3963.000000	98.583789
3962.000000	98.582869
3961.000000	98.580036
3960.000000	98.576044
3959.000000	98.571846
3958.000000	98.568153
3957.000000	98.565212
3956.000000	98.562985
3955.000000	98.561391
3954.000000	98.560444
3953.000000	98.560403
3952.000000	98.561796
3951.000000	98.564940
3950.000000	98.569000
3949.000000	98.571911
3948.000000	98.571945
3947.000000	98.569087
3946.000000	98.564557
3945.000000	98.559464
3944.000000	98.554640
3943.000000	98.551339
3942.000000	98.550946
3941.000000	98.553947
3940.000000	98.559261
3939.000000	98.564754
3938.000000	98.568491
3937.000000	98.569434
3936.000000	98.567683
3935.000000	98.564446
3934.000000	98.561903
3933.000000	98.562735
3932.000000	98.568281
3931.000000	98.576677
3930.000000	98.583447
3929.000000	98.584807
3928.000000	98.580498
3927.000000	98.573390
3926.000000	98.567270
3925.000000	98.564736
3924.000000	98.566262
3923.000000	98.570799
3922.000000	98.576701
3921.000000	98.581861
3920.000000	98.583864
3919.000000	98.581027
3918.000000	98.574167
3917.000000	98.567140
3916.000000	98.564180
3915.000000	98.566057
3914.000000	98.569287
3913.000000	98.569445
3912.000000	98.564797
3911.000000	98.557608
3910.000000	98.551968
3909.000000	98.550283
3908.000000	98.551829
3907.000000	98.553787
3906.000000	98.553489
3905.000000	98.550611
3904.000000	98.547852
3903.000000	98.548699
3902.000000	98.553842
3901.000000	98.560360
3900.000000	98.565162
3899.000000	98.567519
3898.000000	98.568452
3897.000000	98.569161
3896.000000	98.570205
3895.000000	98.571747
3894.000000	98.573628
3893.000000	98.575309
3892.000000	98.576331
3891.000000	98.577172
3890.000000	98.578792
3889.000000	98.580538
3888.000000	98.579546
3887.000000	98.573628
3886.000000	98.564510
3885.000000	98.557342
3884.000000	98.556465
3883.000000	98.561518
3882.000000	98.568218
3881.000000	98.571534
3880.000000	98.569260
3879.000000	98.564036
3878.000000	98.560148
3877.000000	98.559086
3876.000000	98.560333
3875.000000	98.563651
3874.000000	98.568133
3873.000000	98.571053
3872.000000	98.570023
3871.000000	98.566163
3870.000000	98.563616
3869.000000	98.565207
3868.000000	98.569827
3867.000000	98.573854
3866.000000	98.574143
3865.000000	98.570067
3864.000000	98.563446
3863.000000	98.557179
3862.000000	98.552988
3861.000000	98.550997
3860.000000	98.551242
3859.000000	98.554059
3858.000000	98.558679
3857.000000	98.562029
3856.000000	98.560113
3855.000000	98.551544
3854.000000	98.540306
3853.000000	98.533204
3852.000000	98.533991
3851.000000	98.540728
3850.000000	98.548566
3849.000000	98.554390
3848.000000	98.558125
3847.000000	98.560817
3846.000000	98.562569
3845.000000	98.562274
3844.000000	98.559233
3843.000000	98.554769
3842.000000	98.551286
3841.000000	98.550933
3840.000000	98.555295
3839.000000	98.564334
3838.000000	98.574719
3837.000000	98.581718
3836.000000	98.583904
3835.000000	98.583191
3834.000000	98.581082
3833.000000	98.577802
3832.000000	98.574430
3831.000000	98.573015
3830.000000	98.574138
3829.000000	98.575434
3828.000000	98.573886
3827.000000	98.569226
3826.000000	98.564155
3825.000000	98.561243
3824.000000	98.560721
3823.000000	98.561918
3822.000000	98.564347
3821.000000	98.566280
3820.000000	98.565389
3819.000000	98.561829
3818.000000	98.556904
3817.000000	98.551819
3816.000000	98.548903
3815.000000	98.549331
3814.000000	98.551703
3813.000000	98.553994
3812.000000	98.555813
3811.000000	98.558427
3810.000000	98.562408
3809.000000	98.566445
3808.000000	98.569140
3807.000000	98.571038
3806.000000	98.573538
3805.000000	98.576567
3804.000000	98.578468
3803.000000	98.578733
3802.000000	98.578860
3801.000000	98.579139
3800.000000	98.578026
3799.000000	98.575382
3798.000000	98.571652
3797.000000	98.567129
3796.000000	98.562530
3795.000000	98.558654
3794.000000	98.555766
3793.000000	98.553685
3792.000000	98.552583
3791.000000	98.553124
3790.000000	98.555388
3789.000000	98.558285
3788.000000	98.560857
3787.000000	98.563087
3786.000000	98.565162
3785.000000	98.566692
3784.000000	98.567298
3783.000000	98.567447
3782.000000	98.567988
3781.000000	98.569392
3780.000000	98.571734
3779.000000	98.574490
3778.000000	98.576308
3777.000000	98.575997
3776.000000	98.573728
3775.000000	98.571170
3774.000000	98.569767
3773.000000	98.569189
3772.000000	98.568099
3771.000000	98.566646
3770.000000	98.567198
3769.000000	98.572126
3768.000000	98.581665
3767.000000	98.593216
3766.000000	98.602309
3765.000000	98.605458
3764.000000	98.602947
3763.000000	98.597769
3762.000000	98.592245
3761.000000	98.587155
3760.000000	98.583191
3759.000000	98.581855
3758.000000	98.584373
3757.000000	98.589971
3756.000000	98.596212
3755.000000	98.600640
3754.000000	98.601773
3753.000000	98.598957
3752.000000	98.591719
3751.000000	98.580084
3750.000000	98.566899
3749.000000	98.558390
3748.000000	98.558975
3747.000000	98.567524
3746.000000	98.579942
3745.000000	98.591626
3744.000000	98.598561
3743.000000	98.601333
3742.000000	98.602219
3741.000000	98.599938
3740.000000	98.593550
3739.000000	98.585651
3738.000000	98.580193
3737.000000	98.579782
3736.000000	98.585039
3735.000000	98.594645
3734.000000	98.605138
3733.000000	98.612752
3732.000000	98.616190
3731.000000	98.616785
3730.000000	98.616069
3729.000000	98.614149
3728.000000	98.611183
3727.000000	98.608182
3726.000000	98.605516
3725.000000	98.602330
3724.000000	98.598591
3723.000000	98.595663
3722.000000	98.593919
3721.000000	98.592727
3720.000000	98.592504
3719.000000	98.594455
3718.000000	98.598170
3717.000000	98.601277
3716.000000	98.601880
3715.000000	98.600086
3714.000000	98.596728
3713.000000	98.592668
3712.000000	98.589725
3711.000000	98.589769
3710.000000	98.591562
3709.000000	98.591716
3708.000000	98.589981
3707.000000	98.589722
3706.000000	98.593766
3705.000000	98.601448
3704.000000	98.609168
3703.000000	98.612771
3702.000000	98.610584
3701.000000	98.605480
3700.000000	98.602905
3699.000000	98.605145
3698.000000	98.609055
3697.000000	98.609888
3696.000000	98.605995
3695.000000	98.599514
3694.000000	98.593192
3693.000000	98.588436
3692.000000	98.586028
3691.000000	98.586998
3690.000000	98.590418
3689.000000	98.592019
3688.000000	98.588909
3687.000000	98.583656
3686.000000	98.579336
3685.000000	98.575767
3684.000000	98.572169
3683.000000	98.569011
3682.000000	98.566912
3681.000000	98.565192
3680.000000	98.562487
3679.000000	98.557096
3678.000000	98.546869
3677.000000	98.531553
3676.000000	98.516750
3675.000000	98.510181
3674.000000	98.512681
3673.000000	98.519266
3672.000000	98.525018
3671.000000	98.528172
3670.000000	98.528093
3669.000000	98.522959
3668.000000	98.513896
3667.000000	98.505025
3666.000000	98.498192
3665.000000	98.492935
3664.000000	98.488614
3663.000000	98.484808
3662.000000	98.480863
3661.000000	98.476711
3660.000000	98.474173
3659.000000	98.475045
3658.000000	98.477509
3657.000000	98.476327
3656.000000	98.469196
3655.000000	98.461108
3654.000000	98.457462
3653.000000	98.456750
3652.000000	98.453232
3651.000000	98.442997
3650.000000	98.427581
3649.000000	98.413278
3648.000000	98.404902
3647.000000	98.400770
3646.000000	98.396210
3645.000000	98.389150
3644.000000	98.381417
3643.000000	98.376467
3642.000000	98.375440
3641.000000	98.375547
3640.000000	98.373622
3639.000000	98.369904
3638.000000	98.366183
3637.000000	98.361955
3636.000000	98.354877
3635.000000	98.344558
3634.000000	98.333696
3633.000000	98.324852
3632.000000	98.317657
3631.000000	98.310017
3630.000000	98.301024
3629.000000	98.291919
3628.000000	98.284629
3627.000000	98.280078
3626.000000	98.276300
3625.000000	98.269779
3624.000000	98.260429
3623.000000	98.251567
3622.000000	98.245163
3621.000000	98.239097
3620.000000	98.229615
3619.000000	98.216147
3618.000000	98.202478
3617.000000	98.192324
3616.000000	98.185988
3615.000000	98.181381
3614.000000	98.175855
3613.000000	98.167555
3612.000000	98.157040
3611.000000	98.146575
3610.000000	98.136915
3609.000000	98.127500
3608.000000	98.119016
3607.000000	98.112694
3606.000000	98.107384
3605.000000	98.100171
3604.000000	98.090550
3603.000000	98.081270
3602.000000	98.074736
3601.000000	98.069920
3600.000000	98.063887
3599.000000	98.055060
3598.000000	98.043274
3597.000000	98.028265
3596.000000	98.010601
3595.000000	97.993431
3594.000000	97.980210
3593.000000	97.971336
3592.000000	97.964384
3591.000000	97.956961
3590.000000	97.947767
3589.000000	97.936675
3588.000000	97.924746
3587.000000	97.913702
3586.000000	97.904219
3585.000000	97.895480
3584.000000	97.886511
3583.000000	97.876835
3582.000000	97.866156
3581.000000	97.854339
3580.000000	97.841953
3579.000000	97.830061
3578.000000	97.818679
3577.000000	97.806779
3576.000000	97.794021
3575.000000	97.781229
3574.000000	97.768550
3573.000000	97.754975
3572.000000	97.740636
3571.000000	97.727589
3570.000000	97.717273
3569.000000	97.708493
3568.000000	97.698877
3567.000000	97.687971
3566.000000	97.677390
3565.000000	97.667926
3564.000000	97.658690
3563.000000	97.648128
3562.000000	97.634956
3561.000000	97.619240
3560.000000	97.603065
3559.000000	97.588719
3558.000000	97.575744
3557.000000	97.561311
3556.000000	97.544046
3555.000000	97.525780
3554.000000	97.509128
3553.000000	97.494773
3552.000000	97.482434
3551.000000	97.472768
3550.000000	97.466223
3549.000000	97.461222
3548.000000	97.454995
3547.000000	97.445710
3546.000000	97.433192
3545.000000	97.418662
3544.000000	97.404278
3543.000000	97.391808
3542.000000	97.380943
3541.000000	97.370109
3540.000000	97.359198
3539.000000	97.349835
3538.000000	97.342155
3537.000000	97.332874
3536.000000	97.318431
3535.000000	97.299274
3534.000000	97.279223
3533.000000	97.261948
3532.000000	97.249404
3531.000000	97.242039
3530.000000	97.238238
3529.000000	97.234318
3528.000000	97.227051
3527.000000	97.216188
3526.000000	97.203517
3525.000000	97.190354
3524.000000	97.177058
3523.000000	97.163739
3522.000000	97.150232
3521.000000	97.136207
3520.000000	97.122132
3519.000000	97.109168
3518.000000	97.097322
3517.000000	97.084923
3516.000000	97.070986
3515.000000	97.057072
3514.000000	97.045510
3513.000000	97.036653
3512.000000	97.028939
3511.000000	97.020873
3510.000000	97.011988
3509.000000	97.002690
3508.000000	96.994124
3507.000000	96.987264
3506.000000	96.981156
3505.000000	96.972879
3504.000000	96.960422
3503.000000	96.945352
3502.000000	96.931372
3501.000000	96.920467
3500.000000	96.911419
3499.000000	96.901626
3498.000000	96.889374
3497.000000	96.875057
3496.000000	96.860655
3495.000000	96.847582
3494.000000	96.835113
3493.000000	96.821793
3492.000000	96.808051
3491.000000	96.795938
3490.000000	96.786280
3489.000000	96.777673
3488.000000	96.768658
3487.000000	96.759105
3486.000000	96.748691
3485.000000	96.735786
3484.000000	96.719273
3483.000000	96.700805
3482.000000	96.684291
3481.000000	96.673216
3480.000000	96.668564
3479.000000	96.668388
3478.000000	96.669083
3477.000000	96.667891
3476.000000	96.664518
3475.000000	96.659727
3474.000000	96.652594
3473.000000	96.640890
3472.000000	96.624331
3471.000000	96.605836
3470.000000	96.589011
3469.000000	96.575724
3468.000000	96.566055
3467.000000	96.558736
3466.000000	96.551502
3465.000000	96.542984
3464.000000	96.534897
3463.000000	96.530432
3462.000000	96.529532
3461.000000	96.527559
3460.000000	96.519805
3459.000000	96.505884
3458.000000	96.488975
3457.000000	96.472526
3456.000000	96.458751
3455.000000	96.448520
3454.000000	96.441128
3453.000000	96.435196
3452.000000	96.430583
3451.000000	96.428516
3450.000000	96.429084
3449.000000	96.429816
3448.000000	96.427572
3447.000000	96.421028
3446.000000	96.410665
3445.000000	96.397368
3444.000000	96.382136
3443.000000	96.366541
3442.000000	96.352618
3441.000000	96.342424
3440.000000	96.337372
3439.000000	96.336679
3438.000000	96.336202
3437.000000	96.330526
3436.000000	96.317472
3435.000000	96.299989
3434.000000	96.283369
3433.000000	96.271370
3432.000000	96.264592
3431.000000	96.260832
3430.000000	96.256497
3429.000000	96.249217
3428.000000	96.239808
3427.000000	96.230617
3426.000000	96.222168
3425.000000	96.212958
3424.000000	96.202456
3423.000000	96.192156
3422.000000	96.183057
3421.000000	96.174281
3420.000000	96.165136
3419.000000	96.156679
3418.000000	96.149823
3417.000000	96.143486
3416.000000	96.135838
3415.000000	96.126313
3414.000000	96.115565
3413.000000	96.104415
3412.000000	96.093473
3411.000000	96.082833
3410.000000	96.071881
3409.000000	96.060451
3408.000000	96.050105
3407.000000	96.042518
3406.000000	96.036508
3405.000000	96.028661
3404.000000	96.017477
3403.000000	96.005122
3402.000000	95.994380
3401.000000	95.985905
3400.000000	95.979034
3399.000000	95.973136
3398.000000	95.966901
3397.000000	95.958206
3396.000000	95.946271
3395.000000	95.932848
3394.000000	95.920225
3393.000000	95.909222
3392.000000	95.899770
3391.000000	95.891826
3390.000000	95.884590
3389.000000	95.876110
3388.000000	95.864942
3387.000000	95.851626
3386.000000	95.837962
3385.000000	95.825535
3384.000000	95.815137
3383.000000	95.806303
3382.000000	95.797135
3381.000000	95.785965
3380.000000	95.773615
3379.000000	95.762562
3378.000000	95.753521
3377.000000	95.744421
3376.000000	95.733200
3375.000000	95.720059
3374.000000	95.706466
3373.000000	95.693548
3372.000000	95.682140
3371.000000	95.672789
3370.000000	95.664704
3369.000000	95.655807
3368.000000	95.644497
3367.000000	95.630449
3366.000000	95.613648
3365.000000	95.594390
3364.000000	95.574565
3363.000000	95.557074
3362.000000	95.543117
3361.000000	95.531279
3360.000000	95.519565
3359.000000	95.506797
3358.000000	95.491957
3357.000000	95.474270
3356.000000	95.454874
3355.000000	95.436722
3354.000000	95.421737
3353.000000	95.409112
3352.000000	95.396766
3351.000000	95.382990
3350.000000	95.366590
3349.000000	95.347575
3348.000000	95.328332
3347.000000	95.312200
3346.000000	95.299845
3345.000000	95.288451
3344.000000	95.275273
3343.000000	95.260514
3342.000000	95.245883
3341.000000	95.231958
3340.000000	95.218071
3339.000000	95.203525
3338.000000	95.187973
3337.000000	95.171583
3336.000000	95.155362
3335.000000	95.140393
3334.000000	95.126422
3333.000000	95.112193
3332.000000	95.097270
3331.000000	95.082270
3330.000000	95.067481
3329.000000	95.052694
3328.000000	95.038141
3327.000000	95.023831
3326.000000	95.008118
3325.000000	94.989038
3324.000000	94.967358
3323.000000	94.946365
3322.000000	94.928417
3321.000000	94.913571
3320.000000	94.901156
3319.000000	94.890129
3318.000000	94.877916
3317.000000	94.861928
3316.000000	94.843251
3315.000000	94.826358
3314.000000	94.814040
3313.000000	94.804831
3312.000000	94.795980
3311.000000	94.786297
3310.000000	94.775202
3309.000000	94.761894
3308.000000	94.747446
3307.000000	94.735266
3306.000000	94.727144
3305.000000	94.720287
3304.000000	94.709936
3303.000000	94.693962
3302.000000	94.674174
3301.000000	94.654559
3300.000000	94.639237
3299.000000	94.630339
3298.000000	94.626196
3297.000000	94.622490
3296.000000	94.615952
3295.000000	94.606183
3294.000000	94.594066
3293.000000	94.580720
3292.000000	94.568465
3291.000000	94.560076
3290.000000	94.555718
3289.000000	94.552440
3288.000000	94.547956
3287.000000	94.543137
3286.000000	94.539785
3285.000000	94.538105
3284.000000	94.537470
3283.000000	94.537665
3282.000000	94.538143
3281.000000	94.538002
3280.000000	94.538333
3279.000000	94.542270
3278.000000	94.550868
3277.000000	94.560633
3276.000000	94.567353
3275.000000	94.571438
3274.000000	94.577108
3273.000000	94.587245
3272.000000	94.600642
3271.000000	94.613609
3270.000000	94.622844
3269.000000	94.627438
3268.000000	94.629651
3267.000000	94.633390
3266.000000	94.640944
3265.000000	94.651498
3264.000000	94.663229
3263.000000	94.675568
3262.000000	94.688745
3261.000000	94.702522
3260.000000	94.716653
3259.000000	94.731724
3258.000000	94.748553
3257.000000	94.767475
3256.000000	94.788619
3255.000000	94.811762
3254.000000	94.835254
3253.000000	94.856475
3252.000000	94.874177
3251.000000	94.889315
3250.000000	94.903041
3249.000000	94.915358
3248.000000	94.926534
3247.000000	94.937954
3246.000000	94.950281
3245.000000	94.961922
3244.000000	94.970872
3243.000000	94.977382
3242.000000	94.983646
3241.000000	94.991635
3240.000000	95.002226
3239.000000	95.015696
3238.000000	95.031961
3237.000000	95.050424
3236.000000	95.069910
3235.000000	95.088548
3234.000000	95.104075
3233.000000	95.115264
3232.000000	95.122872
3231.000000	95.128174
3230.000000	95.131058
3229.000000	95.131281
3228.000000	95.131273
3227.000000	95.135272
3226.000000	95.144957
3225.000000	95.157935
3224.000000	95.170982
3223.000000	95.183005
3222.000000	95.194357
3221.000000	95.205469
3220.000000	95.217116
3219.000000	95.229901
3218.000000	95.242190
3217.000000	95.250539
3216.000000	95.253675
3215.000000	95.254736
3214.000000	95.258021
3213.000000	95.264606
3212.000000	95.272425
3211.000000	95.279451
3210.000000	95.285442
3209.000000	95.291287
3208.000000	95.298097
3207.000000	95.306513
3206.000000	95.316137
3205.000000	95.325987
3204.000000	95.335816
3203.000000	95.346256
3202.000000	95.357403
3201.000000	95.368223
3200.000000	95.377764
3199.000000	95.386221
3198.000000	95.394534
3197.000000	95.403636
3196.000000	95.413893
3195.000000	95.424339
3194.000000	95.433011
3193.000000	95.439405
3192.000000	95.446254
3191.000000	95.457049
3190.000000	95.472094
3189.000000	95.488770
3188.000000	95.505203
3187.000000	95.521199
3186.000000	95.536022
3185.000000	95.548495
3184.000000	95.560036
3183.000000	95.574235
3182.000000	95.591960
3181.000000	95.609291
3180.000000	95.621986
3179.000000	95.629848
3178.000000	95.635652
3177.000000	95.641991
3176.000000	95.650963
3175.000000	95.664461
3174.000000	95.682146
3173.000000	95.700332
3172.000000	95.714946
3171.000000	95.725080
3170.000000	95.732447
3169.000000	95.738945
3168.000000	95.746340
3167.000000	95.756845
3166.000000	95.771654
3165.000000	95.789145
3164.000000	95.806183
3163.000000	95.821003
3162.000000	95.834094
3161.000000	95.847017
3160.000000	95.861316
3159.000000	95.877688
3158.000000	95.894960
3157.000000	95.910479
3156.000000	95.922426
3155.000000	95.931499
3154.000000	95.939900
3153.000000	95.949524
3152.000000	95.961249
3151.000000	95.974671
3150.000000	95.988000
3149.000000	95.999728
3148.000000	96.010977
3147.000000	96.024559
3146.000000	96.040752
3145.000000	96.055932
3144.000000	96.066798
3143.000000	96.074583
3142.000000	96.083301
3141.000000	96.094912
3140.000000	96.107726
3139.000000	96.118792
3138.000000	96.126168
3137.000000	96.129597
3136.000000	96.130431
3135.000000	96.131009
3134.000000	96.133188
3133.000000	96.137498
3132.000000	96.143679
3131.000000	96.151041
3130.000000	96.158086
3129.000000	96.163436
3128.000000	96.168094
3127.000000	96.175433
3126.000000	96.187553
3125.000000	96.202473
3124.000000	96.215941
3123.000000	96.225148
3122.000000	96.229855
3121.000000	96.231365
3120.000000	96.231887
3119.000000	96.234079
3118.000000	96.239229
3117.000000	96.245963
3116.000000	96.251681
3115.000000	96.255079
3114.000000	96.256411
3113.000000	96.255832
3112.000000	96.252820
3111.000000	96.247456
3110.000000	96.241561
3109.000000	96.238152
3108.000000	96.239274
3107.000000	96.243760
3106.000000	96.247314
3105.000000	96.245899
3104.000000	96.239393
3103.000000	96.231110
3102.000000	96.223767
3101.000000	96.217347
3100.000000	96.211327
3099.000000	96.207137
3098.000000	96.206709
3097.000000	96.209418
3096.000000	96.211915
3095.000000	96.211083
3094.000000	96.206549
3093.000000	96.200569
3092.000000	96.195800
3091.000000	96.192935
3090.000000	96.190193
3089.000000	96.185563
3088.000000	96.179364
3087.000000	96.173693
3086.000000	96.169413
3085.000000	96.165086
3084.000000	96.159347
3083.000000	96.152935
3082.000000	96.147686
3081.000000	96.144646
3080.000000	96.143907
3079.000000	96.145056
3078.000000	96.146730
3077.000000	96.146717
3076.000000	96.143818
3075.000000	96.139272
3074.000000	96.135596
3073.000000	96.134300
3072.000000	96.135179
3071.000000	96.137210
3070.000000	96.139556
3069.000000	96.141955
3068.000000	96.144533
3067.000000	96.147053
3066.000000	96.148509
3065.000000	96.148195
3064.000000	96.147072
3063.000000	96.147220
3062.000000	96.150003
3061.000000	96.155566
3060.000000	96.163614
3059.000000	96.173177
3058.000000	96.181848
3057.000000	96.187358
3056.000000	96.190584
3055.000000	96.195413
3054.000000	96.204673
3053.000000	96.217309
3052.000000	96.230033
3051.000000	96.240397
3050.000000	96.247791
3049.000000	96.253229
3048.000000	96.259085
3047.000000	96.267692
3046.000000	96.278980
3045.000000	96.290420
3044.000000	96.300180
3043.000000	96.309171
3042.000000	96.319035
3041.000000	96.329328
3040.000000	96.338248
3039.000000	96.345482
3038.000000	96.352901
3037.000000	96.362474
3036.000000	96.374419
3035.000000	96.387208
3034.000000	96.398582
3033.000000	96.406778
3032.000000	96.411510
3031.000000	96.414099
3030.000000	96.416657
3029.000000	96.421307
3028.000000	96.429739
3027.000000	96.442305
3026.000000	96.457120
3025.000000	96.470781
3024.000000	96.480463
3023.000000	96.485197
3022.000000	96.485691
3021.000000	96.484140
3020.000000	96.483920
3019.000000	96.487445
3018.000000	96.493668
3017.000000	96.498881
3016.000000	96.500781
3015.000000	96.500530
3014.000000	96.500083
3013.000000	96.498848
3012.000000	96.494188
3011.000000	96.484445
3010.000000	96.470378
3009.000000	96.454095
3008.000000	96.437690
3007.000000	96.422723
3006.000000	96.410207
3005.000000	96.400488
3004.000000	96.392660
3003.000000	96.383999
3002.000000	96.370993
3001.000000	96.352267
3000.000000	96.330219
2999.000000	96.308528
2998.000000	96.288055
2997.000000	96.266529
2996.000000	96.242073
2995.000000	96.215228
2994.000000	96.186988
2993.000000	96.156764
2992.000000	96.123322
2991.000000	96.086081
2990.000000	96.044365
2989.000000	95.996530
2988.000000	95.941540
2987.000000	95.880920
2986.000000	95.818019
2985.000000	95.755592
2984.000000	95.694474
2983.000000	95.633677
2982.000000	95.570734
2981.000000	95.502272
2980.000000	95.425865
2979.000000	95.341871
2978.000000	95.253484
2977.000000	95.164589
2976.000000	95.076855
2975.000000	94.988271
2974.000000	94.894390
2973.000000	94.791679
2972.000000	94.679862
2971.000000	94.561077
2970.000000	94.437897
2969.000000	94.312978
2968.000000	94.189729
2967.000000	94.071240
2966.000000	93.958305
2965.000000	93.849956
2964.000000	93.746309
2963.000000	93.650222
2962.000000	93.565790
2961.000000	93.496368
2960.000000	93.444028
2959.000000	93.409721
2958.000000	93.393759
2957.000000	93.396271
2956.000000	93.417495
2955.000000	93.456267
2954.000000	93.508447
2953.000000	93.567744
2952.000000	93.627988
2951.000000	93.684306
2950.000000	93.731839
2949.000000	93.765187
2948.000000	93.779292
2947.000000	93.770988
2946.000000	93.740169
2945.000000	93.690246
2944.000000	93.626809
2943.000000	93.553365
2942.000000	93.468584
2941.000000	93.368675
2940.000000	93.252915
2939.000000	93.125404
2938.000000	92.991725
2937.000000	92.856154
2936.000000	92.722115
2935.000000	92.593432
2934.000000	92.473506
2933.000000	92.364330
2932.000000	92.266862
2931.000000	92.181185
2930.000000	92.106038
2929.000000	92.039572
2928.000000	91.982053
2927.000000	91.936888
2926.000000	91.908029
2925.000000	91.896593
2924.000000	91.900168
2923.000000	91.915036
2922.000000	91.938793
2921.000000	91.971996
2920.000000	92.018053
2919.000000	92.080799
2918.000000	92.161851
2917.000000	92.260332
2916.000000	92.374746
2915.000000	92.503657
2914.000000	92.643837
2913.000000	92.789219
2912.000000	92.932770
2911.000000	93.069599
2910.000000	93.197949
2909.000000	93.318192
2908.000000	93.431689
2907.000000	93.540033
2906.000000	93.644709
2905.000000	93.747357
2904.000000	93.850272
2903.000000	93.955617
2902.000000	94.063634
2901.000000	94.172283
2900.000000	94.278919
2899.000000	94.382317
2898.000000	94.482608
2897.000000	94.580011
2896.000000	94.674087
2895.000000	94.763697
2894.000000	94.847426
2893.000000	94.924511
2892.000000	94.995415
2891.000000	95.061030
2890.000000	95.121114
2889.000000	95.174114
2888.000000	95.218408
2887.000000	95.252876
2886.000000	95.276537
2885.000000	95.288741
2884.000000	95.290015
2883.000000	95.281555
2882.000000	95.263498
2881.000000	95.234776
2880.000000	95.194984
2879.000000	95.145522
2878.000000	95.088460
2877.000000	95.025695
2876.000000	94.959965
2875.000000	94.895902
2874.000000	94.839364
2873.000000	94.795603
2872.000000	94.767957
2871.000000	94.756715
2870.000000	94.758077
2869.000000	94.764582
2868.000000	94.767727
2867.000000	94.761060
2866.000000	94.741778
2865.000000	94.710491
2864.000000	94.669284
2863.000000	94.619356
2862.000000	94.560387
2861.000000	94.493251
2860.000000	94.422930
2859.000000	94.357181
2858.000000	94.301704
2857.000000	94.257745
2856.000000	94.224809
2855.000000	94.203946
2854.000000	94.198090
2853.000000	94.210620
2852.000000	94.245367
2851.000000	94.307531
2850.000000	94.402434
2849.000000	94.532047
2848.000000	94.691913
2847.000000	94.870983
2846.000000	95.054821
2845.000000	95.231072
2844.000000	95.393167
2843.000000	95.539946
2842.000000	95.672198
2841.000000	95.790051
2840.000000	95.893605
2839.000000	95.984059
2838.000000	96.063310
2837.000000	96.132970
2836.000000	96.194131
2835.000000	96.247412
2834.000000	96.292966
2833.000000	96.331153
2832.000000	96.363534
2831.000000	96.392380
2830.000000	96.418995
2829.000000	96.443608
2828.000000	96.466900
2827.000000	96.490186
2826.000000	96.513583
2825.000000	96.535379
2824.000000	96.554207
2823.000000	96.570666
2822.000000	96.585904
2821.000000	96.599686
2820.000000	96.611132
2819.000000	96.620794
2818.000000	96.630717
2817.000000	96.642540
2816.000000	96.656339
2815.000000	96.671226
2814.000000	96.686596
2813.000000	96.702720
2812.000000	96.720168
2811.000000	96.738510
2810.000000	96.755952
2809.000000	96.771191
2808.000000	96.785508
2807.000000	96.801685
2806.000000	96.820258
2805.000000	96.837966
2804.000000	96.850770
2803.000000	96.857902
2802.000000	96.862261
2801.000000	96.867535
2800.000000	96.875370
2799.000000	96.884703
2798.000000	96.893150
2797.000000	96.899452
2796.000000	96.904974
2795.000000	96.912301
2794.000000	96.922137
2793.000000	96.932329
2792.000000	96.940423
2791.000000	96.946540
2790.000000	96.953311
2789.000000	96.963409
2788.000000	96.977392
2787.000000	96.993208
2786.000000	97.007415
2785.000000	97.017497
2784.000000	97.023538
2783.000000	97.027533
2782.000000	97.031305
2781.000000	97.035687
2780.000000	97.041251
2779.000000	97.048439
2778.000000	97.056706
2777.000000	97.064707
2776.000000	97.071729
2775.000000	97.078003
2774.000000	97.083493
2773.000000	97.087751
2772.000000	97.091413
2771.000000	97.096320
2770.000000	97.103194
2769.000000	97.110338
2768.000000	97.115648
2767.000000	97.119094
2766.000000	97.122311
2765.000000	97.126374
2764.000000	97.130922
2763.000000	97.135067
2762.000000	97.138444
2761.000000	97.141569
2760.000000	97.145458
2759.000000	97.150502
2758.000000	97.155571
2757.000000	97.158975
2756.000000	97.160586
2755.000000	97.162321
2754.000000	97.166187
2753.000000	97.172526
2752.000000	97.180287
2751.000000	97.188011
2750.000000	97.194131
2749.000000	97.197331
2748.000000	97.197472
2747.000000	97.195718
2746.000000	97.193510
2745.000000	97.192070
2744.000000	97.192837
2743.000000	97.197038
2742.000000	97.204080
2741.000000	97.211264
2740.000000	97.215828
2739.000000	97.216860
2738.000000	97.215277
2737.000000	97.213106
2736.000000	97.213120
2735.000000	97.217724
2734.000000	97.227007
2733.000000	97.238317
2732.000000	97.248307
2731.000000	97.254959
2730.000000	97.257934
2729.000000	97.258505
2728.000000	97.259593
2727.000000	97.264068
2726.000000	97.271752
2725.000000	97.279169
2724.000000	97.283425
2723.000000	97.285354
2722.000000	97.287796
2721.000000	97.291948
2720.000000	97.296856
2719.000000	97.301498
2718.000000	97.305665
2717.000000	97.309219
2716.000000	97.312052
2715.000000	97.314705
2714.000000	97.317749
2713.000000	97.320628
2712.000000	97.322286
2711.000000	97.323067
2710.000000	97.324853
2709.000000	97.328921
2708.000000	97.334332
2707.000000	97.338910
2706.000000	97.341483
2705.000000	97.342856
2704.000000	97.344601
2703.000000	97.347127
2702.000000	97.349359
2701.000000	97.350514
2700.000000	97.351542
2699.000000	97.353905
2698.000000	97.357386
2697.000000	97.360499
2696.000000	97.363015
2695.000000	97.366332
2694.000000	97.370664
2693.000000	97.373589
2692.000000	97.372729
2691.000000	97.368820
2690.000000	97.364730
2689.000000	97.362181
2688.000000	97.360863
2687.000000	97.360295
2686.000000	97.360948
2685.000000	97.363340
2684.000000	97.367031
2683.000000	97.370807
2682.000000	97.373338
2681.000000	97.373819
2680.000000	97.372741
2679.000000	97.372066
2678.000000	97.374003
2677.000000	97.379198
2676.000000	97.386062
2675.000000	97.391682
2674.000000	97.393563
2673.000000	97.391423
2672.000000	97.387852
2671.000000	97.386511
2670.000000	97.388894
2669.000000	97.393074
2668.000000	97.396058
2667.000000	97.396832
2666.000000	97.396546
2665.000000	97.396378
2664.000000	97.396330
2663.000000	97.396001
2662.000000	97.395478
2661.000000	97.394982
2660.000000	97.394083
2659.000000	97.391720
2658.000000	97.387217
2657.000000	97.381497
2656.000000	97.377310
2655.000000	97.377747
2654.000000	97.383995
2653.000000	97.394482
2652.000000	97.406057
2651.000000	97.415884
2650.000000	97.422543
2649.000000	97.426405
2648.000000	97.429486
2647.000000	97.434221
2646.000000	97.441499
2645.000000	97.449836
2644.000000	97.456709
2643.000000	97.460621
2642.000000	97.462031
2641.000000	97.462913
2640.000000	97.465709
2639.000000	97.472071
2638.000000	97.481933
2637.000000	97.493580
2636.000000	97.504482
2635.000000	97.512017
2634.000000	97.514305
2633.000000	97.511690
2632.000000	97.507534
2631.000000	97.506350
2630.000000	97.510454
2629.000000	97.518810
2628.000000	97.528940
2627.000000	97.538924
2626.000000	97.547529
2625.000000	97.553833
2624.000000	97.557655
2623.000000	97.559752
2622.000000	97.561163
2621.000000	97.562961
2620.000000	97.566529
2619.000000	97.572812
2618.000000	97.580876
2617.000000	97.588318
2616.000000	97.593570
2615.000000	97.596822
2614.000000	97.598722
2613.000000	97.599746
2612.000000	97.601137
2611.000000	97.604215
2610.000000	97.607486
2609.000000	97.606635
2608.000000	97.599484
2607.000000	97.590053
2606.000000	97.585564
2605.000000	97.589716
2604.000000	97.600135
2603.000000	97.611607
2602.000000	97.620094
2601.000000	97.623973
2600.000000	97.623817
2599.000000	97.622016
2598.000000	97.621701
2597.000000	97.624977
2596.000000	97.631941
2595.000000	97.641070
2594.000000	97.650092
2593.000000	97.656769
2592.000000	97.659899
2591.000000	97.660210
2590.000000	97.660032
2589.000000	97.661549
2588.000000	97.664907
2587.000000	97.668089
2586.000000	97.669089
2585.000000	97.668184
2584.000000	97.667370
2583.000000	97.667221
2582.000000	97.665490
2581.000000	97.660082
2580.000000	97.652673
2579.000000	97.647871
2578.000000	97.648810
2577.000000	97.654828
2576.000000	97.662996
2575.000000	97.670486
2574.000000	97.675638
2573.000000	97.678617
2572.000000	97.681614
2571.000000	97.687015
2570.000000	97.694938
2569.000000	97.703446
2568.000000	97.710918
2567.000000	97.716687
2566.000000	97.719677
2565.000000	97.718740
2564.000000	97.715030
2563.000000	97.712019
2562.000000	97.711828
2561.000000	97.712868
2560.000000	97.712273
2559.000000	97.710067
2558.000000	97.709866
2557.000000	97.715444
2556.000000	97.726383
2555.000000	97.737010
2554.000000	97.740732
2553.000000	97.736587
2552.000000	97.730412
2551.000000	97.728151
2550.000000	97.729368
2549.000000	97.729823
2548.000000	97.728533
2547.000000	97.728316
2546.000000	97.729834
2545.000000	97.730008
2544.000000	97.727741
2543.000000	97.726893
2542.000000	97.730795
2541.000000	97.736629
2540.000000	97.738105
2539.000000	97.732168
2538.000000	97.721038
2537.000000	97.709408
2536.000000	97.701520
2535.000000	97.699266
2534.000000	97.700660
2533.000000	97.701011
2532.000000	97.697059
2531.000000	97.689474
2530.000000	97.680546
2529.000000	97.671421
2528.000000	97.662800
2527.000000	97.656161
2526.000000	97.651872
2525.000000	97.647383
2524.000000	97.639750
2523.000000	97.629555
2522.000000	97.620661
2521.000000	97.616351
2520.000000	97.616936
2519.000000	97.620597
2518.000000	97.624994
2517.000000	97.628226
2516.000000	97.629465
2515.000000	97.629042
2514.000000	97.628004
2513.000000	97.627928
2512.000000	97.630774
2511.000000	97.637525
2510.000000	97.646742
2509.000000	97.655956
2508.000000	97.664708
2507.000000	97.674502
2506.000000	97.685345
2505.000000	97.694654
2504.000000	97.700994
2503.000000	97.707063
2502.000000	97.717115
2501.000000	97.732376
2500.000000	97.750299
2499.000000	97.767241
2498.000000	97.780701
2497.000000	97.789985
2496.000000	97.795857
2495.000000	97.799157
2494.000000	97.799402
2493.000000	97.796363
2492.000000	97.793390
2491.000000	97.796312
2490.000000	97.807211
2489.000000	97.821247
2488.000000	97.832390
2487.000000	97.840667
2486.000000	97.850570
2485.000000	97.863296
2484.000000	97.874164
2483.000000	97.878563
2482.000000	97.877523
2481.000000	97.875822
2480.000000	97.876657
2479.000000	97.879808
2478.000000	97.883602
2477.000000	97.886580
2476.000000	97.887572
2475.000000	97.886302
2474.000000	97.884483
2473.000000	97.884890
2472.000000	97.888309
2471.000000	97.892264
2470.000000	97.894004
2469.000000	97.894337
2468.000000	97.896974
2467.000000	97.903847
2466.000000	97.912313
2465.000000	97.917500
2464.000000	97.916678
2463.000000	97.911031
2462.000000	97.904461
2461.000000	97.901356
2460.000000	97.903840
2459.000000	97.909787
2458.000000	97.914174
2457.000000	97.913437
2456.000000	97.908129
2455.000000	97.901378
2454.000000	97.896558
2453.000000	97.897384
2452.000000	97.907112
2451.000000	97.924488
2450.000000	97.941781
2449.000000	97.950296
2448.000000	97.948115
2447.000000	97.940619
2446.000000	97.934051
2445.000000	97.931040
2444.000000	97.931484
2443.000000	97.934046
2442.000000	97.936340
2441.000000	97.936509
2440.000000	97.935755
2439.000000	97.937143
2438.000000	97.941528
2437.000000	97.946714
2436.000000	97.950921
2435.000000	97.954363
2434.000000	97.956837
2433.000000	97.956853
2432.000000	97.954750
2431.000000	97.954241
2430.000000	97.958654
2429.000000	97.966900
2428.000000	97.974630
2427.000000	97.978488
2426.000000	97.978230
2425.000000	97.975769
2424.000000	97.973254
2423.000000	97.971289
2422.000000	97.968345
2421.000000	97.962738
2420.000000	97.955392
2419.000000	97.949537
2418.000000	97.947458
2417.000000	97.948733
2416.000000	97.951701
2415.000000	97.955070
2414.000000	97.957886
2413.000000	97.959870
2412.000000	97.962510
2411.000000	97.967965
2410.000000	97.975862
2409.000000	97.982566
2408.000000	97.984946
2407.000000	97.983860
2406.000000	97.982725
2405.000000	97.983063
2404.000000	97.982533
2403.000000	97.977573
2402.000000	97.967923
2401.000000	97.958281
2400.000000	97.954515
2399.000000	97.957599
2398.000000	97.962516
2397.000000	97.964335
2396.000000	97.963893
2395.000000	97.965657
2394.000000	97.971235
2393.000000	97.977788
2392.000000	97.982284
2391.000000	97.984419
2390.000000	97.985183
2389.000000	97.985419
2388.000000	97.986821
2387.000000	97.991321
2386.000000	97.998598
2385.000000	98.005629
2384.000000	98.009965
2383.000000	98.012698
2382.000000	98.016771
2381.000000	98.024220
2380.000000	98.034286
2379.000000	98.042743
2378.000000	98.043776
2377.000000	98.034934
2376.000000	98.021006
2375.000000	98.010025
2374.000000	98.005487
2373.000000	98.005224
2372.000000	98.008436
2371.000000	98.018550
2370.000000	98.036466
2369.000000	98.054699
2368.000000	98.060939
2367.000000	98.049017
2366.000000	98.025034
2365.000000	98.002870
2364.000000	97.993539
2363.000000	97.996683
2362.000000	98.003382
2361.000000	98.006239
2360.000000	98.003905
2359.000000	97.999236
2358.000000	97.995848
2357.000000	97.995228
2356.000000	97.994871
2355.000000	97.990114
2354.000000	97.984545
2353.000000	97.984686
2352.000000	97.989406
2351.000000	97.991611
2350.000000	97.989151
2349.000000	97.984786
2348.000000	97.981164
2347.000000	97.979503
2346.000000	97.977747
2345.000000	97.971177
2344.000000	97.960733
2343.000000	97.953604
2342.000000	97.955017
2341.000000	97.963046
2340.000000	97.970189
2339.000000	97.969793
2338.000000	97.962255
2337.000000	97.954184
2336.000000	97.950595
2335.000000	97.952983
2334.000000	97.961341
2333.000000	97.974751
2332.000000	97.985706
2331.000000	97.986468
2330.000000	97.976000
2329.000000	97.962207
2328.000000	97.948629
2327.000000	97.932125
2326.000000	97.908981
2325.000000	97.884412
2324.000000	97.869524
2323.000000	97.871508
2322.000000	97.885417
2321.000000	97.899860
2320.000000	97.907849
2319.000000	97.912279
2318.000000	97.917407
2317.000000	97.924409
2316.000000	97.931478
2315.000000	97.939810
2314.000000	97.950990
2313.000000	97.965587
2312.000000	97.980745
2311.000000	97.993801
2310.000000	98.002932
2309.000000	98.009793
2308.000000	98.018399
2307.000000	98.031977
2306.000000	98.046757
2305.000000	98.053954
2304.000000	98.048078
2303.000000	98.033258
2302.000000	98.017671
2301.000000	98.005740
2300.000000	97.996267
2299.000000	97.988278
2298.000000	97.982510
2297.000000	97.980211
2296.000000	97.980273
2295.000000	97.980887
2294.000000	97.979896
2293.000000	97.975622
2292.000000	97.967634
2291.000000	97.958592
2290.000000	97.952714
2289.000000	97.951688
2288.000000	97.952739
2287.000000	97.952029
2286.000000	97.949895
2285.000000	97.951058
2284.000000	97.959764
2283.000000	97.975038
2282.000000	97.992234
2281.000000	98.007572
2280.000000	98.019559
2279.000000	98.026287
2278.000000	98.025519
2277.000000	98.019439
2276.000000	98.015656
2275.000000	98.019973
2274.000000	98.029738
2273.000000	98.037731
2272.000000	98.041123
2271.000000	98.043682
2270.000000	98.050165
2269.000000	98.061721
2268.000000	98.075381
2267.000000	98.084946
2266.000000	98.083875
2265.000000	98.071651
2264.000000	98.056475
2263.000000	98.047763
2262.000000	98.046703
2261.000000	98.047443
2260.000000	98.045636
2259.000000	98.041565
2258.000000	98.037252
2257.000000	98.036403
2256.000000	98.045933
2255.000000	98.069837
2254.000000	98.100384
2253.000000	98.122119
2252.000000	98.127236
2251.000000	98.122391
2250.000000	98.119073
2249.000000	98.122424
2248.000000	98.129489
2247.000000	98.132852
2246.000000	98.124280
2245.000000	98.101744
2244.000000	98.075443
2243.000000	98.061487
2242.000000	98.066716
2241.000000	98.083358
2240.000000	98.098938
2239.000000	98.106348
2238.000000	98.103760
2237.000000	98.093195
2236.000000	98.083007
2235.000000	98.085225
2234.000000	98.104941
2233.000000	98.135820
2232.000000	98.168159
2231.000000	98.195977
2230.000000	98.213283
2229.000000	98.211664
2228.000000	98.189570
2227.000000	98.160358
2226.000000	98.144510
2225.000000	98.154071
2224.000000	98.185707
2223.000000	98.224769
2222.000000	98.253134
2221.000000	98.258588
2220.000000	98.243513
2219.000000	98.222929
2218.000000	98.210348
2217.000000	98.207206
2216.000000	98.207143
2215.000000	98.206156
2214.000000	98.205269
2213.000000	98.207056
2212.000000	98.214304
2211.000000	98.229680
2210.000000	98.252155
2209.000000	98.274265
2208.000000	98.286555
2207.000000	98.284753
2206.000000	98.271107
2205.000000	98.250237
2204.000000	98.226302
2203.000000	98.204190
2202.000000	98.192166
2201.000000	98.200153
2200.000000	98.230517
2199.000000	98.269584
2198.000000	98.294019
2197.000000	98.291441
2196.000000	98.273139
2195.000000	98.261002
2194.000000	98.264827
2193.000000	98.278308
2192.000000	98.292874
2191.000000	98.305421
2190.000000	98.312887
2189.000000	98.311734
2188.000000	98.306141
2187.000000	98.306539
2186.000000	98.315116
2185.000000	98.322445
2184.000000	98.325605
2183.000000	98.340602
2182.000000	98.383365
2181.000000	98.440216
2180.000000	98.471493
2179.000000	98.451305
2178.000000	98.396797
2177.000000	98.353278
2176.000000	98.351694
2175.000000	98.382555
2174.000000	98.409820
2173.000000	98.404859
2172.000000	98.363538
2171.000000	98.299183
2170.000000	98.232257
2169.000000	98.185958
2168.000000	98.175782
2167.000000	98.196142
2166.000000	98.227284
2165.000000	98.259940
2164.000000	98.302980
2163.000000	98.359467
2162.000000	98.410252
2161.000000	98.437721
2160.000000	98.456143
2159.000000	98.495146
2158.000000	98.552537
2157.000000	98.592273
2156.000000	98.592005
2155.000000	98.565702
2154.000000	98.540629
2153.000000	98.531321
2152.000000	98.532319
2151.000000	98.524177
2150.000000	98.490113
2149.000000	98.436151
2148.000000	98.391706
2147.000000	98.381226
2146.000000	98.397810
2145.000000	98.411437
2144.000000	98.399981
2143.000000	98.364815
2142.000000	98.321445
2141.000000	98.286729
2140.000000	98.272401
2139.000000	98.279772
2138.000000	98.298089
2137.000000	98.313272
2136.000000	98.319601
2135.000000	98.320488
2134.000000	98.320230
2133.000000	98.320152
2132.000000	98.319808
2131.000000	98.316193
2130.000000	98.304155
2129.000000	98.282869
2128.000000	98.260094
2127.000000	98.245215
2126.000000	98.240185
2125.000000	98.241024
2124.000000	98.244488
2123.000000	98.247388
2122.000000	98.243035
2121.000000	98.226349
2120.000000	98.202107
2119.000000	98.181291
2118.000000	98.169106
2117.000000	98.161847
2116.000000	98.154604
2115.000000	98.146392
2114.000000	98.137787
2113.000000	98.129370
2112.000000	98.122845
2111.000000	98.118770
2110.000000	98.113184
2109.000000	98.101746
2108.000000	98.087435
2107.000000	98.079225
2106.000000	98.082878
2105.000000	98.097196
2104.000000	98.118230
2103.000000	98.141673
2102.000000	98.161029
2101.000000	98.169524
2100.000000	98.166471
2099.000000	98.158688
2098.000000	98.156160
2097.000000	98.167133
2096.000000	98.193137
2095.000000	98.223466
2094.000000	98.239501
2093.000000	98.232785
2092.000000	98.216286
2091.000000	98.209455
2090.000000	98.214995
2089.000000	98.218383
2088.000000	98.208757
2087.000000	98.191373
2086.000000	98.178035
2085.000000	98.174455
2084.000000	98.179093
2083.000000	98.187162
2082.000000	98.192880
2081.000000	98.192565
2080.000000	98.187835
2079.000000	98.182138
2078.000000	98.175286
2077.000000	98.166022
2076.000000	98.158431
2075.000000	98.159064
2074.000000	98.168934
2073.000000	98.186085
2072.000000	98.212241
2071.000000	98.247956
2070.000000	98.282366
2069.000000	98.298680
2068.000000	98.292775
2067.000000	98.277763
2066.000000	98.269299
2065.000000	98.273141
2064.000000	98.284856
2063.000000	98.293618
2062.000000	98.288470
2061.000000	98.270046
2060.000000	98.254301
2059.000000	98.254197
2058.000000	98.262142
2057.000000	98.263836
2056.000000	98.263634
2055.000000	98.277620
2054.000000	98.302643
2053.000000	98.315133
2052.000000	98.305154
2051.000000	98.290982
2050.000000	98.292910
2049.000000	98.310087
2048.000000	98.333856
2047.000000	98.368245
2046.000000	98.417738
2045.000000	98.465585
2044.000000	98.483744
2043.000000	98.459119
2042.000000	98.400434
2041.000000	98.330658
2040.000000	98.279990
2039.000000	98.272170
2038.000000	98.308294
2037.000000	98.369740
2036.000000	98.438727
2035.000000	98.505271
2034.000000	98.551081
2033.000000	98.550787
2032.000000	98.506194
2031.000000	98.457000
2030.000000	98.438081
2029.000000	98.443474
2028.000000	98.445825
2027.000000	98.439885
2026.000000	98.447559
2025.000000	98.487295
2024.000000	98.550800
2023.000000	98.609619
2022.000000	98.637862
2021.000000	98.632400
2020.000000	98.616992
2019.000000	98.618919
2018.000000	98.638016
2017.000000	98.645747
2016.000000	98.618901
2015.000000	98.565050
2014.000000	98.511311
2013.000000	98.482621
2012.000000	98.491244
2011.000000	98.532732
2010.000000	98.587224
2009.000000	98.631711
2008.000000	98.653920
2007.000000	98.650683
2006.000000	98.617377
2005.000000	98.556199
2004.000000	98.488291
2003.000000	98.438985
2002.000000	98.413194
2001.000000	98.395266
2000.000000	98.374377
1999.000000	98.355482
1998.000000	98.349723
1997.000000	98.365334
1996.000000	98.405137
1995.000000	98.461571
1994.000000	98.513993
1993.000000	98.540835
1992.000000	98.538194
1991.000000	98.518900
1990.000000	98.493654
1989.000000	98.466453
1988.000000	98.443669
1987.000000	98.431244
1986.000000	98.426430
1985.000000	98.426878
1984.000000	98.440919
1983.000000	98.469337
1982.000000	98.485074
1981.000000	98.457144
1980.000000	98.399956
1979.000000	98.368450
1978.000000	98.397907
1977.000000	98.467440
1976.000000	98.532061
1975.000000	98.567581
1974.000000	98.572011
1973.000000	98.555380
1972.000000	98.541262
1971.000000	98.549526
1970.000000	98.568617
1969.000000	98.568211
1968.000000	98.545658
1967.000000	98.535663
1966.000000	98.561707
1965.000000	98.604625
1964.000000	98.633225
1963.000000	98.639792
1962.000000	98.633233
1961.000000	98.620985
1960.000000	98.608954
1959.000000	98.602389
1958.000000	98.597499
1957.000000	98.584466
1956.000000	98.563778
1955.000000	98.545791
1954.000000	98.531547
1953.000000	98.512209
1952.000000	98.489166
1951.000000	98.480876
1950.000000	98.497979
1949.000000	98.526678
1948.000000	98.548622
1947.000000	98.561318
1946.000000	98.568600
1945.000000	98.565581
1944.000000	98.546573
1943.000000	98.520376
1942.000000	98.504823
1941.000000	98.509765
1940.000000	98.532621
1939.000000	98.563990
1938.000000	98.589431
1937.000000	98.593956
1936.000000	98.574860
1935.000000	98.544732
1934.000000	98.516926
1933.000000	98.495516
1932.000000	98.478222
1931.000000	98.465204
1930.000000	98.454565
1929.000000	98.440385
1928.000000	98.426783
1927.000000	98.426800
1926.000000	98.449386
1925.000000	98.483405
1924.000000	98.510987
1923.000000	98.527887
1922.000000	98.539549
1921.000000	98.545830
1920.000000	98.540255
1919.000000	98.522117
1918.000000	98.501922
1917.000000	98.488703
1916.000000	98.482222
1915.000000	98.476818
1914.000000	98.469206
1913.000000	98.462606
1912.000000	98.463251
1911.000000	98.474416
1910.000000	98.489509
1909.000000	98.496003
1908.000000	98.490513
1907.000000	98.479021
1906.000000	98.470781
1905.000000	98.467334
1904.000000	98.468191
1903.000000	98.476890
1902.000000	98.491203
1901.000000	98.500905
1900.000000	98.500998
1899.000000	98.495736
1898.000000	98.491933
1897.000000	98.489703
1896.000000	98.488977
1895.000000	98.497507
1894.000000	98.519983
1893.000000	98.546562
1892.000000	98.561024
1891.000000	98.556654
1890.000000	98.539672
1889.000000	98.520801
1888.000000	98.507842
1887.000000	98.503805
1886.000000	98.507349
1885.000000	98.515385
1884.000000	98.525304
1883.000000	98.535238
1882.000000	98.539948
1881.000000	98.534334
1880.000000	98.523024
1879.000000	98.516172
1878.000000	98.518730
1877.000000	98.525173
1876.000000	98.525472
1875.000000	98.519454
1874.000000	98.517085
1873.000000	98.524974
1872.000000	98.541140
1871.000000	98.561930
1870.000000	98.587620
1869.000000	98.615845
1868.000000	98.634051
1867.000000	98.630638
1866.000000	98.605765
1865.000000	98.568361
1864.000000	98.531671
1863.000000	98.507286
1862.000000	98.498290
1861.000000	98.500215
1860.000000	98.508814
1859.000000	98.522223
1858.000000	98.536889
1857.000000	98.546894
1856.000000	98.549204
1855.000000	98.545863
1854.000000	98.540369
1853.000000	98.533730
1852.000000	98.532016
1851.000000	98.535102
1850.000000	98.539988
1849.000000	98.551171
1848.000000	98.576428
1847.000000	98.611091
1846.000000	98.634877
1845.000000	98.634956
1844.000000	98.623625
1843.000000	98.621327
1842.000000	98.624388
1841.000000	98.613783
1840.000000	98.588406
1839.000000	98.565949
1838.000000	98.559967
1837.000000	98.560382
1836.000000	98.555492
1835.000000	98.554419
1834.000000	98.569436
1833.000000	98.593024
1832.000000	98.607321
1831.000000	98.604289
1830.000000	98.600034
1829.000000	98.610359
1828.000000	98.625173
1827.000000	98.624935
1826.000000	98.607510
1825.000000	98.590745
1824.000000	98.585980
1823.000000	98.585195
1822.000000	98.577185
1821.000000	98.564603
1820.000000	98.558177
1819.000000	98.560064
1818.000000	98.564548
1817.000000	98.565168
1816.000000	98.564909
1815.000000	98.571854
1814.000000	98.582716
1813.000000	98.587803
1812.000000	98.579703
1811.000000	98.564175
1810.000000	98.551996
1809.000000	98.540327
1808.000000	98.520461
1807.000000	98.492632
1806.000000	98.464425
1805.000000	98.440904
1804.000000	98.420954
1803.000000	98.401587
1802.000000	98.375490
1801.000000	98.342769
1800.000000	98.307491
1799.000000	98.276867
1798.000000	98.257351
1797.000000	98.251669
1796.000000	98.259135
1795.000000	98.274476
1794.000000	98.289577
1793.000000	98.309322
1792.000000	98.343511
1791.000000	98.388715
1790.000000	98.429543
1789.000000	98.455205
1788.000000	98.467170
1787.000000	98.475212
1786.000000	98.487682
1785.000000	98.505810
1784.000000	98.527590
1783.000000	98.550736
1782.000000	98.562472
1781.000000	98.563627
1780.000000	98.562965
1779.000000	98.567743
1778.000000	98.578406
1777.000000	98.593940
1776.000000	98.619440
1775.000000	98.646536
1774.000000	98.653256
1773.000000	98.635283
1772.000000	98.617005
1771.000000	98.611583
1770.000000	98.597175
1769.000000	98.544488
1768.000000	98.459441
1767.000000	98.385659
1766.000000	98.347157
1765.000000	98.320259
1764.000000	98.264671
1763.000000	98.166147
1762.000000	98.037694
1761.000000	97.902778
1760.000000	97.761661
1759.000000	97.591104
1758.000000	97.352338
1757.000000	97.031811
1756.000000	96.681856
1755.000000	96.364639
1754.000000	96.069964
1753.000000	95.732772
1752.000000	95.311657
1751.000000	94.834808
1750.000000	94.366637
1749.000000	93.920354
1748.000000	93.493831
1747.000000	93.115634
1746.000000	92.797426
1745.000000	92.522389
1744.000000	92.281558
1743.000000	92.093803
1742.000000	91.965227
1741.000000	91.873231
1740.000000	91.820673
1739.000000	91.853567
1738.000000	91.969618
1737.000000	92.106984
1736.000000	92.235013
1735.000000	92.417412
1734.000000	92.742169
1733.000000	93.135742
1732.000000	93.478418
1731.000000	93.772689
1730.000000	94.063531
1729.000000	94.368453
1728.000000	94.681901
1727.000000	94.993136
1726.000000	95.293799
1725.000000	95.585082
1724.000000	95.866766
1723.000000	96.141160
1722.000000	96.400422
1721.000000	96.625380
1720.000000	96.812028
1719.000000	96.987120
1718.000000	97.185101
1717.000000	97.376653
1716.000000	97.501604
1715.000000	97.558662
1714.000000	97.574337
1713.000000	97.565608
1712.000000	97.548245
1711.000000	97.537758
1710.000000	97.536898
1709.000000	97.539563
1708.000000	97.539131
1707.000000	97.520513
1706.000000	97.478214
1705.000000	97.433197
1704.000000	97.415981
1703.000000	97.407601
1702.000000	97.337883
1701.000000	97.167933
1700.000000	96.992754
1699.000000	96.931366
1698.000000	96.903067
1697.000000	96.762867
1696.000000	96.502182
1695.000000	96.260874
1694.000000	96.122801
1693.000000	96.026137
1692.000000	95.907162
1691.000000	95.770509
1690.000000	95.644573
1689.000000	95.546192
1688.000000	95.482599
1687.000000	95.431391
1686.000000	95.344102
1685.000000	95.169176
1684.000000	94.944713
1683.000000	94.782696
1682.000000	94.665862
1681.000000	94.516206
1680.000000	94.335698
1679.000000	94.177422
1678.000000	94.051901
1677.000000	93.911737
1676.000000	93.724144
1675.000000	93.536059
1674.000000	93.407898
1673.000000	93.322760
1672.000000	93.217625
1671.000000	93.063897
1670.000000	92.866149
1669.000000	92.646653
1668.000000	92.444397
1667.000000	92.283808
1666.000000	92.150166
1665.000000	92.006351
1664.000000	91.824101
1663.000000	91.619372
1662.000000	91.425905
1661.000000	91.254138
1660.000000	91.091235
1659.000000	90.935673
1658.000000	90.809958
1657.000000	90.732404
1656.000000	90.682852
1655.000000	90.598889
1654.000000	90.421719
1653.000000	90.177422
1652.000000	90.018720
1651.000000	89.987374
1650.000000	89.986244
1649.000000	89.947758
1648.000000	89.871993
1647.000000	89.798354
1646.000000	89.763338
1645.000000	89.752354
1644.000000	89.743692
1643.000000	89.736714
1642.000000	89.733398
1641.000000	89.744623
1640.000000	89.785137
1639.000000	89.850954
1638.000000	89.919957
1637.000000	89.967033
1636.000000	90.000407
1635.000000	90.038332
1634.000000	90.084672
1633.000000	90.125985
1632.000000	90.156767
1631.000000	90.193019
1630.000000	90.252409
1629.000000	90.342225
1628.000000	90.460581
1627.000000	90.597225
1626.000000	90.731709
1625.000000	90.855140
1624.000000	90.980333
1623.000000	91.128415
1622.000000	91.291362
1621.000000	91.446497
1620.000000	91.584528
1619.000000	91.705357
1618.000000	91.824021
1617.000000	91.970995
1616.000000	92.154783
1615.000000	92.334083
1614.000000	92.474137
1613.000000	92.579673
1612.000000	92.680677
1611.000000	92.800851
1610.000000	92.932968
1609.000000	93.060631
1608.000000	93.181944
1607.000000	93.300528
1606.000000	93.406406
1605.000000	93.496724
1604.000000	93.580157
1603.000000	93.658300
1602.000000	93.724533
1601.000000	93.777197
1600.000000	93.824637
1599.000000	93.872284
1598.000000	93.917460
1597.000000	93.959255
1596.000000	94.000494
1595.000000	94.039389
1594.000000	94.067499
1593.000000	94.082516
1592.000000	94.091523
1591.000000	94.098775
1590.000000	94.099864
1589.000000	94.092294
1588.000000	94.079955
1587.000000	94.064251
1586.000000	94.041285
1585.000000	94.009275
1584.000000	93.977287
1583.000000	93.941894
1582.000000	93.896593
1581.000000	93.854532
1580.000000	93.835965
1579.000000	93.829837
1578.000000	93.801488
1577.000000	93.732293
1576.000000	93.648301
1575.000000	93.592541
1574.000000	93.563851
1573.000000	93.535981
1572.000000	93.491258
1571.000000	93.424554
1570.000000	93.340726
1569.000000	93.255777
1568.000000	93.187706
1567.000000	93.118621
1566.000000	93.023339
1565.000000	92.909202
1564.000000	92.822990
1563.000000	92.787569
1562.000000	92.776391
1561.000000	92.739327
1560.000000	92.632699
1559.000000	92.439561
1558.000000	92.238894
1557.000000	92.088810
1556.000000	91.944285
1555.000000	91.768619
1554.000000	91.579056
1553.000000	91.418118
1552.000000	91.288925
1551.000000	91.157328
1550.000000	91.014134
1549.000000	90.878201
1548.000000	90.770562
1547.000000	90.683451
1546.000000	90.602871
1545.000000	90.535280
1544.000000	90.496905
1543.000000	90.478381
1542.000000	90.448188
1541.000000	90.371921
1540.000000	90.257696
1539.000000	90.159260
1538.000000	90.109166
1537.000000	90.091483
1536.000000	90.074957
1535.000000	90.051512
1534.000000	90.035229
1533.000000	90.043537
1532.000000	90.061216
1531.000000	90.069534
1530.000000	90.072182
1529.000000	90.079139
1528.000000	90.098902
1527.000000	90.135328
1526.000000	90.183270
1525.000000	90.235157
1524.000000	90.277845
1523.000000	90.294807
1522.000000	90.284799
1521.000000	90.268221
1520.000000	90.265068
1519.000000	90.263595
1518.000000	90.238004
1517.000000	90.191484
1516.000000	90.155016
1515.000000	90.146393
1514.000000	90.150380
1513.000000	90.160410
1512.000000	90.194467
1511.000000	90.274754
1510.000000	90.388529
1509.000000	90.500090
1508.000000	90.583243
1507.000000	90.635538
1506.000000	90.636232
1505.000000	90.597804
1504.000000	90.568901
1503.000000	90.553508
1502.000000	90.544454
1501.000000	90.543681
1500.000000	90.558123
1499.000000	90.584002
1498.000000	90.600615
1497.000000	90.586107
1496.000000	90.548588
1495.000000	90.526102
1494.000000	90.526267
1493.000000	90.526619
1492.000000	90.514782
1491.000000	90.501911
1490.000000	90.490178
1489.000000	90.451734
1488.000000	90.368623
1487.000000	90.261888
1486.000000	90.151811
1485.000000	90.037548
1484.000000	89.922960
1483.000000	89.804625
1482.000000	89.675915
1481.000000	89.535261
1480.000000	89.394027
1479.000000	89.257727
1478.000000	89.114857
1477.000000	88.957087
1476.000000	88.795313
1475.000000	88.637684
1474.000000	88.442813
1473.000000	88.162599
1472.000000	87.827028
1471.000000	87.520926
1470.000000	87.265488
1469.000000	87.036211
1468.000000	86.824384
1467.000000	86.635329
1466.000000	86.457044
1465.000000	86.277963
1464.000000	86.116933
1463.000000	85.993143
1462.000000	85.900075
1461.000000	85.820886
1460.000000	85.748710
1459.000000	85.661509
1458.000000	85.505056
1457.000000	85.253021
1456.000000	85.007407
1455.000000	84.847983
1454.000000	84.726094
1453.000000	84.597871
1452.000000	84.475722
1451.000000	84.383105
1450.000000	84.309014
1449.000000	84.226298
1448.000000	84.134330
1447.000000	84.054607
1446.000000	83.980923
1445.000000	83.902063
1444.000000	83.818106
1443.000000	83.731666
1442.000000	83.642670
1441.000000	83.554543
1440.000000	83.475001
1439.000000	83.392601
1438.000000	83.277246
1437.000000	83.114248
1436.000000	82.953503
1435.000000	82.847898
1434.000000	82.777315
1433.000000	82.705507
1432.000000	82.631748
1431.000000	82.563996
1430.000000	82.484359
1429.000000	82.368932
1428.000000	82.230664
1427.000000	82.101145
1426.000000	81.981631
1425.000000	81.872828
1424.000000	81.800118
1423.000000	81.776398
1422.000000	81.769227
1421.000000	81.740185
1420.000000	81.693600
1419.000000	81.661800
1418.000000	81.647233
1417.000000	81.626883
1416.000000	81.605938
1415.000000	81.604651
1414.000000	81.628621
1413.000000	81.675972
1412.000000	81.752111
1411.000000	81.859984
1410.000000	81.987439
1409.000000	82.121261
1408.000000	82.263140
1407.000000	82.419685
1406.000000	82.580827
1405.000000	82.736986
1404.000000	82.889895
1403.000000	83.034372
1402.000000	83.156707
1401.000000	83.256258
1400.000000	83.355514
1399.000000	83.471595
1398.000000	83.589869
1397.000000	83.690923
1396.000000	83.781975
1395.000000	83.878230
1394.000000	83.974176
1393.000000	84.065481
1392.000000	84.163365
1391.000000	84.275529
1390.000000	84.398549
1389.000000	84.532601
1388.000000	84.686085
1387.000000	84.855617
1386.000000	85.015110
1385.000000	85.150836
1384.000000	85.276294
1383.000000	85.406186
1382.000000	85.544057
1381.000000	85.689717
1380.000000	85.849730
1379.000000	86.027861
1378.000000	86.217694
1377.000000	86.414863
1376.000000	86.625720
1375.000000	86.851555
1374.000000	87.071701
1373.000000	87.263044
1372.000000	87.424383
1371.000000	87.567358
1370.000000	87.699335
1369.000000	87.830140
1368.000000	87.967945
1367.000000	88.107812
1366.000000	88.240349
1365.000000	88.367867
1364.000000	88.498515
1363.000000	88.626239
1362.000000	88.732178
1361.000000	88.811594
1360.000000	88.877128
1359.000000	88.936581
1358.000000	88.990265
1357.000000	89.044151
1356.000000	89.106623
1355.000000	89.176022
1354.000000	89.245269
1353.000000	89.315241
1352.000000	89.389214
1351.000000	89.463126
1350.000000	89.527273
1349.000000	89.581887
1348.000000	89.630620
1347.000000	89.667454
1346.000000	89.683714
1345.000000	89.683775
1344.000000	89.679767
1343.000000	89.674334
1342.000000	89.660965
1341.000000	89.636260
1340.000000	89.599675
1339.000000	89.546389
1338.000000	89.476480
1337.000000	89.407056
1336.000000	89.359145
1335.000000	89.339720
1334.000000	89.345332
1333.000000	89.375777
1332.000000	89.432371
1331.000000	89.507851
1330.000000	89.589892
1329.000000	89.673533
1328.000000	89.759701
1327.000000	89.845675
1326.000000	89.926783
1325.000000	90.005098
1324.000000	90.083743
1323.000000	90.158083
1322.000000	90.223463
1321.000000	90.285454
1320.000000	90.351930
1319.000000	90.420651
1318.000000	90.486071
1317.000000	90.552005
1316.000000	90.625159
1315.000000	90.703070
1314.000000	90.780083
1313.000000	90.858058
1312.000000	90.939752
1311.000000	91.019653
1310.000000	91.092754
1309.000000	91.164905
1308.000000	91.242528
1307.000000	91.321160
1306.000000	91.393980
1305.000000	91.465318
1304.000000	91.542473
1303.000000	91.623030
1302.000000	91.701754
1301.000000	91.781761
1300.000000	91.866918
1299.000000	91.951021
1298.000000	92.026718
1297.000000	92.096676
1296.000000	92.165191
1295.000000	92.226637
1294.000000	92.274565
1293.000000	92.312899
1292.000000	92.346977
1291.000000	92.373170
1290.000000	92.387857
1289.000000	92.397505
1288.000000	92.408354
1287.000000	92.416200
1286.000000	92.417732
1285.000000	92.421190
1284.000000	92.433736
1283.000000	92.448926
1282.000000	92.458051
1281.000000	92.463617
1280.000000	92.469146
1279.000000	92.466017
1278.000000	92.444278
1277.000000	92.406878
1276.000000	92.361098
1275.000000	92.303533
1274.000000	92.226761
1273.000000	92.132393
1272.000000	92.025336
1271.000000	91.903334
1270.000000	91.762314
1269.000000	91.605544
1268.000000	91.437796
1267.000000	91.257741
1266.000000	91.066279
1265.000000	90.873011
1264.000000	90.685455
1263.000000	90.500109
1262.000000	90.313317
1261.000000	90.132333
1260.000000	89.965350
1259.000000	89.808832
1258.000000	89.656412
1257.000000	89.514723
1256.000000	89.398395
1255.000000	89.315094
1254.000000	89.263076
1253.000000	89.236550
1252.000000	89.225563
1251.000000	89.214751
1250.000000	89.192934
1249.000000	89.160981
1248.000000	89.123709
1247.000000	89.080511
1246.000000	89.031176
1245.000000	88.983123
1244.000000	88.943595
1243.000000	88.910715
1242.000000	88.881325
1241.000000	88.861233
1240.000000	88.858907
1239.000000	88.875621
1238.000000	88.909642
1237.000000	88.964894
1236.000000	89.044823
1235.000000	89.143284
1234.000000	89.251226
1233.000000	89.366413
1232.000000	89.489930
1231.000000	89.620098
1230.000000	89.759516
1229.000000	89.920843
1228.000000	90.113189
1227.000000	90.330186
1226.000000	90.559532
1225.000000	90.795402
1224.000000	91.031670
1223.000000	91.253653
1222.000000	91.450946
1221.000000	91.629175
1220.000000	91.796630
1219.000000	91.948009
1218.000000	92.075532
1217.000000	92.184754
1216.000000	92.284693
1215.000000	92.372280
1214.000000	92.439958
1213.000000	92.491767
1212.000000	92.536568
1211.000000	92.572989
1210.000000	92.594724
1209.000000	92.602582
1208.000000	92.600420
1207.000000	92.586632
1206.000000	92.560993
1205.000000	92.532185
1204.000000	92.507104
1203.000000	92.481584
1202.000000	92.451301
1201.000000	92.422367
1200.000000	92.400811
1199.000000	92.381042
1198.000000	92.355928
1197.000000	92.329053
1196.000000	92.306128
1195.000000	92.283498
1194.000000	92.255791
1193.000000	92.225667
1192.000000	92.195544
1191.000000	92.159278
1190.000000	92.112995
1189.000000	92.064048
1188.000000	92.018210
1187.000000	91.967750
1186.000000	91.902899
1185.000000	91.826120
1184.000000	91.743418
1183.000000	91.651594
1182.000000	91.545705
1181.000000	91.429541
1180.000000	91.308134
1179.000000	91.178503
1178.000000	91.039387
1177.000000	90.900436
1176.000000	90.770042
1175.000000	90.643701
1174.000000	90.514559
1173.000000	90.386477
1172.000000	90.265649
1171.000000	90.148843
1170.000000	90.031457
1169.000000	89.919273
1168.000000	89.820874
1167.000000	89.735299
1166.000000	89.659030
1165.000000	89.597225
1164.000000	89.557165
1163.000000	89.538246
1162.000000	89.537852
1161.000000	89.561194
1160.000000	89.613041
1159.000000	89.687364
1158.000000	89.777728
1157.000000	89.888983
1156.000000	90.028913
1155.000000	90.194505
1154.000000	90.378397
1153.000000	90.582187
1152.000000	90.809433
1151.000000	91.054480
1150.000000	91.309399
1149.000000	91.573810
1148.000000	91.846435
1147.000000	92.116244
1146.000000	92.375547
1145.000000	92.631123
1144.000000	92.889453
1143.000000	93.141637
1142.000000	93.376336
1141.000000	93.595278
1140.000000	93.802271
1139.000000	93.990698
1138.000000	94.155042
1137.000000	94.302896
1136.000000	94.440185
1135.000000	94.557301
1134.000000	94.645416
1133.000000	94.712040
1132.000000	94.768039
1131.000000	94.811585
1130.000000	94.838310
1129.000000	94.854397
1128.000000	94.865317
1127.000000	94.866188
1126.000000	94.855119
1125.000000	94.841218
1124.000000	94.828326
1123.000000	94.805784
1122.000000	94.767339
1121.000000	94.721489
1120.000000	94.669559
1119.000000	94.593790
1118.000000	94.481244
1117.000000	94.342762
1116.000000	94.192449
1115.000000	94.025727
1114.000000	93.835412
1113.000000	93.633186
1112.000000	93.439602
1111.000000	93.266347
1110.000000	93.122753
1109.000000	93.023452
1108.000000	92.973668
1107.000000	92.958359
1106.000000	92.959241
1105.000000	92.972174
1104.000000	92.994797
1103.000000	93.013324
1102.000000	93.015622
1101.000000	93.003273
1100.000000	92.978603
1099.000000	92.933989
1098.000000	92.868806
1097.000000	92.799031
1096.000000	92.737046
1095.000000	92.677742
1094.000000	92.617686
1093.000000	92.570917
1092.000000	92.552268
1091.000000	92.561321
1090.000000	92.596611
1089.000000	92.666193
1088.000000	92.768929
1087.000000	92.884348
1086.000000	92.996787
1085.000000	93.114530
1084.000000	93.248232
1083.000000	93.388953
1082.000000	93.524631
1081.000000	93.658739
1080.000000	93.794792
1079.000000	93.920689
1078.000000	94.028247
1077.000000	94.129216
1076.000000	94.233745
1075.000000	94.330945
1074.000000	94.409075
1073.000000	94.475586
1072.000000	94.538058
1071.000000	94.586572
1070.000000	94.613216
1069.000000	94.629698
1068.000000	94.646047
1067.000000	94.651432
1066.000000	94.636324
1065.000000	94.614594
1064.000000	94.603452
1063.000000	94.600166
1062.000000	94.596778
1061.000000	94.599142
1060.000000	94.611893
1059.000000	94.623568
1058.000000	94.626437
1057.000000	94.633481
1056.000000	94.656809
1055.000000	94.686986
1054.000000	94.712798
1053.000000	94.742335
1052.000000	94.785155
1051.000000	94.831279
1050.000000	94.869410
1049.000000	94.907024
1048.000000	94.951475
1047.000000	94.991337
1046.000000	95.016584
1045.000000	95.036617
1044.000000	95.058366
1043.000000	95.068211
1042.000000	95.054036
1041.000000	95.026299
1040.000000	94.997153
1039.000000	94.957746
1038.000000	94.896504
1037.000000	94.821974
1036.000000	94.748446
1035.000000	94.676389
1034.000000	94.604594
1033.000000	94.543306
1032.000000	94.497345
1031.000000	94.454622
1030.000000	94.409201
1029.000000	94.377153
1028.000000	94.371454
1027.000000	94.379898
1026.000000	94.386685
1025.000000	94.395902
1024.000000	94.415598
1023.000000	94.437702
1022.000000	94.454644
1021.000000	94.477337
1020.000000	94.515790
1019.000000	94.560156
1018.000000	94.599672
1017.000000	94.642951
1016.000000	94.699915
1015.000000	94.762459
1014.000000	94.822132
1013.000000	94.888476
1012.000000	94.969876
1011.000000	95.055134
1010.000000	95.132918
1009.000000	95.211609
1008.000000	95.300384
1007.000000	95.388844
1006.000000	95.464771
1005.000000	95.533725
1004.000000	95.602826
1003.000000	95.663233
1002.000000	95.708515
1001.000000	95.751252
1000.000000	95.802593
999.000000	95.851780
998.000000	95.885050
997.000000	95.907623
996.000000	95.928649
995.000000	95.942750
994.000000	95.944651
993.000000	95.945193
992.000000	95.954365
991.000000	95.965038
990.000000	95.969476
989.000000	95.974521
988.000000	95.983623
987.000000	95.983527
986.000000	95.965576
985.000000	95.942201
984.000000	95.924763
983.000000	95.904587
982.000000	95.873720
981.000000	95.844165
980.000000	95.827620
979.000000	95.813995
978.000000	95.789574
977.000000	95.758386
976.000000	95.727782
975.000000	95.690369
974.000000	95.639753
973.000000	95.587368
972.000000	95.545907
971.000000	95.511790
970.000000	95.480101
969.000000	95.459599
968.000000	95.456844
967.000000	95.463069
966.000000	95.472859
965.000000	95.497565
964.000000	95.542874
963.000000	95.593209
962.000000	95.635095
961.000000	95.678852
960.000000	95.738263
959.000000	95.806991
958.000000	95.873611
957.000000	95.942320
956.000000	96.021112
955.000000	96.105424
954.000000	96.190458
953.000000	96.282572
952.000000	96.382956
951.000000	96.477336
950.000000	96.557557
949.000000	96.634529
948.000000	96.716215
947.000000	96.792740
946.000000	96.857810
945.000000	96.921945
944.000000	96.989407
943.000000	97.045329
942.000000	97.082699
941.000000	97.118626
940.000000	97.165240
939.000000	97.209067
938.000000	97.237105
937.000000	97.261316
936.000000	97.296623
935.000000	97.337587
934.000000	97.375859
933.000000	97.418764
932.000000	97.470532
931.000000	97.516699
930.000000	97.547236
929.000000	97.574441
928.000000	97.610368
927.000000	97.647429
926.000000	97.679208
925.000000	97.716364
924.000000	97.764016
923.000000	97.805923
922.000000	97.831292
921.000000	97.854307
920.000000	97.888654
919.000000	97.925663
918.000000	97.956530
917.000000	97.992324
916.000000	98.041492
915.000000	98.091516
914.000000	98.131958
913.000000	98.173276
912.000000	98.222902
911.000000	98.267541
910.000000	98.298077
909.000000	98.328060
908.000000	98.367356
907.000000	98.403421
906.000000	98.428267
905.000000	98.456449
904.000000	98.495145
903.000000	98.523887
902.000000	98.528309
901.000000	98.527163
900.000000	98.542846
899.000000	98.569036
898.000000	98.591218
897.000000	98.612499
896.000000	98.636764
895.000000	98.651580
894.000000	98.651309
893.000000	98.651882
892.000000	98.659019
891.000000	98.646863
890.000000	98.585359
889.000000	98.458579
888.000000	98.235770
887.000000	97.861952
886.000000	97.316934
885.000000	96.660176
884.000000	95.983400
883.000000	95.334799
882.000000	94.700929
881.000000	94.037254
880.000000	93.296041
879.000000	92.458633
878.000000	91.572918
877.000000	90.746789
876.000000	90.084710
875.000000	89.646698
874.000000	89.477589
873.000000	89.627544
872.000000	90.114743
871.000000	90.879430
870.000000	91.804897
869.000000	92.772884
868.000000	93.682273
867.000000	94.456818
866.000000	95.074280
865.000000	95.572393
864.000000	95.993914
863.000000	96.345441
862.000000	96.624831
861.000000	96.856587
860.000000	97.067916
859.000000	97.256107
858.000000	97.410637
857.000000	97.540657
856.000000	97.655095
855.000000	97.743942
854.000000	97.804931
853.000000	97.857583
852.000000	97.901151
851.000000	97.894698
850.000000	97.818271
849.000000	97.724947
848.000000	97.694247
847.000000	97.751735
846.000000	97.864140
845.000000	97.989117
844.000000	98.096658
843.000000	98.166596
842.000000	98.202389
841.000000	98.232328
840.000000	98.270616
839.000000	98.296162
838.000000	98.290985
837.000000	98.273420
836.000000	98.267000
835.000000	98.265582
834.000000	98.256823
833.000000	98.252600
832.000000	98.265701
831.000000	98.283440
830.000000	98.295417
829.000000	98.321292
828.000000	98.377773
827.000000	98.442496
826.000000	98.485318
825.000000	98.510741
824.000000	98.535813
823.000000	98.553059
822.000000	98.552143
821.000000	98.550155
820.000000	98.565279
819.000000	98.585837
818.000000	98.595413
817.000000	98.602769
816.000000	98.618908
815.000000	98.630799
814.000000	98.625736
813.000000	98.617976
812.000000	98.623868
811.000000	98.634020
810.000000	98.634539
809.000000	98.631445
808.000000	98.630210
807.000000	98.617583
806.000000	98.587410
805.000000	98.557925
804.000000	98.540925
803.000000	98.522399
802.000000	98.494987
801.000000	98.476536
800.000000	98.472917
799.000000	98.456950
798.000000	98.412026
797.000000	98.363582
796.000000	98.339614
795.000000	98.331535
794.000000	98.320902
793.000000	98.312374
792.000000	98.312421
791.000000	98.306385
790.000000	98.284044
789.000000	98.259116
788.000000	98.239638
787.000000	98.210017
786.000000	98.165579
785.000000	98.131863
784.000000	98.124776
783.000000	98.123686
782.000000	98.108172
781.000000	98.088756
780.000000	98.076753
779.000000	98.058199
778.000000	98.025124
777.000000	97.999184
776.000000	97.995060
775.000000	97.991510
774.000000	97.967479
773.000000	97.937339
772.000000	97.921933
771.000000	97.914128
770.000000	97.900350
769.000000	97.887588
768.000000	97.881781
767.000000	97.867500
766.000000	97.835165
765.000000	97.800529
764.000000	97.773949
763.000000	97.740351
762.000000	97.692714
761.000000	97.651462
760.000000	97.626461
759.000000	97.594726
758.000000	97.542605
757.000000	97.493849
756.000000	97.467341
755.000000	97.443479
754.000000	97.404334
753.000000	97.371969
752.000000	97.370920
751.000000	97.384274
750.000000	97.381453
749.000000	97.362721
748.000000	97.343359
747.000000	97.321763
746.000000	97.294939
745.000000	97.278909
744.000000	97.281608
743.000000	97.280381
742.000000	97.255822
741.000000	97.222865
740.000000	97.202082
739.000000	97.186104
738.000000	97.160427
737.000000	97.129220
736.000000	97.096320
735.000000	97.048701
734.000000	96.983552
733.000000	96.922180
732.000000	96.874923
731.000000	96.822952
730.000000	96.756393
729.000000	96.695243
728.000000	96.651938
727.000000	96.610839
726.000000	96.565117
725.000000	96.535300
724.000000	96.524384
723.000000	96.495733
722.000000	96.423042
721.000000	96.324381
720.000000	96.215832
719.000000	96.067867
718.000000	95.837724
717.000000	95.504857
716.000000	95.052747
715.000000	94.476819
714.000000	93.858562
713.000000	93.380834
712.000000	93.205019
711.000000	93.340179
710.000000	93.662103
709.000000	94.025573
708.000000	94.329078
707.000000	94.523367
706.000000	94.616261
705.000000	94.657306
704.000000	94.681484
703.000000	94.680472
702.000000	94.647549
701.000000	94.612681
700.000000	94.599605
699.000000	94.590132
698.000000	94.562871
697.000000	94.533009
696.000000	94.517669
695.000000	94.498464
694.000000	94.461380
693.000000	94.435145
692.000000	94.445650
691.000000	94.469834
690.000000	94.474530
689.000000	94.466483
688.000000	94.464553
687.000000	94.456901
686.000000	94.436552
685.000000	94.435311
684.000000	94.472418
683.000000	94.509732
682.000000	94.505212
681.000000	94.473011
680.000000	94.447884
679.000000	94.430558
678.000000	94.412224
677.000000	94.410252
676.000000	94.439006
675.000000	94.475776
674.000000	94.499325
673.000000	94.527696
672.000000	94.580550
671.000000	94.644192
670.000000	94.708002
669.000000	94.796355
668.000000	94.897653
667.000000	94.939833
666.000000	94.948197
665.000000	94.963394
664.000000	94.995478
663.000000	95.025129
662.000000	95.030878
661.000000	95.026604
660.000000	95.036103
659.000000	95.051189
658.000000	95.052673
657.000000	95.041488
656.000000	95.023418
655.000000	94.984526
654.000000	94.916510
653.000000	94.842249
652.000000	94.783714
651.000000	94.727096
650.000000	94.649684
649.000000	94.556578
648.000000	94.461738
647.000000	94.360449
646.000000	94.248567
645.000000	94.143897
644.000000	94.055509
643.000000	93.960532
642.000000	93.843506
641.000000	93.728214
640.000000	93.642444
639.000000	93.581336
638.000000	93.532048
637.000000	93.502988
636.000000	93.501009
635.000000	93.508297
634.000000	93.515311
633.000000	93.541919
632.000000	93.591978
631.000000	93.623736
630.000000	93.604060
629.000000	93.558362
628.000000	93.529170
627.000000	93.520418
626.000000	93.516020
625.000000	93.519947
624.000000	93.532310
623.000000	93.521627
622.000000	93.466369
621.000000	93.394606
620.000000	93.340056
619.000000	93.291836
618.000000	93.226778
617.000000	93.158284
616.000000	93.109512
615.000000	93.071073
614.000000	93.030796
613.000000	93.009291
612.000000	93.023906
611.000000	93.049754
610.000000	93.060165
609.000000	93.071078
608.000000	93.105124
607.000000	93.147952
606.000000	93.185006
605.000000	93.248283
604.000000	93.375506
603.000000	93.553791
602.000000	93.748077
601.000000	93.949057
600.000000	94.149498
599.000000	94.317835
598.000000	94.442185
597.000000	94.559707
596.000000	94.697243
595.000000	94.829275
594.000000	94.932379
593.000000	95.032836
592.000000	95.151350
591.000000	95.251719
590.000000	95.300738
589.000000	95.326462
588.000000	95.362809
587.000000	95.391355
586.000000	95.390821
585.000000	95.391475
584.000000	95.427013
583.000000	95.476894
582.000000	95.509253
581.000000	95.532908
580.000000	95.559441
579.000000	95.565459
578.000000	95.543382
577.000000	95.534773
576.000000	95.562973
575.000000	95.587426
574.000000	95.576992
573.000000	95.568558
572.000000	95.596676
571.000000	95.632470
570.000000	95.642097
569.000000	95.649933
568.000000	95.683098
567.000000	95.711776
566.000000	95.706103
565.000000	95.693218
564.000000	95.701672
563.000000	95.711631
562.000000	95.712105
561.000000	95.739891
560.000000	95.805285
559.000000	95.845840
558.000000	95.818234
557.000000	95.768606
556.000000	95.751726
555.000000	95.748104
554.000000	95.725437
553.000000	95.712391
552.000000	95.741206
551.000000	95.783973
550.000000	95.811336
549.000000	95.852195
548.000000	95.925751
547.000000	95.981505
546.000000	95.975270
545.000000	95.943200
544.000000	95.929016
543.000000	95.911665
542.000000	95.870786
541.000000	95.847202
540.000000	95.869001
539.000000	95.888711
538.000000	95.865235
537.000000	95.840567
536.000000	95.865105
535.000000	95.911270
534.000000	95.931880
533.000000	95.934666
532.000000	95.930463
531.000000	95.881965
530.000000	95.780231
529.000000	95.698647
528.000000	95.702421
527.000000	95.767935
526.000000	95.841458
525.000000	95.913992
524.000000	95.975950
523.000000	95.981395
522.000000	95.928012
521.000000	95.894634
520.000000	95.933565
519.000000	95.989995
518.000000	95.997762
517.000000	95.987588
516.000000	96.009620
515.000000	96.039046
514.000000	96.047655
513.000000	96.069299
512.000000	96.123630
511.000000	96.160335
510.000000	96.150528
509.000000	96.151239
508.000000	96.205554
507.000000	96.261953
506.000000	96.272420
505.000000	96.281751
504.000000	96.335617
503.000000	96.395188
502.000000	96.419465
501.000000	96.445942
500.000000	96.501899
499.000000	96.541167
498.000000	96.544341
497.000000	96.571565
496.000000	96.646090
495.000000	96.686103
494.000000	96.635010
493.000000	96.562699
492.000000	96.548672
491.000000	96.565797
490.000000	96.573381
489.000000	96.612111
488.000000	96.703339
487.000000	96.767567
486.000000	96.744758
485.000000	96.704123
484.000000	96.732087
483.000000	96.798181
482.000000	96.843514
481.000000	96.889798
480.000000	96.955374
479.000000	96.979315
478.000000	96.932966
477.000000	96.902209
476.000000	96.954699
475.000000	97.032942
474.000000	97.076577
473.000000	97.143359
472.000000	97.286459
471.000000	97.417712
470.000000	97.457453
469.000000	97.462304
468.000000	97.489198
467.000000	97.496383
466.000000	97.467944
465.000000	97.495158
464.000000	97.622044
463.000000	97.753059
462.000000	97.818386
461.000000	97.898696
460.000000	98.058196
459.000000	98.194611
458.000000	98.199337
457.000000	98.173537
456.000000	98.255311
455.000000	98.385886
454.000000	98.473168
453.000000	98.540945
452.000000	98.617048
451.000000	98.639896
450.000000	98.608354
