PE IR       SUBTECH     SPECTRUM    ASCII       PEDS        4.00        
   -1
3C-YYX-F004_1.ASC
23/09/07
10:56:16.00
23/09/07
11:30:09.00
uco
Sample 004 By uco Date Thursday, September 07 2023
450.000000
#HDR
-1
-1
#GR
cm-1
%T
1.0
0.0
4000.000000
-1.000000
3551
8
98.912568
85.366236
#DATA
4000.000000	98.830299
3999.000000	98.825770
3998.000000	98.822045
3997.000000	98.820929
3996.000000	98.822301
3995.000000	98.824545
3994.000000	98.828069
3993.000000	98.828995
3992.000000	98.829979
3991.000000	98.831014
3990.000000	98.830654
3989.000000	98.827630
3988.000000	98.822841
3987.000000	98.819123
3986.000000	98.818726
3985.000000	98.821153
3984.000000	98.823763
3983.000000	98.824328
3982.000000	98.822678
3981.000000	98.820087
3980.000000	98.817635
3979.000000	98.815319
3978.000000	98.812463
3977.000000	98.808634
3976.000000	98.804263
3975.000000	98.800703
3974.000000	98.799588
3973.000000	98.801805
3972.000000	98.806679
3971.000000	98.812102
3970.000000	98.815820
3969.000000	98.816907
3968.000000	98.816287
3967.000000	98.815643
3966.000000	98.815604
3965.000000	98.815224
3964.000000	98.813331
3963.000000	98.810131
3962.000000	98.807098
3961.000000	98.805306
3960.000000	98.804267
3959.000000	98.802785
3958.000000	98.800422
3957.000000	98.797683
3956.000000	98.795199
3955.000000	98.793349
3954.000000	98.792553
3953.000000	98.793266
3952.000000	98.795412
3951.000000	98.798108
3950.000000	98.800172
3949.000000	98.800831
3948.000000	98.799941
3947.000000	98.797592
3946.000000	98.793781
3945.000000	98.788813
3944.000000	98.784048
3943.000000	98.781639
3942.000000	98.782856
3941.000000	98.786996
3940.000000	98.791924
3939.000000	98.795331
3938.000000	98.795710
3937.000000	98.792551
3936.000000	98.786354
3935.000000	98.778995
3934.000000	98.773958
3933.000000	98.775180
3932.000000	98.784052
3931.000000	98.797361
3930.000000	98.809137
3929.000000	98.814792
3928.000000	98.813635
3927.000000	98.808515
3926.000000	98.803808
3925.000000	98.802465
3924.000000	98.803609
3923.000000	98.803569
3922.000000	98.799745
3921.000000	98.792722
3920.000000	98.784921
3919.000000	98.778040
3918.000000	98.772437
3917.000000	98.768760
3916.000000	98.768524
3915.000000	98.772014
3914.000000	98.776697
3913.000000	98.779045
3912.000000	98.777452
3911.000000	98.773568
3910.000000	98.770722
3909.000000	98.770903
3908.000000	98.773066
3907.000000	98.773806
3906.000000	98.770129
3905.000000	98.762570
3904.000000	98.755834
3903.000000	98.754812
3902.000000	98.759725
3901.000000	98.766339
3900.000000	98.771129
3899.000000	98.774377
3898.000000	98.778151
3897.000000	98.783008
3896.000000	98.787390
3895.000000	98.789550
3894.000000	98.789027
3893.000000	98.786965
3892.000000	98.785562
3891.000000	98.786865
3890.000000	98.791101
3889.000000	98.795503
3888.000000	98.795447
3887.000000	98.788886
3886.000000	98.780159
3885.000000	98.776863
3884.000000	98.781950
3883.000000	98.791208
3882.000000	98.798346
3881.000000	98.799782
3880.000000	98.796172
3879.000000	98.791628
3878.000000	98.789925
3877.000000	98.791095
3876.000000	98.793154
3875.000000	98.795197
3874.000000	98.796848
3873.000000	98.796498
3872.000000	98.792752
3871.000000	98.787745
3870.000000	98.786798
3869.000000	98.792349
3868.000000	98.800560
3867.000000	98.805571
3866.000000	98.805113
3865.000000	98.801998
3864.000000	98.799937
3863.000000	98.799182
3862.000000	98.797647
3861.000000	98.794851
3860.000000	98.792449
3859.000000	98.792122
3858.000000	98.793622
3857.000000	98.793898
3856.000000	98.788722
3855.000000	98.777555
3854.000000	98.768460
3853.000000	98.768923
3852.000000	98.773777
3851.000000	98.775954
3850.000000	98.775137
3849.000000	98.774332
3848.000000	98.776382
3847.000000	98.781442
3846.000000	98.787213
3845.000000	98.790696
3844.000000	98.790185
3843.000000	98.786907
3842.000000	98.784434
3841.000000	98.786146
3840.000000	98.792793
3839.000000	98.801534
3838.000000	98.807912
3837.000000	98.810125
3836.000000	98.810468
3835.000000	98.811505
3834.000000	98.812850
3833.000000	98.812232
3832.000000	98.808323
3831.000000	98.801881
3830.000000	98.794553
3829.000000	98.787529
3828.000000	98.781844
3827.000000	98.779286
3826.000000	98.780954
3825.000000	98.785236
3824.000000	98.788688
3823.000000	98.789914
3822.000000	98.791817
3821.000000	98.797012
3820.000000	98.802042
3819.000000	98.802008
3818.000000	98.795898
3817.000000	98.785868
3816.000000	98.776656
3815.000000	98.771380
3814.000000	98.768981
3813.000000	98.767647
3812.000000	98.767836
3811.000000	98.771363
3810.000000	98.778337
3809.000000	98.785875
3808.000000	98.790358
3807.000000	98.790943
3806.000000	98.790006
3805.000000	98.790150
3804.000000	98.791910
3803.000000	98.795541
3802.000000	98.802459
3801.000000	98.811253
3800.000000	98.816547
3799.000000	98.815441
3798.000000	98.809200
3797.000000	98.800720
3796.000000	98.792468
3795.000000	98.784899
3794.000000	98.777203
3793.000000	98.769147
3792.000000	98.762026
3791.000000	98.757973
3790.000000	98.758445
3789.000000	98.762999
3788.000000	98.769556
3787.000000	98.775696
3786.000000	98.780176
3785.000000	98.783573
3784.000000	98.787162
3783.000000	98.791003
3782.000000	98.793603
3781.000000	98.793591
3780.000000	98.791368
3779.000000	98.788637
3778.000000	98.786476
3777.000000	98.784831
3776.000000	98.783419
3775.000000	98.782587
3774.000000	98.782666
3773.000000	98.782643
3772.000000	98.780827
3771.000000	98.777911
3770.000000	98.777770
3769.000000	98.783178
3768.000000	98.792126
3767.000000	98.799741
3766.000000	98.802730
3765.000000	98.801448
3764.000000	98.798198
3763.000000	98.794074
3762.000000	98.788730
3761.000000	98.782875
3760.000000	98.778735
3759.000000	98.777668
3758.000000	98.779341
3757.000000	98.783571
3756.000000	98.790500
3755.000000	98.799314
3754.000000	98.808854
3753.000000	98.818884
3752.000000	98.828752
3751.000000	98.834412
3750.000000	98.831671
3749.000000	98.824420
3748.000000	98.820585
3747.000000	98.821860
3746.000000	98.824552
3745.000000	98.824991
3744.000000	98.822185
3743.000000	98.818421
3742.000000	98.815429
3741.000000	98.812456
3740.000000	98.809872
3739.000000	98.809429
3738.000000	98.811899
3737.000000	98.817088
3736.000000	98.824456
3735.000000	98.831713
3734.000000	98.835579
3733.000000	98.835221
3732.000000	98.832584
3731.000000	98.829964
3730.000000	98.828206
3729.000000	98.826694
3728.000000	98.824857
3727.000000	98.822886
3726.000000	98.820910
3725.000000	98.818588
3724.000000	98.816153
3723.000000	98.814674
3722.000000	98.814594
3721.000000	98.815620
3720.000000	98.817629
3719.000000	98.820146
3718.000000	98.821528
3717.000000	98.819960
3716.000000	98.815362
3715.000000	98.809998
3714.000000	98.807055
3713.000000	98.808725
3712.000000	98.814009
3711.000000	98.818327
3710.000000	98.817737
3709.000000	98.813060
3708.000000	98.807974
3707.000000	98.805205
3706.000000	98.805503
3705.000000	98.807915
3704.000000	98.810491
3703.000000	98.811302
3702.000000	98.810064
3701.000000	98.808774
3700.000000	98.809881
3699.000000	98.813121
3698.000000	98.815483
3697.000000	98.814505
3696.000000	98.810254
3695.000000	98.804400
3694.000000	98.799102
3693.000000	98.797711
3692.000000	98.804230
3691.000000	98.819611
3690.000000	98.837115
3689.000000	98.844835
3688.000000	98.837987
3687.000000	98.824068
3686.000000	98.811725
3685.000000	98.803058
3684.000000	98.796706
3683.000000	98.791035
3682.000000	98.785286
3681.000000	98.779837
3680.000000	98.776336
3679.000000	98.775953
3678.000000	98.777864
3677.000000	98.781174
3676.000000	98.786727
3675.000000	98.792574
3674.000000	98.794376
3673.000000	98.791571
3672.000000	98.784964
3671.000000	98.776334
3670.000000	98.769132
3669.000000	98.763430
3668.000000	98.756511
3667.000000	98.747714
3666.000000	98.737506
3665.000000	98.726495
3664.000000	98.715668
3663.000000	98.705859
3662.000000	98.697855
3661.000000	98.692947
3660.000000	98.692521
3659.000000	98.696011
3658.000000	98.700078
3657.000000	98.700708
3656.000000	98.697214
3655.000000	98.693127
3654.000000	98.691206
3653.000000	98.689593
3652.000000	98.684278
3651.000000	98.673105
3650.000000	98.657679
3649.000000	98.642561
3648.000000	98.631806
3647.000000	98.625813
3646.000000	98.622298
3645.000000	98.619215
3644.000000	98.616580
3643.000000	98.616371
3642.000000	98.620194
3641.000000	98.626653
3640.000000	98.632179
3639.000000	98.634390
3638.000000	98.633321
3637.000000	98.629377
3636.000000	98.621990
3635.000000	98.611279
3634.000000	98.599677
3633.000000	98.589729
3632.000000	98.580748
3631.000000	98.569820
3630.000000	98.556600
3629.000000	98.544808
3628.000000	98.536634
3627.000000	98.530813
3626.000000	98.525502
3625.000000	98.519233
3624.000000	98.512549
3623.000000	98.507073
3622.000000	98.503116
3621.000000	98.499611
3620.000000	98.495271
3619.000000	98.488886
3618.000000	98.480122
3617.000000	98.470451
3616.000000	98.461419
3615.000000	98.453031
3614.000000	98.444392
3613.000000	98.434324
3612.000000	98.421920
3611.000000	98.406960
3610.000000	98.389823
3609.000000	98.372862
3608.000000	98.360702
3607.000000	98.356197
3606.000000	98.357262
3605.000000	98.358952
3604.000000	98.357864
3603.000000	98.353848
3602.000000	98.348656
3601.000000	98.343525
3600.000000	98.338215
3599.000000	98.331843
3598.000000	98.323875
3597.000000	98.313944
3596.000000	98.301664
3595.000000	98.287635
3594.000000	98.273881
3593.000000	98.262307
3592.000000	98.252258
3591.000000	98.240597
3590.000000	98.224627
3589.000000	98.205779
3588.000000	98.189744
3587.000000	98.180981
3586.000000	98.178042
3585.000000	98.176114
3584.000000	98.171160
3583.000000	98.161252
3582.000000	98.147036
3581.000000	98.131557
3580.000000	98.118864
3579.000000	98.111608
3578.000000	98.109087
3577.000000	98.107844
3576.000000	98.103780
3575.000000	98.094220
3574.000000	98.078665
3573.000000	98.059084
3572.000000	98.039299
3571.000000	98.022961
3570.000000	98.010988
3569.000000	98.000988
3568.000000	97.989104
3567.000000	97.973895
3566.000000	97.958681
3565.000000	97.948046
3564.000000	97.942266
3563.000000	97.937431
3562.000000	97.929528
3561.000000	97.917276
3560.000000	97.902129
3559.000000	97.886574
3558.000000	97.872328
3557.000000	97.859722
3556.000000	97.848026
3555.000000	97.836165
3554.000000	97.823569
3553.000000	97.810783
3552.000000	97.799129
3551.000000	97.789290
3550.000000	97.780341
3549.000000	97.770679
3548.000000	97.759839
3547.000000	97.749151
3546.000000	97.740350
3545.000000	97.733713
3544.000000	97.727583
3543.000000	97.719462
3542.000000	97.707586
3541.000000	97.692245
3540.000000	97.675808
3539.000000	97.660968
3538.000000	97.648581
3537.000000	97.637294
3536.000000	97.625316
3535.000000	97.612249
3534.000000	97.599009
3533.000000	97.586729
3532.000000	97.576274
3531.000000	97.568180
3530.000000	97.562245
3529.000000	97.557329
3528.000000	97.552003
3527.000000	97.545183
3526.000000	97.535932
3525.000000	97.523326
3524.000000	97.507379
3523.000000	97.489986
3522.000000	97.474014
3521.000000	97.461195
3520.000000	97.451166
3519.000000	97.442280
3518.000000	97.432695
3517.000000	97.421035
3516.000000	97.407001
3515.000000	97.391773
3514.000000	97.377261
3513.000000	97.364424
3512.000000	97.352602
3511.000000	97.340900
3510.000000	97.329914
3509.000000	97.321431
3508.000000	97.316370
3507.000000	97.313501
3506.000000	97.310271
3505.000000	97.304261
3504.000000	97.294008
3503.000000	97.279644
3502.000000	97.263566
3501.000000	97.249597
3500.000000	97.240134
3499.000000	97.234095
3498.000000	97.228228
3497.000000	97.220460
3496.000000	97.211647
3495.000000	97.203728
3494.000000	97.196848
3493.000000	97.189041
3492.000000	97.178439
3491.000000	97.165019
3490.000000	97.150441
3489.000000	97.136884
3488.000000	97.125948
3487.000000	97.117635
3486.000000	97.109857
3485.000000	97.099512
3484.000000	97.084950
3483.000000	97.067823
3482.000000	97.052280
3481.000000	97.041635
3480.000000	97.035795
3479.000000	97.032071
3478.000000	97.028043
3477.000000	97.022918
3476.000000	97.016556
3475.000000	97.008440
3474.000000	96.998362
3473.000000	96.987346
3472.000000	96.976549
3471.000000	96.965468
3470.000000	96.952627
3469.000000	96.938376
3468.000000	96.925764
3467.000000	96.917796
3466.000000	96.914471
3465.000000	96.913386
3464.000000	96.912280
3463.000000	96.909930
3462.000000	96.905186
3461.000000	96.896730
3460.000000	96.884203
3459.000000	96.868892
3458.000000	96.853146
3457.000000	96.839460
3456.000000	96.829654
3455.000000	96.823875
3454.000000	96.820227
3453.000000	96.816183
3452.000000	96.810673
3451.000000	96.804588
3450.000000	96.799300
3449.000000	96.795180
3448.000000	96.791530
3447.000000	96.787333
3446.000000	96.781866
3445.000000	96.774842
3444.000000	96.766149
3443.000000	96.755762
3442.000000	96.744297
3441.000000	96.733478
3440.000000	96.725237
3439.000000	96.719831
3438.000000	96.715184
3437.000000	96.708648
3436.000000	96.699262
3435.000000	96.688023
3434.000000	96.676529
3433.000000	96.666205
3432.000000	96.658286
3431.000000	96.653124
3430.000000	96.649278
3429.000000	96.644295
3428.000000	96.636966
3427.000000	96.628280
3426.000000	96.620106
3425.000000	96.613650
3424.000000	96.609187
3423.000000	96.605982
3422.000000	96.601628
3421.000000	96.592562
3420.000000	96.577004
3419.000000	96.557597
3418.000000	96.539918
3417.000000	96.527801
3416.000000	96.520431
3415.000000	96.513857
3414.000000	96.504925
3413.000000	96.493472
3412.000000	96.481098
3411.000000	96.468865
3410.000000	96.456953
3409.000000	96.446124
3408.000000	96.438239
3407.000000	96.434528
3406.000000	96.433687
3405.000000	96.432245
3404.000000	96.426950
3403.000000	96.416906
3402.000000	96.403939
3401.000000	96.391284
3400.000000	96.381445
3399.000000	96.374456
3398.000000	96.367896
3397.000000	96.358989
3396.000000	96.347048
3395.000000	96.333951
3394.000000	96.322300
3393.000000	96.313171
3392.000000	96.305355
3391.000000	96.296711
3390.000000	96.286540
3389.000000	96.276674
3388.000000	96.269851
3387.000000	96.266682
3386.000000	96.264450
3385.000000	96.259324
3384.000000	96.249590
3383.000000	96.236530
3382.000000	96.222736
3381.000000	96.210358
3380.000000	96.200496
3379.000000	96.193001
3378.000000	96.186429
3377.000000	96.178905
3376.000000	96.169529
3375.000000	96.158752
3374.000000	96.147320
3373.000000	96.135367
3372.000000	96.122876
3371.000000	96.110497
3370.000000	96.099163
3369.000000	96.088795
3368.000000	96.077941
3367.000000	96.065214
3366.000000	96.051008
3365.000000	96.037396
3364.000000	96.026195
3363.000000	96.017400
3362.000000	96.009467
3361.000000	96.000571
3360.000000	95.989295
3359.000000	95.974804
3358.000000	95.957258
3357.000000	95.937927
3356.000000	95.918226
3355.000000	95.898668
3354.000000	95.879326
3353.000000	95.860876
3352.000000	95.844037
3351.000000	95.828074
3350.000000	95.811383
3349.000000	95.793889
3348.000000	95.777472
3347.000000	95.763226
3346.000000	95.749540
3345.000000	95.733928
3344.000000	95.715905
3343.000000	95.697021
3342.000000	95.678849
3341.000000	95.662292
3340.000000	95.648163
3339.000000	95.636801
3338.000000	95.626992
3337.000000	95.616429
3336.000000	95.603598
3335.000000	95.588619
3334.000000	95.572310
3333.000000	95.555250
3332.000000	95.538015
3331.000000	95.521704
3330.000000	95.507750
3329.000000	95.496993
3328.000000	95.488482
3327.000000	95.479197
3326.000000	95.465964
3325.000000	95.448520
3324.000000	95.430252
3323.000000	95.415154
3322.000000	95.404420
3321.000000	95.396460
3320.000000	95.389162
3319.000000	95.381065
3318.000000	95.371034
3317.000000	95.358425
3316.000000	95.343901
3315.000000	95.329216
3314.000000	95.315888
3313.000000	95.304392
3312.000000	95.294190
3311.000000	95.283945
3310.000000	95.272313
3309.000000	95.259526
3308.000000	95.247825
3307.000000	95.239158
3306.000000	95.232669
3305.000000	95.225476
3304.000000	95.215618
3303.000000	95.203378
3302.000000	95.190154
3301.000000	95.177391
3300.000000	95.166513
3299.000000	95.158318
3298.000000	95.151934
3297.000000	95.145449
3296.000000	95.137948
3295.000000	95.130123
3294.000000	95.122655
3293.000000	95.115152
3292.000000	95.107144
3291.000000	95.099230
3290.000000	95.092657
3289.000000	95.088225
3288.000000	95.085880
3287.000000	95.084826
3286.000000	95.083916
3285.000000	95.082574
3284.000000	95.081298
3283.000000	95.080694
3282.000000	95.080287
3281.000000	95.079356
3280.000000	95.078869
3279.000000	95.080950
3278.000000	95.086102
3277.000000	95.092336
3276.000000	95.098074
3275.000000	95.104866
3274.000000	95.115618
3273.000000	95.130562
3272.000000	95.145989
3271.000000	95.157050
3270.000000	95.161470
3269.000000	95.160957
3268.000000	95.159820
3267.000000	95.162029
3266.000000	95.168709
3265.000000	95.178095
3264.000000	95.187946
3263.000000	95.197685
3262.000000	95.207986
3261.000000	95.218758
3260.000000	95.228432
3259.000000	95.235773
3258.000000	95.242375
3257.000000	95.252757
3256.000000	95.271042
3255.000000	95.296689
3254.000000	95.323750
3253.000000	95.345341
3252.000000	95.359114
3251.000000	95.368152
3250.000000	95.376907
3249.000000	95.387260
3248.000000	95.398567
3247.000000	95.409879
3246.000000	95.420807
3245.000000	95.430660
3244.000000	95.438203
3243.000000	95.442904
3242.000000	95.445826
3241.000000	95.448919
3240.000000	95.453710
3239.000000	95.460925
3238.000000	95.470965
3237.000000	95.483981
3236.000000	95.499221
3235.000000	95.514886
3234.000000	95.529302
3233.000000	95.542159
3232.000000	95.554046
3231.000000	95.564849
3230.000000	95.573451
3229.000000	95.579332
3228.000000	95.583710
3227.000000	95.588504
3226.000000	95.594620
3225.000000	95.601833
3224.000000	95.609713
3223.000000	95.617922
3222.000000	95.626095
3221.000000	95.634318
3220.000000	95.643336
3219.000000	95.653134
3218.000000	95.661544
3217.000000	95.665860
3216.000000	95.666256
3215.000000	95.666546
3214.000000	95.670507
3213.000000	95.678081
3212.000000	95.686111
3211.000000	95.692372
3210.000000	95.697910
3209.000000	95.705262
3208.000000	95.715434
3207.000000	95.727196
3206.000000	95.738907
3205.000000	95.749927
3204.000000	95.760031
3203.000000	95.768421
3202.000000	95.774444
3201.000000	95.779037
3200.000000	95.784345
3199.000000	95.791525
3198.000000	95.799800
3197.000000	95.807924
3196.000000	95.815544
3195.000000	95.822625
3194.000000	95.828927
3193.000000	95.835300
3192.000000	95.844563
3191.000000	95.859322
3190.000000	95.878944
3189.000000	95.899814
3188.000000	95.918527
3187.000000	95.933880
3186.000000	95.946290
3185.000000	95.956855
3184.000000	95.967138
3183.000000	95.978527
3182.000000	95.991209
3181.000000	96.004441
3180.000000	96.017715
3179.000000	96.030539
3178.000000	96.041459
3177.000000	96.049280
3176.000000	96.055785
3175.000000	96.065310
3174.000000	96.080106
3173.000000	96.097317
3172.000000	96.111714
3171.000000	96.120889
3170.000000	96.126550
3169.000000	96.131639
3168.000000	96.137882
3167.000000	96.146063
3166.000000	96.156881
3165.000000	96.170500
3164.000000	96.186001
3163.000000	96.201992
3162.000000	96.217545
3161.000000	96.232265
3160.000000	96.245890
3159.000000	96.258464
3158.000000	96.270673
3157.000000	96.283249
3156.000000	96.295752
3155.000000	96.306611
3154.000000	96.315059
3153.000000	96.322780
3152.000000	96.332570
3151.000000	96.345151
3150.000000	96.358292
3149.000000	96.369779
3148.000000	96.380247
3147.000000	96.391881
3146.000000	96.404928
3145.000000	96.417208
3144.000000	96.427208
3143.000000	96.436166
3142.000000	96.446237
3141.000000	96.457625
3140.000000	96.468398
3139.000000	96.476662
3138.000000	96.482161
3137.000000	96.486192
3136.000000	96.490525
3135.000000	96.496251
3134.000000	96.503312
3133.000000	96.511221
3132.000000	96.519985
3131.000000	96.529501
3130.000000	96.538165
3129.000000	96.543623
3128.000000	96.545798
3127.000000	96.548181
3126.000000	96.554618
3125.000000	96.565089
3124.000000	96.575739
3123.000000	96.582875
3122.000000	96.585936
3121.000000	96.586802
3120.000000	96.587527
3119.000000	96.589269
3118.000000	96.592125
3117.000000	96.595006
3116.000000	96.596088
3115.000000	96.594363
3114.000000	96.590729
3113.000000	96.587070
3112.000000	96.584418
3111.000000	96.582541
3110.000000	96.581190
3109.000000	96.580925
3108.000000	96.582133
3107.000000	96.583747
3106.000000	96.583795
3105.000000	96.581620
3104.000000	96.579048
3103.000000	96.578610
3102.000000	96.580336
3101.000000	96.580763
3100.000000	96.575970
3099.000000	96.565887
3098.000000	96.555151
3097.000000	96.549203
3096.000000	96.549637
3095.000000	96.553385
3094.000000	96.556055
3093.000000	96.555198
3092.000000	96.550548
3091.000000	96.542784
3090.000000	96.533442
3089.000000	96.525255
3088.000000	96.520711
3087.000000	96.519573
3086.000000	96.518704
3085.000000	96.515021
3084.000000	96.508420
3083.000000	96.501620
3082.000000	96.497570
3081.000000	96.497162
3080.000000	96.498801
3079.000000	96.499687
3078.000000	96.497790
3077.000000	96.493003
3076.000000	96.486631
3075.000000	96.480271
3074.000000	96.475536
3073.000000	96.474153
3072.000000	96.476852
3071.000000	96.481888
3070.000000	96.485943
3069.000000	96.487297
3068.000000	96.487366
3067.000000	96.488625
3066.000000	96.491895
3065.000000	96.496450
3064.000000	96.501790
3063.000000	96.508092
3062.000000	96.515503
3061.000000	96.523936
3060.000000	96.533099
3059.000000	96.541754
3058.000000	96.547799
3057.000000	96.550528
3056.000000	96.552460
3055.000000	96.557414
3054.000000	96.566576
3053.000000	96.577586
3052.000000	96.587377
3051.000000	96.594736
3050.000000	96.600282
3049.000000	96.605593
3048.000000	96.612744
3047.000000	96.623361
3046.000000	96.637134
3045.000000	96.651913
3044.000000	96.665850
3043.000000	96.678797
3042.000000	96.691103
3041.000000	96.701883
3040.000000	96.709602
3039.000000	96.714364
3038.000000	96.718788
3037.000000	96.726072
3036.000000	96.737208
3035.000000	96.750109
3034.000000	96.761484
3033.000000	96.769632
3032.000000	96.775383
3031.000000	96.780560
3030.000000	96.786076
3029.000000	96.791845
3028.000000	96.797886
3027.000000	96.804624
3026.000000	96.812176
3025.000000	96.819892
3024.000000	96.826659
3023.000000	96.831545
3022.000000	96.834644
3021.000000	96.837706
3020.000000	96.843173
3019.000000	96.851570
3018.000000	96.860218
3017.000000	96.865568
3016.000000	96.866790
3015.000000	96.866135
3014.000000	96.865788
3013.000000	96.865375
3012.000000	96.862728
3011.000000	96.856242
3010.000000	96.846241
3009.000000	96.834750
3008.000000	96.824253
3007.000000	96.815983
3006.000000	96.809036
3005.000000	96.801353
3004.000000	96.791552
3003.000000	96.779649
3002.000000	96.766401
3001.000000	96.752683
3000.000000	96.739077
2999.000000	96.725052
2998.000000	96.708841
2997.000000	96.689239
2996.000000	96.667485
2995.000000	96.646114
2994.000000	96.625621
2993.000000	96.603499
2992.000000	96.577011
2991.000000	96.545731
2990.000000	96.510920
2989.000000	96.473472
2988.000000	96.433443
2987.000000	96.390671
2986.000000	96.344771
2985.000000	96.295125
2984.000000	96.241758
2983.000000	96.186097
2982.000000	96.129868
2981.000000	96.073094
2980.000000	96.013872
2979.000000	95.950312
2978.000000	95.882429
2977.000000	95.811896
2976.000000	95.740059
2975.000000	95.666504
2974.000000	95.589485
2973.000000	95.507426
2972.000000	95.419744
2971.000000	95.326563
2970.000000	95.228812
2969.000000	95.128925
2968.000000	95.030470
2967.000000	94.935901
2966.000000	94.844921
2965.000000	94.756048
2964.000000	94.669696
2963.000000	94.589302
2962.000000	94.519542
2961.000000	94.464213
2960.000000	94.425272
2959.000000	94.402553
2958.000000	94.394358
2957.000000	94.398772
2956.000000	94.415006
2955.000000	94.442623
2954.000000	94.479796
2953.000000	94.523018
2952.000000	94.568285
2951.000000	94.611905
2950.000000	94.649569
2949.000000	94.676118
2948.000000	94.686769
2947.000000	94.678832
2946.000000	94.652367
2945.000000	94.609758
2944.000000	94.554755
2943.000000	94.490318
2942.000000	94.416930
2941.000000	94.333025
2940.000000	94.237904
2939.000000	94.133833
2938.000000	94.025102
2937.000000	93.915640
2936.000000	93.807587
2935.000000	93.702040
2934.000000	93.600483
2933.000000	93.505604
2932.000000	93.420621
2931.000000	93.347473
2930.000000	93.285578
2929.000000	93.232402
2928.000000	93.185658
2927.000000	93.145269
2926.000000	93.113683
2925.000000	93.094712
2924.000000	93.091338
2923.000000	93.104056
2922.000000	93.130777
2921.000000	93.168754
2920.000000	93.216753
2919.000000	93.275362
2918.000000	93.345960
2917.000000	93.429709
2916.000000	93.527083
2915.000000	93.637025
2914.000000	93.755873
2913.000000	93.877749
2912.000000	93.996707
2911.000000	94.109125
2910.000000	94.214323
2909.000000	94.313481
2908.000000	94.408196
2907.000000	94.499412
2906.000000	94.587260
2905.000000	94.671879
2904.000000	94.754589
2903.000000	94.837895
2902.000000	94.923894
2901.000000	95.012552
2900.000000	95.101483
2899.000000	95.187565
2898.000000	95.268883
2897.000000	95.345553
2896.000000	95.418839
2895.000000	95.489319
2894.000000	95.555881
2893.000000	95.616775
2892.000000	95.671556
2891.000000	95.721720
2890.000000	95.769079
2889.000000	95.813455
2888.000000	95.851990
2887.000000	95.880874
2886.000000	95.898268
2885.000000	95.905679
2884.000000	95.906306
2883.000000	95.901906
2882.000000	95.891555
2881.000000	95.873307
2880.000000	95.846141
2879.000000	95.810025
2878.000000	95.765387
2877.000000	95.714023
2876.000000	95.660015
2875.000000	95.608526
2874.000000	95.563766
2873.000000	95.528550
2872.000000	95.505120
2871.000000	95.494472
2870.000000	95.494353
2869.000000	95.498946
2868.000000	95.501374
2867.000000	95.496540
2866.000000	95.482081
2865.000000	95.457852
2864.000000	95.424786
2863.000000	95.383788
2862.000000	95.335415
2861.000000	95.281195
2860.000000	95.224860
2859.000000	95.171183
2858.000000	95.123420
2857.000000	95.082919
2856.000000	95.051343
2855.000000	95.031787
2854.000000	95.027609
2853.000000	95.041190
2852.000000	95.074680
2851.000000	95.131035
2850.000000	95.212922
2849.000000	95.320494
2848.000000	95.450151
2847.000000	95.594771
2846.000000	95.744917
2845.000000	95.891297
2844.000000	96.027271
2843.000000	96.149854
2842.000000	96.258462
2841.000000	96.353323
2840.000000	96.435560
2839.000000	96.507420
2838.000000	96.571169
2837.000000	96.627759
2836.000000	96.677007
2835.000000	96.718834
2834.000000	96.753945
2833.000000	96.783674
2832.000000	96.809799
2831.000000	96.834205
2830.000000	96.858001
2829.000000	96.880974
2828.000000	96.902135
2827.000000	96.920766
2826.000000	96.936992
2825.000000	96.951653
2824.000000	96.965825
2823.000000	96.980137
2822.000000	96.994362
2821.000000	97.007915
2820.000000	97.020621
2819.000000	97.032600
2818.000000	97.043571
2817.000000	97.053077
2816.000000	97.061592
2815.000000	97.070676
2814.000000	97.081729
2813.000000	97.094990
2812.000000	97.109710
2811.000000	97.124599
2810.000000	97.138193
2809.000000	97.149966
2808.000000	97.161443
2807.000000	97.175034
2806.000000	97.190952
2805.000000	97.206172
2804.000000	97.217325
2803.000000	97.224199
2802.000000	97.229570
2801.000000	97.236215
2800.000000	97.244844
2799.000000	97.254418
2798.000000	97.263433
2797.000000	97.270977
2796.000000	97.277318
2795.000000	97.283565
2794.000000	97.290404
2793.000000	97.297389
2792.000000	97.303786
2791.000000	97.309699
2790.000000	97.315964
2789.000000	97.323370
2788.000000	97.332511
2787.000000	97.343746
2786.000000	97.356382
2785.000000	97.368236
2784.000000	97.377053
2783.000000	97.382485
2782.000000	97.386015
2781.000000	97.389048
2780.000000	97.391897
2779.000000	97.394790
2778.000000	97.398766
2777.000000	97.404708
2776.000000	97.411806
2775.000000	97.417793
2774.000000	97.421099
2773.000000	97.422643
2772.000000	97.425211
2771.000000	97.430873
2770.000000	97.439087
2769.000000	97.447437
2768.000000	97.454088
2767.000000	97.459209
2766.000000	97.464097
2765.000000	97.469338
2764.000000	97.474152
2763.000000	97.477372
2762.000000	97.478896
2761.000000	97.480171
2760.000000	97.483140
2759.000000	97.488465
2758.000000	97.494813
2757.000000	97.500141
2756.000000	97.503644
2755.000000	97.506184
2754.000000	97.508964
2753.000000	97.512358
2752.000000	97.516068
2751.000000	97.519721
2750.000000	97.522822
2749.000000	97.524594
2748.000000	97.524636
2747.000000	97.523929
2746.000000	97.524771
2745.000000	97.529220
2744.000000	97.537207
2743.000000	97.546079
2742.000000	97.552338
2741.000000	97.554333
2740.000000	97.553397
2739.000000	97.552257
2738.000000	97.552577
2737.000000	97.554315
2736.000000	97.557127
2735.000000	97.561446
2734.000000	97.567751
2733.000000	97.575216
2732.000000	97.581707
2731.000000	97.585330
2730.000000	97.586019
2729.000000	97.585718
2728.000000	97.586928
2727.000000	97.590877
2726.000000	97.596899
2725.000000	97.603400
2724.000000	97.609246
2723.000000	97.614202
2722.000000	97.618430
2721.000000	97.621979
2720.000000	97.624811
2719.000000	97.627163
2718.000000	97.629814
2717.000000	97.633705
2716.000000	97.638838
2715.000000	97.643599
2714.000000	97.645941
2713.000000	97.645528
2712.000000	97.644164
2711.000000	97.643822
2710.000000	97.645031
2709.000000	97.647495
2708.000000	97.651178
2707.000000	97.655856
2706.000000	97.660499
2705.000000	97.664325
2704.000000	97.667912
2703.000000	97.672055
2702.000000	97.675977
2701.000000	97.678040
2700.000000	97.678068
2699.000000	97.677611
2698.000000	97.677965
2697.000000	97.679202
2696.000000	97.681129
2695.000000	97.683704
2694.000000	97.686156
2693.000000	97.687153
2692.000000	97.686522
2691.000000	97.685718
2690.000000	97.685885
2689.000000	97.686421
2688.000000	97.686171
2687.000000	97.685213
2686.000000	97.684597
2685.000000	97.684971
2684.000000	97.686278
2683.000000	97.688360
2682.000000	97.691059
2681.000000	97.694005
2680.000000	97.696940
2679.000000	97.700146
2678.000000	97.704004
2677.000000	97.708178
2676.000000	97.711628
2675.000000	97.713407
2674.000000	97.713285
2673.000000	97.711822
2672.000000	97.710124
2671.000000	97.709288
2670.000000	97.709723
2669.000000	97.710887
2668.000000	97.711777
2667.000000	97.711704
2666.000000	97.710727
2665.000000	97.709510
2664.000000	97.708698
2663.000000	97.708240
2662.000000	97.707410
2661.000000	97.705676
2660.000000	97.703433
2659.000000	97.701674
2658.000000	97.701196
2657.000000	97.702434
2656.000000	97.705849
2655.000000	97.711903
2654.000000	97.720417
2653.000000	97.730134
2652.000000	97.738912
2651.000000	97.744683
2650.000000	97.746990
2649.000000	97.747971
2648.000000	97.751038
2647.000000	97.757779
2646.000000	97.766379
2645.000000	97.773603
2644.000000	97.777788
2643.000000	97.779245
2642.000000	97.778790
2641.000000	97.777417
2640.000000	97.777256
2639.000000	97.781108
2638.000000	97.790045
2637.000000	97.801785
2636.000000	97.811861
2635.000000	97.816689
2634.000000	97.816317
2633.000000	97.814766
2632.000000	97.816869
2631.000000	97.823734
2630.000000	97.831798
2629.000000	97.837290
2628.000000	97.840909
2627.000000	97.846711
2626.000000	97.856782
2625.000000	97.868528
2624.000000	97.877276
2623.000000	97.880212
2622.000000	97.877757
2621.000000	97.872465
2620.000000	97.867180
2619.000000	97.863750
2618.000000	97.863293
2617.000000	97.867384
2616.000000	97.877409
2615.000000	97.891672
2614.000000	97.904774
2613.000000	97.911936
2612.000000	97.913434
2611.000000	97.913029
2610.000000	97.913066
2609.000000	97.913438
2608.000000	97.914405
2607.000000	97.917241
2606.000000	97.921624
2605.000000	97.925189
2604.000000	97.926586
2603.000000	97.926925
2602.000000	97.927405
2601.000000	97.927479
2600.000000	97.926367
2599.000000	97.924763
2598.000000	97.924249
2597.000000	97.926211
2596.000000	97.931691
2595.000000	97.940628
2594.000000	97.950606
2593.000000	97.957758
2592.000000	97.959900
2591.000000	97.958187
2590.000000	97.955716
2589.000000	97.955329
2588.000000	97.958168
2587.000000	97.962832
2586.000000	97.966331
2585.000000	97.967343
2584.000000	97.967972
2583.000000	97.970536
2582.000000	97.973615
2581.000000	97.973992
2580.000000	97.971913
2579.000000	97.971438
2578.000000	97.975272
2577.000000	97.982159
2576.000000	97.989514
2575.000000	97.995748
2574.000000	97.999418
2573.000000	97.999294
2572.000000	97.996597
2571.000000	97.994754
2570.000000	97.995656
2569.000000	97.998124
2568.000000	98.000717
2567.000000	98.003607
2566.000000	98.006808
2565.000000	98.009232
2564.000000	98.010948
2563.000000	98.014099
2562.000000	98.019847
2561.000000	98.026153
2560.000000	98.030142
2559.000000	98.031474
2558.000000	98.032186
2557.000000	98.034195
2556.000000	98.037465
2555.000000	98.039583
2554.000000	98.037324
2553.000000	98.030574
2552.000000	98.024413
2551.000000	98.024720
2550.000000	98.031138
2549.000000	98.036921
2548.000000	98.036305
2547.000000	98.029591
2546.000000	98.020654
2545.000000	98.012780
2544.000000	98.008335
2543.000000	98.009093
2542.000000	98.014069
2541.000000	98.018725
2540.000000	98.018673
2539.000000	98.013622
2538.000000	98.006960
2537.000000	98.002963
2536.000000	98.004852
2535.000000	98.012929
2534.000000	98.022805
2533.000000	98.027471
2532.000000	98.023112
2531.000000	98.012258
2530.000000	98.000103
2529.000000	97.989462
2528.000000	97.980422
2527.000000	97.972953
2526.000000	97.967516
2525.000000	97.963663
2524.000000	97.959773
2523.000000	97.954383
2522.000000	97.947400
2521.000000	97.940454
2520.000000	97.936197
2519.000000	97.936489
2518.000000	97.941039
2517.000000	97.948258
2516.000000	97.956843
2515.000000	97.965198
2514.000000	97.970343
2513.000000	97.969853
2512.000000	97.965061
2511.000000	97.960267
2510.000000	97.958610
2509.000000	97.960576
2508.000000	97.966113
2507.000000	97.975191
2506.000000	97.985870
2505.000000	97.995025
2504.000000	98.002597
2503.000000	98.012723
2502.000000	98.028896
2501.000000	98.049603
2500.000000	98.069789
2499.000000	98.084789
2498.000000	98.092043
2497.000000	98.091633
2496.000000	98.087085
2495.000000	98.083894
2494.000000	98.084910
2493.000000	98.088004
2492.000000	98.089660
2491.000000	98.089630
2490.000000	98.090623
2489.000000	98.094753
2488.000000	98.102309
2487.000000	98.113287
2486.000000	98.127858
2485.000000	98.144571
2484.000000	98.159361
2483.000000	98.167687
2482.000000	98.168302
2481.000000	98.164873
2480.000000	98.163219
2479.000000	98.166129
2478.000000	98.171200
2477.000000	98.174418
2476.000000	98.174815
2475.000000	98.174531
2474.000000	98.174909
2473.000000	98.174489
2472.000000	98.171353
2471.000000	98.166411
2470.000000	98.163680
2469.000000	98.167126
2468.000000	98.176493
2467.000000	98.186216
2466.000000	98.190032
2465.000000	98.187542
2464.000000	98.184674
2463.000000	98.186704
2462.000000	98.192817
2461.000000	98.198882
2460.000000	98.202896
2459.000000	98.204842
2458.000000	98.203399
2457.000000	98.196953
2456.000000	98.187347
2455.000000	98.179520
2454.000000	98.177522
2453.000000	98.183182
2452.000000	98.196876
2451.000000	98.215740
2450.000000	98.231987
2449.000000	98.237691
2448.000000	98.232358
2447.000000	98.222931
2446.000000	98.215938
2445.000000	98.212643
2444.000000	98.211719
2443.000000	98.212462
2442.000000	98.214426
2441.000000	98.216987
2440.000000	98.220420
2439.000000	98.224813
2438.000000	98.227607
2437.000000	98.225281
2436.000000	98.218121
2435.000000	98.210094
2434.000000	98.203515
2433.000000	98.197406
2432.000000	98.192121
2431.000000	98.191697
2430.000000	98.199063
2429.000000	98.211385
2428.000000	98.222321
2427.000000	98.227592
2426.000000	98.227221
2425.000000	98.224201
2424.000000	98.222184
2423.000000	98.222891
2422.000000	98.224628
2421.000000	98.224607
2420.000000	98.222856
2419.000000	98.222079
2418.000000	98.223528
2417.000000	98.225453
2416.000000	98.226264
2415.000000	98.226829
2414.000000	98.228639
2413.000000	98.231749
2412.000000	98.235604
2411.000000	98.240165
2410.000000	98.245187
2409.000000	98.249760
2408.000000	98.253361
2407.000000	98.256077
2406.000000	98.257308
2405.000000	98.255594
2404.000000	98.250432
2403.000000	98.243383
2402.000000	98.237236
2401.000000	98.234776
2400.000000	98.237595
2399.000000	98.244520
2398.000000	98.251573
2397.000000	98.254906
2396.000000	98.253581
2395.000000	98.248823
2394.000000	98.242129
2393.000000	98.235792
2392.000000	98.233312
2391.000000	98.236295
2390.000000	98.241791
2389.000000	98.245548
2388.000000	98.247373
2387.000000	98.250216
2386.000000	98.254993
2385.000000	98.259606
2384.000000	98.263233
2383.000000	98.268546
2382.000000	98.278058
2381.000000	98.290920
2380.000000	98.303338
2379.000000	98.310464
2378.000000	98.308614
2377.000000	98.298407
2376.000000	98.286044
2375.000000	98.277985
2374.000000	98.274323
2373.000000	98.270661
2372.000000	98.266657
2371.000000	98.267724
2370.000000	98.276852
2369.000000	98.288997
2368.000000	98.294591
2367.000000	98.287655
2366.000000	98.270665
2365.000000	98.253882
2364.000000	98.247973
2363.000000	98.253181
2362.000000	98.258308
2361.000000	98.253752
2360.000000	98.242793
2359.000000	98.235889
2358.000000	98.237777
2357.000000	98.244628
2356.000000	98.248689
2355.000000	98.245220
2354.000000	98.238525
2353.000000	98.236562
2352.000000	98.240514
2351.000000	98.243775
2350.000000	98.241272
2349.000000	98.232078
2348.000000	98.219095
2347.000000	98.208354
2346.000000	98.204321
2345.000000	98.205180
2344.000000	98.207931
2343.000000	98.214551
2342.000000	98.226021
2341.000000	98.239713
2340.000000	98.251958
2339.000000	98.258781
2338.000000	98.255668
2337.000000	98.240835
2336.000000	98.219360
2335.000000	98.201726
2334.000000	98.195866
2333.000000	98.200355
2332.000000	98.205832
2331.000000	98.205300
2330.000000	98.200697
2329.000000	98.197233
2328.000000	98.194320
2327.000000	98.185406
2326.000000	98.166508
2325.000000	98.142955
2324.000000	98.126493
2323.000000	98.126296
2322.000000	98.140233
2321.000000	98.158180
2320.000000	98.172152
2319.000000	98.181808
2318.000000	98.189855
2317.000000	98.197516
2316.000000	98.204683
2315.000000	98.210994
2314.000000	98.215674
2313.000000	98.219516
2312.000000	98.226524
2311.000000	98.240104
2310.000000	98.257383
2309.000000	98.271131
2308.000000	98.278190
2307.000000	98.281653
2306.000000	98.284035
2305.000000	98.283495
2304.000000	98.278790
2303.000000	98.273310
2302.000000	98.270924
2301.000000	98.271065
2300.000000	98.270970
2299.000000	98.270003
2298.000000	98.268720
2297.000000	98.266037
2296.000000	98.259615
2295.000000	98.248701
2294.000000	98.235151
2293.000000	98.223161
2292.000000	98.217825
2291.000000	98.221866
2290.000000	98.232440
2289.000000	98.242831
2288.000000	98.247738
2287.000000	98.246088
2286.000000	98.240113
2285.000000	98.234689
2284.000000	98.236225
2283.000000	98.247265
2282.000000	98.262170
2281.000000	98.271958
2280.000000	98.273492
2279.000000	98.269750
2278.000000	98.262752
2277.000000	98.252813
2276.000000	98.244379
2275.000000	98.244847
2274.000000	98.255941
2273.000000	98.272299
2272.000000	98.290033
2271.000000	98.310538
2270.000000	98.334175
2269.000000	98.356545
2268.000000	98.373363
2267.000000	98.383734
2266.000000	98.386803
2265.000000	98.380390
2264.000000	98.364745
2263.000000	98.343050
2262.000000	98.318167
2261.000000	98.293400
2260.000000	98.274817
2259.000000	98.266980
2258.000000	98.268217
2257.000000	98.276323
2256.000000	98.295114
2255.000000	98.326397
2254.000000	98.358853
2253.000000	98.377023
2252.000000	98.380066
2251.000000	98.379032
2250.000000	98.377218
2249.000000	98.368050
2248.000000	98.352572
2247.000000	98.342381
2246.000000	98.340798
2245.000000	98.336475
2244.000000	98.322334
2243.000000	98.307729
2242.000000	98.304554
2241.000000	98.313193
2240.000000	98.329436
2239.000000	98.353798
2238.000000	98.385202
2237.000000	98.414943
2236.000000	98.435500
2235.000000	98.447986
2234.000000	98.454833
2233.000000	98.454446
2232.000000	98.448835
2231.000000	98.445977
2230.000000	98.446948
2229.000000	98.440760
2228.000000	98.420398
2227.000000	98.395789
2226.000000	98.383135
2225.000000	98.388336
2224.000000	98.406657
2223.000000	98.430529
2222.000000	98.451129
2221.000000	98.460039
2220.000000	98.457113
2219.000000	98.451534
2218.000000	98.450672
2217.000000	98.453804
2216.000000	98.458293
2215.000000	98.463250
2214.000000	98.465568
2213.000000	98.463026
2212.000000	98.463343
2211.000000	98.477520
2210.000000	98.500350
2209.000000	98.510967
2208.000000	98.498889
2207.000000	98.477884
2206.000000	98.467173
2205.000000	98.469492
2204.000000	98.473671
2203.000000	98.469544
2202.000000	98.456001
2201.000000	98.443174
2200.000000	98.448250
2199.000000	98.476869
2198.000000	98.507984
2197.000000	98.512367
2196.000000	98.490612
2195.000000	98.475993
2194.000000	98.494415
2193.000000	98.537464
2192.000000	98.580266
2191.000000	98.608777
2190.000000	98.620275
2189.000000	98.616432
2188.000000	98.608299
2187.000000	98.612300
2186.000000	98.628339
2185.000000	98.636133
2184.000000	98.625730
2183.000000	98.617159
2182.000000	98.632712
2181.000000	98.660805
2180.000000	98.665267
2179.000000	98.626149
2178.000000	98.559735
2177.000000	98.504448
2176.000000	98.493097
2175.000000	98.528753
2174.000000	98.580385
2173.000000	98.608543
2172.000000	98.599865
2171.000000	98.571551
2170.000000	98.545434
2169.000000	98.529073
2168.000000	98.519788
2167.000000	98.514731
2166.000000	98.515061
2165.000000	98.528464
2164.000000	98.563731
2163.000000	98.612428
2162.000000	98.646313
2161.000000	98.652095
2160.000000	98.658897
2159.000000	98.700092
2158.000000	98.753842
2157.000000	98.770765
2156.000000	98.749707
2155.000000	98.730925
2154.000000	98.731603
2153.000000	98.734152
2152.000000	98.725251
2151.000000	98.709210
2150.000000	98.687937
2149.000000	98.660333
2148.000000	98.641490
2147.000000	98.650206
2146.000000	98.673968
2145.000000	98.674936
2144.000000	98.637743
2143.000000	98.585713
2142.000000	98.545949
2141.000000	98.524711
2140.000000	98.520110
2139.000000	98.532835
2138.000000	98.554564
2137.000000	98.567041
2136.000000	98.563525
2135.000000	98.555768
2134.000000	98.552233
2133.000000	98.546575
2132.000000	98.533589
2131.000000	98.519929
2130.000000	98.512106
2129.000000	98.507347
2128.000000	98.501473
2127.000000	98.494727
2126.000000	98.486266
2125.000000	98.473119
2124.000000	98.457729
2123.000000	98.446509
2122.000000	98.439245
2121.000000	98.430220
2120.000000	98.421010
2119.000000	98.419818
2118.000000	98.425918
2117.000000	98.427372
2116.000000	98.417727
2115.000000	98.402975
2114.000000	98.388169
2113.000000	98.370620
2112.000000	98.351606
2111.000000	98.341713
2110.000000	98.346487
2109.000000	98.357735
2108.000000	98.366202
2107.000000	98.373174
2106.000000	98.382148
2105.000000	98.389324
2104.000000	98.390551
2103.000000	98.389074
2102.000000	98.388901
2101.000000	98.387406
2100.000000	98.381044
2099.000000	98.372103
2098.000000	98.366920
2097.000000	98.373533
2096.000000	98.400189
2095.000000	98.444585
2094.000000	98.484486
2093.000000	98.494190
2092.000000	98.474114
2091.000000	98.449444
2090.000000	98.437086
2089.000000	98.428864
2088.000000	98.411678
2087.000000	98.389169
2086.000000	98.373920
2085.000000	98.371254
2084.000000	98.379469
2083.000000	98.395286
2082.000000	98.410500
2081.000000	98.413257
2080.000000	98.402019
2079.000000	98.389470
2078.000000	98.385606
2077.000000	98.386526
2076.000000	98.386027
2075.000000	98.386653
2074.000000	98.391165
2073.000000	98.395718
2072.000000	98.400386
2071.000000	98.414032
2070.000000	98.439092
2069.000000	98.461876
2068.000000	98.468570
2067.000000	98.461496
2066.000000	98.451322
2065.000000	98.443689
2064.000000	98.440982
2063.000000	98.446887
2062.000000	98.461670
2061.000000	98.482140
2060.000000	98.509276
2059.000000	98.543369
2058.000000	98.569832
2057.000000	98.569026
2056.000000	98.546063
2055.000000	98.530266
2054.000000	98.535233
2053.000000	98.541530
2052.000000	98.531394
2051.000000	98.517301
2050.000000	98.519442
2049.000000	98.533047
2048.000000	98.540360
2047.000000	98.543523
2046.000000	98.558253
2045.000000	98.582672
2044.000000	98.598184
2043.000000	98.595094
2042.000000	98.578667
2041.000000	98.559594
2040.000000	98.553531
2039.000000	98.577123
2038.000000	98.628470
2037.000000	98.681429
2036.000000	98.712970
2035.000000	98.726532
2034.000000	98.735503
2033.000000	98.741410
2032.000000	98.743477
2031.000000	98.748053
2030.000000	98.750429
2029.000000	98.729260
2028.000000	98.678125
2027.000000	98.626650
2026.000000	98.613240
2025.000000	98.649075
2024.000000	98.714623
2023.000000	98.776467
2022.000000	98.804546
2021.000000	98.792920
2020.000000	98.772302
2019.000000	98.779491
2018.000000	98.809299
2017.000000	98.818500
2016.000000	98.783371
2015.000000	98.724718
2014.000000	98.669663
2013.000000	98.626687
2012.000000	98.604401
2011.000000	98.619774
2010.000000	98.673907
2009.000000	98.743469
2008.000000	98.805790
2007.000000	98.851787
2006.000000	98.869203
2005.000000	98.846339
2004.000000	98.800973
2003.000000	98.770177
2002.000000	98.764679
2001.000000	98.757371
2000.000000	98.723640
1999.000000	98.668936
1998.000000	98.613179
1997.000000	98.577185
1996.000000	98.583407
1995.000000	98.639283
1994.000000	98.711443
1993.000000	98.742871
1992.000000	98.712735
1991.000000	98.657391
1990.000000	98.615146
1989.000000	98.587025
1988.000000	98.565588
1987.000000	98.560781
1986.000000	98.576654
1985.000000	98.593649
1984.000000	98.596167
1983.000000	98.593404
1982.000000	98.594970
1981.000000	98.590753
1980.000000	98.577960
1979.000000	98.582339
1978.000000	98.626562
1977.000000	98.696238
1976.000000	98.759971
1975.000000	98.804220
1974.000000	98.825316
1973.000000	98.818480
1972.000000	98.794701
1971.000000	98.778069
1970.000000	98.771813
1969.000000	98.755606
1968.000000	98.726347
1967.000000	98.711383
1966.000000	98.726688
1965.000000	98.754292
1964.000000	98.776239
1963.000000	98.797506
1962.000000	98.822459
1961.000000	98.839454
1960.000000	98.843635
1959.000000	98.847733
1958.000000	98.856359
1957.000000	98.855420
1956.000000	98.837754
1955.000000	98.814072
1954.000000	98.788818
1953.000000	98.752031
1952.000000	98.705143
1951.000000	98.672735
1950.000000	98.674564
1949.000000	98.701221
1948.000000	98.731845
1947.000000	98.757220
1946.000000	98.772765
1945.000000	98.768470
1944.000000	98.741729
1943.000000	98.707969
1942.000000	98.684183
1941.000000	98.672449
1940.000000	98.669125
1939.000000	98.673276
1938.000000	98.679463
1937.000000	98.677656
1936.000000	98.667837
1935.000000	98.662603
1934.000000	98.668210
1933.000000	98.676435
1932.000000	98.678436
1931.000000	98.675634
1930.000000	98.669876
1929.000000	98.655414
1928.000000	98.635871
1927.000000	98.627155
1926.000000	98.638156
1925.000000	98.657893
1924.000000	98.671236
1923.000000	98.681403
1922.000000	98.697480
1921.000000	98.713911
1920.000000	98.716485
1919.000000	98.701557
1918.000000	98.681019
1917.000000	98.667990
1916.000000	98.664985
1915.000000	98.666047
1914.000000	98.663139
1913.000000	98.654416
1912.000000	98.647043
1911.000000	98.650814
1910.000000	98.665470
1909.000000	98.677821
1908.000000	98.678147
1907.000000	98.667433
1906.000000	98.652597
1905.000000	98.641005
1904.000000	98.639692
1903.000000	98.654368
1902.000000	98.678041
1901.000000	98.694606
1900.000000	98.699307
1899.000000	98.701320
1898.000000	98.706786
1897.000000	98.710660
1896.000000	98.707844
1895.000000	98.704738
1894.000000	98.708147
1893.000000	98.714175
1892.000000	98.715446
1891.000000	98.712161
1890.000000	98.711096
1889.000000	98.717679
1888.000000	98.733587
1887.000000	98.755729
1886.000000	98.772656
1885.000000	98.772756
1884.000000	98.758421
1883.000000	98.743699
1882.000000	98.735582
1881.000000	98.729040
1880.000000	98.722953
1879.000000	98.722749
1878.000000	98.728032
1877.000000	98.731281
1876.000000	98.728814
1875.000000	98.726999
1874.000000	98.732959
1873.000000	98.744040
1872.000000	98.752657
1871.000000	98.756061
1870.000000	98.758375
1869.000000	98.766517
1868.000000	98.782216
1867.000000	98.798102
1866.000000	98.801625
1865.000000	98.786329
1864.000000	98.761823
1863.000000	98.745507
1862.000000	98.742650
1861.000000	98.744496
1860.000000	98.746928
1859.000000	98.756277
1858.000000	98.773398
1857.000000	98.787265
1856.000000	98.789951
1855.000000	98.785244
1854.000000	98.779835
1853.000000	98.774939
1852.000000	98.775952
1851.000000	98.787426
1850.000000	98.801533
1849.000000	98.810237
1848.000000	98.817824
1847.000000	98.832927
1846.000000	98.847289
1845.000000	98.843681
1844.000000	98.826382
1843.000000	98.821794
1842.000000	98.834400
1841.000000	98.838915
1840.000000	98.822541
1839.000000	98.798777
1838.000000	98.785782
1837.000000	98.783234
1836.000000	98.781582
1835.000000	98.784613
1834.000000	98.799130
1833.000000	98.816797
1832.000000	98.823477
1831.000000	98.816529
1830.000000	98.809396
1829.000000	98.813510
1828.000000	98.822779
1827.000000	98.823895
1826.000000	98.810328
1825.000000	98.792097
1824.000000	98.784896
1823.000000	98.791049
1822.000000	98.798157
1821.000000	98.797570
1820.000000	98.795772
1819.000000	98.800600
1818.000000	98.808647
1817.000000	98.810288
1816.000000	98.805648
1815.000000	98.806355
1814.000000	98.812776
1813.000000	98.813476
1812.000000	98.802767
1811.000000	98.789581
1810.000000	98.785301
1809.000000	98.784161
1808.000000	98.774792
1807.000000	98.757609
1806.000000	98.738588
1805.000000	98.718160
1804.000000	98.693511
1803.000000	98.667547
1802.000000	98.642087
1801.000000	98.616879
1800.000000	98.593360
1799.000000	98.574964
1798.000000	98.564267
1797.000000	98.558673
1796.000000	98.557881
1795.000000	98.564120
1794.000000	98.573087
1793.000000	98.581664
1792.000000	98.597859
1791.000000	98.629652
1790.000000	98.670701
1789.000000	98.704683
1788.000000	98.723348
1787.000000	98.732396
1786.000000	98.741673
1785.000000	98.754138
1784.000000	98.768035
1783.000000	98.784316
1782.000000	98.794961
1781.000000	98.794793
1780.000000	98.792151
1779.000000	98.796132
1778.000000	98.806842
1777.000000	98.816146
1776.000000	98.828448
1775.000000	98.849786
1774.000000	98.865859
1773.000000	98.858658
1772.000000	98.839397
1771.000000	98.829625
1770.000000	98.820123
1769.000000	98.783598
1768.000000	98.715695
1767.000000	98.651534
1766.000000	98.617921
1765.000000	98.595631
1764.000000	98.547114
1763.000000	98.459593
1762.000000	98.349832
1761.000000	98.240945
1760.000000	98.133724
1759.000000	98.005674
1758.000000	97.824722
1757.000000	97.575032
1756.000000	97.298594
1755.000000	97.053145
1754.000000	96.832677
1753.000000	96.577180
1752.000000	96.245768
1751.000000	95.865123
1750.000000	95.495466
1749.000000	95.148023
1748.000000	94.815119
1747.000000	94.524958
1746.000000	94.290620
1745.000000	94.091831
1744.000000	93.916413
1743.000000	93.781407
1742.000000	93.697532
1741.000000	93.645103
1740.000000	93.617448
1739.000000	93.649122
1738.000000	93.752468
1737.000000	93.887492
1736.000000	94.023559
1735.000000	94.188301
1734.000000	94.437838
1733.000000	94.735176
1732.000000	95.003504
1731.000000	95.237390
1730.000000	95.467627
1729.000000	95.707064
1728.000000	95.951147
1727.000000	96.194330
1726.000000	96.427735
1725.000000	96.648150
1724.000000	96.857901
1723.000000	97.060121
1722.000000	97.250473
1721.000000	97.415679
1720.000000	97.557386
1719.000000	97.699283
1718.000000	97.863361
1717.000000	98.015426
1716.000000	98.100624
1715.000000	98.123787
1714.000000	98.115604
1713.000000	98.095129
1712.000000	98.074041
1711.000000	98.060642
1710.000000	98.052514
1709.000000	98.038821
1708.000000	98.013128
1707.000000	97.969478
1706.000000	97.907865
1705.000000	97.848830
1704.000000	97.822633
1703.000000	97.820721
1702.000000	97.775780
1701.000000	97.619626
1700.000000	97.428692
1699.000000	97.365027
1698.000000	97.378910
1697.000000	97.310707
1696.000000	97.114583
1695.000000	96.896051
1694.000000	96.753677
1693.000000	96.651952
1692.000000	96.536142
1691.000000	96.408754
1690.000000	96.290712
1689.000000	96.194869
1688.000000	96.135585
1687.000000	96.108108
1686.000000	96.059825
1685.000000	95.908953
1684.000000	95.666627
1683.000000	95.471618
1682.000000	95.351633
1681.000000	95.231477
1680.000000	95.086218
1679.000000	94.952327
1678.000000	94.843295
1677.000000	94.717213
1676.000000	94.532774
1675.000000	94.330646
1674.000000	94.189869
1673.000000	94.106175
1672.000000	94.012522
1671.000000	93.867612
1670.000000	93.672735
1669.000000	93.456539
1668.000000	93.267643
1667.000000	93.130601
1666.000000	93.022044
1665.000000	92.897478
1664.000000	92.725276
1663.000000	92.522647
1662.000000	92.336802
1661.000000	92.183217
1660.000000	92.046156
1659.000000	91.916688
1658.000000	91.806769
1657.000000	91.731627
1656.000000	91.688786
1655.000000	91.632378
1654.000000	91.484223
1653.000000	91.243738
1652.000000	91.083414
1651.000000	91.054399
1650.000000	91.045675
1649.000000	90.995294
1648.000000	90.910561
1647.000000	90.819172
1646.000000	90.762682
1645.000000	90.744288
1644.000000	90.740285
1643.000000	90.736897
1642.000000	90.732587
1641.000000	90.729177
1640.000000	90.737701
1639.000000	90.768863
1638.000000	90.817219
1637.000000	90.850851
1636.000000	90.847180
1635.000000	90.827342
1634.000000	90.832092
1633.000000	90.861317
1632.000000	90.889604
1631.000000	90.918442
1630.000000	90.958666
1629.000000	91.014774
1628.000000	91.090095
1627.000000	91.188955
1626.000000	91.303269
1625.000000	91.416988
1624.000000	91.525850
1623.000000	91.644236
1622.000000	91.779797
1621.000000	91.922461
1620.000000	92.063774
1619.000000	92.201422
1618.000000	92.340244
1617.000000	92.490677
1616.000000	92.654431
1615.000000	92.808846
1614.000000	92.934933
1613.000000	93.038850
1612.000000	93.141268
1611.000000	93.258288
1610.000000	93.386048
1609.000000	93.511751
1608.000000	93.631351
1607.000000	93.748046
1606.000000	93.857821
1605.000000	93.955786
1604.000000	94.045230
1603.000000	94.126554
1602.000000	94.196260
1601.000000	94.254481
1600.000000	94.307181
1599.000000	94.358023
1598.000000	94.404863
1597.000000	94.447755
1596.000000	94.490265
1595.000000	94.531887
1594.000000	94.566038
1593.000000	94.589493
1592.000000	94.606254
1591.000000	94.618785
1590.000000	94.624082
1589.000000	94.621555
1588.000000	94.615934
1587.000000	94.608104
1586.000000	94.593871
1585.000000	94.570726
1584.000000	94.545381
1583.000000	94.518000
1582.000000	94.480271
1581.000000	94.438675
1580.000000	94.414922
1579.000000	94.415692
1578.000000	94.417354
1577.000000	94.386781
1576.000000	94.317462
1575.000000	94.241416
1574.000000	94.178235
1573.000000	94.120441
1572.000000	94.055771
1571.000000	93.970386
1570.000000	93.864027
1569.000000	93.763955
1568.000000	93.697336
1567.000000	93.645444
1566.000000	93.569943
1565.000000	93.465648
1564.000000	93.375258
1563.000000	93.337617
1562.000000	93.338129
1561.000000	93.316285
1560.000000	93.193245
1559.000000	92.968906
1558.000000	92.766392
1557.000000	92.646660
1556.000000	92.550124
1555.000000	92.417631
1554.000000	92.259919
1553.000000	92.116767
1552.000000	92.001062
1551.000000	91.884945
1550.000000	91.758623
1549.000000	91.643304
1548.000000	91.560126
1547.000000	91.498891
1546.000000	91.435673
1545.000000	91.372788
1544.000000	91.335628
1543.000000	91.330168
1542.000000	91.328220
1541.000000	91.290676
1540.000000	91.210087
1539.000000	91.131988
1538.000000	91.094395
1537.000000	91.084577
1536.000000	91.070518
1535.000000	91.046304
1534.000000	91.017345
1533.000000	91.005212
1532.000000	91.023057
1531.000000	91.058015
1530.000000	91.093249
1529.000000	91.120761
1528.000000	91.146874
1527.000000	91.181421
1526.000000	91.222290
1525.000000	91.265030
1524.000000	91.309501
1523.000000	91.347922
1522.000000	91.368047
1521.000000	91.369266
1520.000000	91.372284
1519.000000	91.383428
1518.000000	91.380276
1517.000000	91.356320
1516.000000	91.337432
1515.000000	91.350806
1514.000000	91.385997
1513.000000	91.421354
1512.000000	91.462962
1511.000000	91.537516
1510.000000	91.650574
1509.000000	91.774047
1508.000000	91.871636
1507.000000	91.926285
1506.000000	91.931136
1505.000000	91.921770
1504.000000	91.935332
1503.000000	91.952064
1502.000000	91.964371
1501.000000	91.973866
1500.000000	91.987353
1499.000000	92.014920
1498.000000	92.049940
1497.000000	92.068773
1496.000000	92.065470
1495.000000	92.068764
1494.000000	92.088286
1493.000000	92.102305
1492.000000	92.096738
1491.000000	92.081962
1490.000000	92.071563
1489.000000	92.051652
1488.000000	92.006809
1487.000000	91.949420
1486.000000	91.891731
1485.000000	91.826863
1484.000000	91.754768
1483.000000	91.676180
1482.000000	91.583996
1481.000000	91.475315
1480.000000	91.360996
1479.000000	91.249803
1478.000000	91.129222
1477.000000	90.989921
1476.000000	90.849164
1475.000000	90.726478
1474.000000	90.584673
1473.000000	90.361373
1472.000000	90.075668
1471.000000	89.819525
1470.000000	89.622271
1469.000000	89.451264
1468.000000	89.287480
1467.000000	89.133153
1466.000000	88.979845
1465.000000	88.815922
1464.000000	88.666247
1463.000000	88.562375
1462.000000	88.495668
1461.000000	88.436983
1460.000000	88.374453
1459.000000	88.296046
1458.000000	88.154268
1457.000000	87.916054
1456.000000	87.682874
1455.000000	87.550887
1454.000000	87.470205
1453.000000	87.383085
1452.000000	87.294584
1451.000000	87.226979
1450.000000	87.175696
1449.000000	87.114988
1448.000000	87.040778
1447.000000	86.978978
1446.000000	86.935170
1445.000000	86.892954
1444.000000	86.845484
1443.000000	86.795279
1442.000000	86.745802
1441.000000	86.698427
1440.000000	86.657389
1439.000000	86.612966
1438.000000	86.534631
1437.000000	86.403680
1436.000000	86.270829
1435.000000	86.203046
1434.000000	86.183239
1433.000000	86.162206
1432.000000	86.125044
1431.000000	86.079245
1430.000000	86.020317
1429.000000	85.936148
1428.000000	85.838518
1427.000000	85.754957
1426.000000	85.683752
1425.000000	85.611153
1424.000000	85.551906
1423.000000	85.530706
1422.000000	85.537294
1421.000000	85.531279
1420.000000	85.489482
1419.000000	85.432715
1418.000000	85.392929
1417.000000	85.372147
1416.000000	85.366236
1415.000000	85.380091
1414.000000	85.411697
1413.000000	85.454065
1412.000000	85.508827
1411.000000	85.582069
1410.000000	85.670514
1409.000000	85.765261
1408.000000	85.863910
1407.000000	85.970502
1406.000000	86.080083
1405.000000	86.184019
1404.000000	86.285278
1403.000000	86.387317
1402.000000	86.480963
1401.000000	86.554083
1400.000000	86.613624
1399.000000	86.681203
1398.000000	86.762670
1397.000000	86.842917
1396.000000	86.911365
1395.000000	86.973122
1394.000000	87.035690
1393.000000	87.107567
1392.000000	87.196084
1391.000000	87.298337
1390.000000	87.403865
1389.000000	87.505453
1388.000000	87.607244
1387.000000	87.717239
1386.000000	87.830769
1385.000000	87.937829
1384.000000	88.038867
1383.000000	88.139170
1382.000000	88.242444
1381.000000	88.350750
1380.000000	88.468704
1379.000000	88.600406
1378.000000	88.742999
1377.000000	88.891907
1376.000000	89.048382
1375.000000	89.213787
1374.000000	89.376850
1373.000000	89.524352
1372.000000	89.658745
1371.000000	89.788429
1370.000000	89.912538
1369.000000	90.029430
1368.000000	90.143623
1367.000000	90.257331
1366.000000	90.366983
1365.000000	90.470102
1364.000000	90.569587
1363.000000	90.665454
1362.000000	90.749344
1361.000000	90.817582
1360.000000	90.877683
1359.000000	90.935075
1358.000000	90.988138
1357.000000	91.037232
1356.000000	91.087158
1355.000000	91.139597
1354.000000	91.190801
1353.000000	91.239298
1352.000000	91.287428
1351.000000	91.336626
1350.000000	91.382198
1349.000000	91.419652
1348.000000	91.448281
1347.000000	91.465189
1346.000000	91.465609
1345.000000	91.451061
1344.000000	91.431752
1343.000000	91.415055
1342.000000	91.397000
1341.000000	91.367720
1340.000000	91.321888
1339.000000	91.262704
1338.000000	91.200173
1337.000000	91.147298
1336.000000	91.114837
1335.000000	91.107080
1334.000000	91.122193
1333.000000	91.157189
1332.000000	91.210205
1331.000000	91.277515
1330.000000	91.351926
1329.000000	91.427443
1328.000000	91.502465
1327.000000	91.576485
1326.000000	91.646770
1325.000000	91.711245
1324.000000	91.770333
1323.000000	91.823892
1322.000000	91.871133
1321.000000	91.914058
1320.000000	91.957334
1319.000000	92.003348
1318.000000	92.051094
1317.000000	92.100993
1316.000000	92.156260
1315.000000	92.218060
1314.000000	92.283453
1313.000000	92.349362
1312.000000	92.414869
1311.000000	92.479371
1310.000000	92.542166
1309.000000	92.605044
1308.000000	92.671099
1307.000000	92.740478
1306.000000	92.809720
1305.000000	92.876662
1304.000000	92.942209
1303.000000	93.006773
1302.000000	93.069356
1301.000000	93.130527
1300.000000	93.193049
1299.000000	93.258240
1298.000000	93.324269
1297.000000	93.387684
1296.000000	93.444460
1295.000000	93.490026
1294.000000	93.522230
1293.000000	93.544160
1292.000000	93.561269
1291.000000	93.576086
1290.000000	93.586991
1289.000000	93.591714
1288.000000	93.589781
1287.000000	93.582778
1286.000000	93.574459
1285.000000	93.569216
1284.000000	93.568854
1283.000000	93.572041
1282.000000	93.577842
1281.000000	93.586650
1280.000000	93.595137
1279.000000	93.593938
1278.000000	93.575334
1277.000000	93.541317
1276.000000	93.499973
1275.000000	93.454660
1274.000000	93.401529
1273.000000	93.336437
1272.000000	93.258727
1271.000000	93.168231
1270.000000	93.062539
1269.000000	92.940523
1268.000000	92.806070
1267.000000	92.665252
1266.000000	92.521403
1265.000000	92.374389
1264.000000	92.224445
1263.000000	92.074764
1262.000000	91.929994
1261.000000	91.793464
1260.000000	91.666037
1259.000000	91.546030
1258.000000	91.430909
1257.000000	91.322235
1256.000000	91.227944
1255.000000	91.157469
1254.000000	91.113333
1253.000000	91.088215
1252.000000	91.070389
1251.000000	91.049460
1250.000000	91.019324
1249.000000	90.979662
1248.000000	90.934724
1247.000000	90.888548
1246.000000	90.841517
1245.000000	90.793303
1244.000000	90.747405
1243.000000	90.709418
1242.000000	90.681609
1241.000000	90.662746
1240.000000	90.653039
1239.000000	90.656041
1238.000000	90.674916
1237.000000	90.710954
1236.000000	90.764972
1235.000000	90.836836
1234.000000	90.923814
1233.000000	91.021150
1232.000000	91.125777
1231.000000	91.237702
1230.000000	91.359568
1229.000000	91.497127
1228.000000	91.656249
1227.000000	91.837203
1226.000000	92.032297
1225.000000	92.230920
1224.000000	92.425587
1223.000000	92.611926
1222.000000	92.786578
1221.000000	92.947078
1220.000000	93.091914
1219.000000	93.219337
1218.000000	93.329306
1217.000000	93.425648
1216.000000	93.512598
1215.000000	93.589296
1214.000000	93.650357
1213.000000	93.694286
1212.000000	93.726768
1211.000000	93.753758
1210.000000	93.774373
1209.000000	93.782103
1208.000000	93.772887
1207.000000	93.749862
1206.000000	93.721191
1205.000000	93.694663
1204.000000	93.673538
1203.000000	93.656700
1202.000000	93.641694
1201.000000	93.627400
1200.000000	93.614092
1199.000000	93.602078
1198.000000	93.591538
1197.000000	93.583228
1196.000000	93.577693
1195.000000	93.573517
1194.000000	93.567600
1193.000000	93.557576
1192.000000	93.543159
1191.000000	93.525099
1190.000000	93.504100
1189.000000	93.480442
1188.000000	93.453263
1187.000000	93.419951
1186.000000	93.377232
1185.000000	93.324104
1184.000000	93.262580
1183.000000	93.195264
1182.000000	93.122623
1181.000000	93.042117
1180.000000	92.950649
1179.000000	92.848098
1178.000000	92.739357
1177.000000	92.632394
1176.000000	92.532809
1175.000000	92.439983
1174.000000	92.348779
1173.000000	92.255375
1172.000000	92.160359
1171.000000	92.066492
1170.000000	91.975950
1169.000000	91.891137
1168.000000	91.815338
1167.000000	91.749370
1166.000000	91.690477
1165.000000	91.637824
1164.000000	91.597530
1163.000000	91.578318
1162.000000	91.582059
1161.000000	91.604399
1160.000000	91.643334
1159.000000	91.702378
1158.000000	91.785756
1157.000000	91.893341
1156.000000	92.022509
1155.000000	92.170097
1154.000000	92.332301
1153.000000	92.506780
1152.000000	92.693656
1151.000000	92.892828
1150.000000	93.100027
1149.000000	93.308461
1148.000000	93.514496
1147.000000	93.719213
1146.000000	93.925072
1145.000000	94.131948
1144.000000	94.335931
1143.000000	94.530809
1142.000000	94.712199
1141.000000	94.880227
1140.000000	95.037189
1139.000000	95.183662
1138.000000	95.317228
1137.000000	95.434972
1136.000000	95.534643
1135.000000	95.614556
1134.000000	95.675769
1133.000000	95.722628
1132.000000	95.760055
1131.000000	95.789553
1130.000000	95.808960
1129.000000	95.816612
1128.000000	95.813695
1127.000000	95.803597
1126.000000	95.789296
1125.000000	95.771244
1124.000000	95.748458
1123.000000	95.721068
1122.000000	95.690725
1121.000000	95.656719
1120.000000	95.612406
1119.000000	95.549090
1118.000000	95.462816
1117.000000	95.355730
1116.000000	95.231057
1115.000000	95.089718
1114.000000	94.934016
1113.000000	94.772223
1112.000000	94.618539
1111.000000	94.487879
1110.000000	94.389799
1109.000000	94.325272
1108.000000	94.288718
1107.000000	94.272508
1106.000000	94.269727
1105.000000	94.276021
1104.000000	94.288919
1103.000000	94.305653
1102.000000	94.320199
1101.000000	94.323148
1100.000000	94.306591
1099.000000	94.269302
1098.000000	94.217168
1097.000000	94.157360
1096.000000	94.094677
1095.000000	94.033956
1094.000000	93.982861
1093.000000	93.948581
1092.000000	93.933517
1091.000000	93.936520
1090.000000	93.958406
1089.000000	94.002204
1088.000000	94.067461
1087.000000	94.147528
1086.000000	94.233366
1085.000000	94.319578
1084.000000	94.405145
1083.000000	94.491345
1082.000000	94.581178
1081.000000	94.677314
1080.000000	94.777541
1079.000000	94.874119
1078.000000	94.961234
1077.000000	95.041104
1076.000000	95.119853
1075.000000	95.199224
1074.000000	95.275300
1073.000000	95.343124
1072.000000	95.398192
1071.000000	95.436437
1070.000000	95.456851
1069.000000	95.463732
1068.000000	95.463447
1067.000000	95.459313
1066.000000	95.451988
1065.000000	95.442120
1064.000000	95.429999
1063.000000	95.415028
1062.000000	95.398725
1061.000000	95.386473
1060.000000	95.382583
1059.000000	95.385404
1058.000000	95.391088
1057.000000	95.400889
1056.000000	95.419701
1055.000000	95.447493
1054.000000	95.477449
1053.000000	95.503911
1052.000000	95.528379
1051.000000	95.555314
1050.000000	95.585433
1049.000000	95.616189
1048.000000	95.646429
1047.000000	95.677215
1046.000000	95.708334
1045.000000	95.736060
1044.000000	95.754440
1043.000000	95.758909
1042.000000	95.748793
1041.000000	95.726464
1040.000000	95.694035
1039.000000	95.650988
1038.000000	95.595988
1037.000000	95.529875
1036.000000	95.457090
1035.000000	95.384721
1034.000000	95.319607
1033.000000	95.265019
1032.000000	95.219817
1031.000000	95.182094
1030.000000	95.153394
1029.000000	95.138682
1028.000000	95.141039
1027.000000	95.157777
1026.000000	95.182419
1025.000000	95.209037
1024.000000	95.234596
1023.000000	95.258879
1022.000000	95.284800
1021.000000	95.317154
1020.000000	95.357774
1019.000000	95.402155
1018.000000	95.443175
1017.000000	95.478627
1016.000000	95.513484
1015.000000	95.554883
1014.000000	95.606839
1013.000000	95.669011
1012.000000	95.738265
1011.000000	95.810678
1010.000000	95.883275
1009.000000	95.954841
1008.000000	96.024874
1007.000000	96.092934
1006.000000	96.159589
1005.000000	96.225921
1004.000000	96.290432
1003.000000	96.348600
1002.000000	96.398043
1001.000000	96.441836
1000.000000	96.484167
999.000000	96.524064
998.000000	96.556985
997.000000	96.581839
996.000000	96.602517
995.000000	96.622789
994.000000	96.642481
993.000000	96.659654
992.000000	96.674388
991.000000	96.688980
990.000000	96.705257
989.000000	96.721858
988.000000	96.734103
987.000000	96.737540
986.000000	96.732113
985.000000	96.722108
984.000000	96.711191
983.000000	96.699222
982.000000	96.685061
981.000000	96.669993
980.000000	96.656194
979.000000	96.642831
978.000000	96.626101
977.000000	96.602883
976.000000	96.572577
975.000000	96.536318
974.000000	96.496648
973.000000	96.457963
972.000000	96.425335
971.000000	96.402096
970.000000	96.388927
969.000000	96.384892
968.000000	96.388686
967.000000	96.399060
966.000000	96.415869
965.000000	96.440362
964.000000	96.472863
963.000000	96.510738
962.000000	96.550140
961.000000	96.590178
960.000000	96.633279
959.000000	96.681048
958.000000	96.732420
957.000000	96.786678
956.000000	96.846599
955.000000	96.916188
954.000000	96.995459
953.000000	97.078724
952.000000	97.158004
951.000000	97.228104
950.000000	97.288902
949.000000	97.343658
948.000000	97.395610
947.000000	97.446033
946.000000	97.494357
945.000000	97.538656
944.000000	97.576740
943.000000	97.608607
942.000000	97.638138
941.000000	97.670001
940.000000	97.703953
939.000000	97.734155
938.000000	97.755254
937.000000	97.768844
936.000000	97.783294
935.000000	97.807957
934.000000	97.846624
933.000000	97.894141
932.000000	97.939266
931.000000	97.972930
930.000000	97.994438
929.000000	98.009162
928.000000	98.021913
927.000000	98.035588
926.000000	98.054668
925.000000	98.084252
924.000000	98.124119
923.000000	98.167421
922.000000	98.207373
921.000000	98.242249
920.000000	98.273081
919.000000	98.300627
918.000000	98.326879
917.000000	98.355559
916.000000	98.388174
915.000000	98.422271
914.000000	98.455590
913.000000	98.488806
912.000000	98.522169
911.000000	98.553316
910.000000	98.581063
909.000000	98.607910
908.000000	98.635641
907.000000	98.662112
906.000000	98.685643
905.000000	98.708517
904.000000	98.731982
903.000000	98.751338
902.000000	98.761732
901.000000	98.766809
900.000000	98.776340
899.000000	98.795216
898.000000	98.818930
897.000000	98.839462
896.000000	98.852406
895.000000	98.858469
894.000000	98.860877
893.000000	98.862069
892.000000	98.860857
891.000000	98.851492
890.000000	98.821540
889.000000	98.745771
888.000000	98.585302
887.000000	98.303442
886.000000	97.896375
885.000000	97.407233
884.000000	96.901163
883.000000	96.421002
882.000000	95.959248
881.000000	95.470846
880.000000	94.914017
879.000000	94.286591
878.000000	93.631309
877.000000	93.016209
876.000000	92.510561
875.000000	92.171659
874.000000	92.043618
873.000000	92.154798
872.000000	92.511929
871.000000	93.083316
870.000000	93.790611
869.000000	94.530085
868.000000	95.209370
867.000000	95.776394
866.000000	96.224992
865.000000	96.580521
864.000000	96.874261
863.000000	97.125396
862.000000	97.339740
861.000000	97.519971
860.000000	97.671927
859.000000	97.801541
858.000000	97.912505
857.000000	98.006767
856.000000	98.085716
855.000000	98.151414
854.000000	98.207380
853.000000	98.254856
852.000000	98.283680
851.000000	98.274280
850.000000	98.220816
849.000000	98.152708
848.000000	98.121645
847.000000	98.158507
846.000000	98.246548
845.000000	98.341759
844.000000	98.413417
843.000000	98.460257
842.000000	98.495146
841.000000	98.526355
840.000000	98.554720
839.000000	98.578679
838.000000	98.595857
837.000000	98.602837
836.000000	98.598084
835.000000	98.585231
834.000000	98.571856
833.000000	98.564880
832.000000	98.567266
831.000000	98.578397
830.000000	98.596604
829.000000	98.621215
828.000000	98.651643
827.000000	98.684541
826.000000	98.714205
825.000000	98.737318
824.000000	98.755495
823.000000	98.771341
822.000000	98.784512
821.000000	98.794249
820.000000	98.803090
819.000000	98.814092
818.000000	98.825927
817.000000	98.834622
816.000000	98.839086
815.000000	98.841285
814.000000	98.841923
813.000000	98.840567
812.000000	98.839846
811.000000	98.843652
810.000000	98.849698
809.000000	98.849393
808.000000	98.838606
807.000000	98.824127
806.000000	98.815500
805.000000	98.813672
804.000000	98.811796
803.000000	98.804624
802.000000	98.792368
801.000000	98.776677
800.000000	98.757515
799.000000	98.734013
798.000000	98.705700
797.000000	98.673647
796.000000	98.642606
795.000000	98.619971
794.000000	98.609202
793.000000	98.605765
792.000000	98.602539
791.000000	98.596751
790.000000	98.588159
789.000000	98.573818
788.000000	98.550992
787.000000	98.524246
786.000000	98.503434
785.000000	98.493278
784.000000	98.489556
783.000000	98.486332
782.000000	98.482160
781.000000	98.477498
780.000000	98.470536
779.000000	98.459058
778.000000	98.444191
777.000000	98.429250
776.000000	98.415848
775.000000	98.402753
774.000000	98.387862
773.000000	98.370536
772.000000	98.352795
771.000000	98.338285
770.000000	98.329008
769.000000	98.323273
768.000000	98.317877
767.000000	98.311228
766.000000	98.302268
765.000000	98.287829
764.000000	98.264522
763.000000	98.233150
762.000000	98.198156
761.000000	98.162262
760.000000	98.124907
759.000000	98.086753
758.000000	98.051987
757.000000	98.023830
756.000000	98.000073
755.000000	97.975783
754.000000	97.950091
753.000000	97.928526
752.000000	97.917923
751.000000	97.919115
750.000000	97.924590
749.000000	97.924370
748.000000	97.914683
747.000000	97.899851
746.000000	97.885785
745.000000	97.873901
744.000000	97.862391
743.000000	97.850109
742.000000	97.836446
741.000000	97.820028
740.000000	97.800588
739.000000	97.780157
738.000000	97.759363
737.000000	97.734969
736.000000	97.704642
735.000000	97.671092
734.000000	97.636300
733.000000	97.594760
732.000000	97.539949
731.000000	97.476722
730.000000	97.419571
729.000000	97.376709
728.000000	97.344318
727.000000	97.317501
726.000000	97.296633
725.000000	97.279618
724.000000	97.256592
723.000000	97.218496
722.000000	97.165003
721.000000	97.097940
720.000000	97.010312
719.000000	96.886239
718.000000	96.706817
717.000000	96.450277
716.000000	96.097174
715.000000	95.657760
714.000000	95.203591
713.000000	94.856546
712.000000	94.722109
711.000000	94.816737
710.000000	95.058417
709.000000	95.327709
708.000000	95.539787
707.000000	95.671577
706.000000	95.738133
705.000000	95.760361
704.000000	95.754567
703.000000	95.734907
702.000000	95.712898
701.000000	95.693429
700.000000	95.674081
699.000000	95.651473
698.000000	95.626548
697.000000	95.604903
696.000000	95.592697
695.000000	95.589268
694.000000	95.587023
693.000000	95.580152
692.000000	95.571484
691.000000	95.569442
690.000000	95.576001
689.000000	95.582195
688.000000	95.578311
687.000000	95.565543
686.000000	95.555366
685.000000	95.556164
684.000000	95.561707
683.000000	95.556429
682.000000	95.532403
681.000000	95.499008
680.000000	95.474518
679.000000	95.469840
678.000000	95.482340
677.000000	95.500888
676.000000	95.518292
675.000000	95.533611
674.000000	95.548266
673.000000	95.564304
672.000000	95.586095
671.000000	95.620017
670.000000	95.673054
669.000000	95.745725
668.000000	95.799015
667.000000	95.798740
666.000000	95.796677
665.000000	95.803957
664.000000	95.807879
663.000000	95.811227
662.000000	95.818929
661.000000	95.830071
660.000000	95.845043
659.000000	95.868220
658.000000	95.894761
657.000000	95.904322
656.000000	95.883748
655.000000	95.840318
654.000000	95.786933
653.000000	95.727974
652.000000	95.668477
651.000000	95.618469
650.000000	95.577500
649.000000	95.529124
648.000000	95.465746
647.000000	95.402236
646.000000	95.350527
645.000000	95.298309
644.000000	95.227641
643.000000	95.140594
642.000000	95.053557
641.000000	94.974920
640.000000	94.903186
639.000000	94.839705
638.000000	94.786850
637.000000	94.741654
636.000000	94.704497
635.000000	94.685293
634.000000	94.691446
633.000000	94.718296
632.000000	94.757140
631.000000	94.800126
630.000000	94.830829
629.000000	94.828154
628.000000	94.792034
627.000000	94.752024
626.000000	94.736057
625.000000	94.740730
624.000000	94.744024
623.000000	94.734202
622.000000	94.713031
621.000000	94.682558
620.000000	94.644956
619.000000	94.607587
618.000000	94.573737
617.000000	94.533328
616.000000	94.475917
615.000000	94.408580
614.000000	94.348436
613.000000	94.304766
612.000000	94.279500
611.000000	94.276724
610.000000	94.298869
609.000000	94.338759
608.000000	94.385688
607.000000	94.435412
606.000000	94.487084
605.000000	94.541784
604.000000	94.610439
603.000000	94.711528
602.000000	94.851189
601.000000	95.012252
600.000000	95.170671
599.000000	95.314448
598.000000	95.441220
597.000000	95.547707
596.000000	95.633124
595.000000	95.706832
594.000000	95.781277
593.000000	95.858350
592.000000	95.929509
591.000000	95.987639
590.000000	96.032822
589.000000	96.068377
588.000000	96.096671
587.000000	96.116439
586.000000	96.122359
585.000000	96.113584
584.000000	96.104868
583.000000	96.117560
582.000000	96.151860
581.000000	96.179663
580.000000	96.175698
579.000000	96.147272
578.000000	96.121745
577.000000	96.115461
576.000000	96.128100
575.000000	96.154730
574.000000	96.187352
573.000000	96.211432
572.000000	96.216824
571.000000	96.209187
570.000000	96.201141
569.000000	96.194715
568.000000	96.184903
567.000000	96.175476
566.000000	96.175100
565.000000	96.180468
564.000000	96.179078
563.000000	96.168909
562.000000	96.162808
561.000000	96.172511
560.000000	96.196222
559.000000	96.222216
558.000000	96.237882
557.000000	96.237669
556.000000	96.228991
555.000000	96.227745
554.000000	96.243018
553.000000	96.268965
552.000000	96.294387
551.000000	96.312623
550.000000	96.319446
549.000000	96.313831
548.000000	96.305171
547.000000	96.305861
546.000000	96.312125
545.000000	96.307726
544.000000	96.295090
543.000000	96.301337
542.000000	96.340308
541.000000	96.387127
540.000000	96.408015
539.000000	96.400265
538.000000	96.383862
537.000000	96.367564
536.000000	96.345919
535.000000	96.321444
534.000000	96.305721
533.000000	96.299817
532.000000	96.292324
531.000000	96.276321
530.000000	96.255451
529.000000	96.237164
528.000000	96.232233
527.000000	96.254302
526.000000	96.303218
525.000000	96.354651
524.000000	96.385524
523.000000	96.395731
522.000000	96.392580
521.000000	96.375427
520.000000	96.349992
519.000000	96.342118
518.000000	96.376519
517.000000	96.446305
516.000000	96.522526
515.000000	96.584355
514.000000	96.624193
513.000000	96.642314
512.000000	96.655108
511.000000	96.690914
510.000000	96.757334
509.000000	96.824987
508.000000	96.859165
507.000000	96.855071
506.000000	96.829415
505.000000	96.795025
504.000000	96.766319
503.000000	96.774039
502.000000	96.836105
501.000000	96.918172
500.000000	96.969147
499.000000	96.983031
498.000000	96.992099
497.000000	97.017263
496.000000	97.047857
495.000000	97.064480
494.000000	97.062248
493.000000	97.051647
492.000000	97.052653
491.000000	97.085762
490.000000	97.151981
489.000000	97.224540
488.000000	97.271901
487.000000	97.281057
486.000000	97.257583
485.000000	97.222110
484.000000	97.213141
483.000000	97.266036
482.000000	97.365363
481.000000	97.447415
480.000000	97.470535
479.000000	97.458434
478.000000	97.457675
477.000000	97.474788
476.000000	97.487059
475.000000	97.496114
474.000000	97.529145
473.000000	97.595299
472.000000	97.671956
471.000000	97.738127
470.000000	97.784411
469.000000	97.793047
468.000000	97.758928
467.000000	97.721607
466.000000	97.732381
465.000000	97.791781
464.000000	97.865608
463.000000	97.947234
462.000000	98.060407
461.000000	98.207746
460.000000	98.358838
459.000000	98.445701
458.000000	98.490677
457.000000	98.470066
456.000000	98.442118
455.000000	98.492279
454.000000	98.645344
453.000000	98.824631
452.000000	98.912568
451.000000	98.880122
450.000000	98.807626
