PE IR       SUBTECH     SPECTRUM    ASCII       PEDS        4.00        
   -1
3C-XXX-C001_1.ASC
23/09/07
10:20:01.00
23/09/07
11:30:09.00
uco
Sample 033 By uco Date Thursday, September 07 2023
450.000000
#HDR
-1
-1
#GR
cm-1
%T
1.0
0.0
4000.000000
-1.000000
3551
8
98.787969
87.328344
#DATA
4000.000000	98.719399
3999.000000	98.717111
3998.000000	98.718289
3997.000000	98.722592
3996.000000	98.727553
3995.000000	98.730322
3994.000000	98.729586
3993.000000	98.726067
3992.000000	98.721472
3991.000000	98.716973
3990.000000	98.712565
3989.000000	98.707714
3988.000000	98.702327
3987.000000	98.697040
3986.000000	98.692702
3985.000000	98.689900
3984.000000	98.689067
3983.000000	98.690590
3982.000000	98.694333
3981.000000	98.699084
3980.000000	98.702892
3979.000000	98.704241
3978.000000	98.702845
3977.000000	98.699475
3976.000000	98.695386
3975.000000	98.692023
3974.000000	98.690764
3973.000000	98.692326
3972.000000	98.696104
3971.000000	98.700206
3970.000000	98.702557
3969.000000	98.702262
3968.000000	98.700138
3967.000000	98.697948
3966.000000	98.696888
3965.000000	98.696755
3964.000000	98.696344
3963.000000	98.694578
3962.000000	98.691312
3961.000000	98.687316
3960.000000	98.683735
3959.000000	98.681565
3958.000000	98.681209
3957.000000	98.682135
3956.000000	98.683015
3955.000000	98.682536
3954.000000	98.680472
3953.000000	98.677980
3952.000000	98.676705
3951.000000	98.677607
3950.000000	98.680436
3949.000000	98.683993
3948.000000	98.686773
3947.000000	98.687574
3946.000000	98.685955
3945.000000	98.682347
3944.000000	98.678030
3943.000000	98.675054
3942.000000	98.675289
3941.000000	98.679094
3940.000000	98.684837
3939.000000	98.689570
3938.000000	98.690496
3937.000000	98.686584
3936.000000	98.679555
3935.000000	98.673213
3934.000000	98.671330
3933.000000	98.675496
3932.000000	98.684006
3931.000000	98.692787
3930.000000	98.698177
3929.000000	98.699083
3928.000000	98.696935
3927.000000	98.694198
3926.000000	98.692455
3925.000000	98.691449
3924.000000	98.689960
3923.000000	98.687611
3922.000000	98.685197
3921.000000	98.683041
3920.000000	98.680032
3919.000000	98.675191
3918.000000	98.669923
3917.000000	98.667534
3916.000000	98.669728
3915.000000	98.674577
3914.000000	98.678306
3913.000000	98.678593
3912.000000	98.675750
3911.000000	98.671741
3910.000000	98.668502
3909.000000	98.666941
3908.000000	98.667244
3907.000000	98.669531
3906.000000	98.674073
3905.000000	98.680721
3904.000000	98.688137
3903.000000	98.693908
3902.000000	98.696124
3901.000000	98.694877
3900.000000	98.691927
3899.000000	98.689209
3898.000000	98.687619
3897.000000	98.687136
3896.000000	98.687312
3895.000000	98.687578
3894.000000	98.687610
3893.000000	98.688186
3892.000000	98.690684
3891.000000	98.695016
3890.000000	98.699247
3889.000000	98.701806
3888.000000	98.703235
3887.000000	98.705132
3886.000000	98.707519
3885.000000	98.708406
3884.000000	98.705933
3883.000000	98.700070
3882.000000	98.692561
3881.000000	98.685969
3880.000000	98.681851
3879.000000	98.679383
3878.000000	98.676653
3877.000000	98.673291
3876.000000	98.670952
3875.000000	98.671203
3874.000000	98.673569
3873.000000	98.676161
3872.000000	98.678532
3871.000000	98.682642
3870.000000	98.689210
3869.000000	98.695234
3868.000000	98.697277
3867.000000	98.694934
3866.000000	98.689576
3865.000000	98.682785
3864.000000	98.676858
3863.000000	98.674105
3862.000000	98.674647
3861.000000	98.676848
3860.000000	98.679438
3859.000000	98.681913
3858.000000	98.682966
3857.000000	98.679954
3856.000000	98.672436
3855.000000	98.664750
3854.000000	98.663186
3853.000000	98.669200
3852.000000	98.676171
3851.000000	98.679465
3850.000000	98.680930
3849.000000	98.682926
3848.000000	98.685301
3847.000000	98.686331
3846.000000	98.684421
3845.000000	98.679854
3844.000000	98.675172
3843.000000	98.673608
3842.000000	98.676869
3841.000000	98.684185
3840.000000	98.693016
3839.000000	98.700373
3838.000000	98.703674
3837.000000	98.701844
3836.000000	98.696295
3835.000000	98.689735
3834.000000	98.684347
3833.000000	98.681129
3832.000000	98.679987
3831.000000	98.680174
3830.000000	98.680795
3829.000000	98.681452
3828.000000	98.682362
3827.000000	98.683209
3826.000000	98.681973
3825.000000	98.675869
3824.000000	98.664216
3823.000000	98.650733
3822.000000	98.642323
3821.000000	98.643870
3820.000000	98.652204
3819.000000	98.659594
3818.000000	98.663901
3817.000000	98.668998
3816.000000	98.676802
3815.000000	98.683113
3814.000000	98.683478
3813.000000	98.678658
3812.000000	98.671995
3811.000000	98.665471
3810.000000	98.659569
3809.000000	98.655801
3808.000000	98.656978
3807.000000	98.663784
3806.000000	98.672690
3805.000000	98.679220
3804.000000	98.682478
3803.000000	98.685425
3802.000000	98.689812
3801.000000	98.691823
3800.000000	98.686920
3799.000000	98.677220
3798.000000	98.669421
3797.000000	98.667647
3796.000000	98.669518
3795.000000	98.669088
3794.000000	98.663711
3793.000000	98.656056
3792.000000	98.650713
3791.000000	98.650211
3790.000000	98.653386
3789.000000	98.656582
3788.000000	98.656894
3787.000000	98.654846
3786.000000	98.654009
3785.000000	98.657396
3784.000000	98.664034
3783.000000	98.670042
3782.000000	98.672456
3781.000000	98.671072
3780.000000	98.667431
3779.000000	98.663300
3778.000000	98.659855
3777.000000	98.658016
3776.000000	98.658532
3775.000000	98.660947
3774.000000	98.663097
3773.000000	98.662732
3772.000000	98.659662
3771.000000	98.656061
3770.000000	98.654611
3769.000000	98.656171
3768.000000	98.659812
3767.000000	98.665047
3766.000000	98.672029
3765.000000	98.679263
3764.000000	98.683675
3763.000000	98.683879
3762.000000	98.681628
3761.000000	98.679591
3760.000000	98.679066
3759.000000	98.680103
3758.000000	98.682453
3757.000000	98.686212
3756.000000	98.691455
3755.000000	98.697642
3754.000000	98.703589
3753.000000	98.707749
3752.000000	98.709704
3751.000000	98.711171
3750.000000	98.713012
3749.000000	98.713642
3748.000000	98.711673
3747.000000	98.708979
3746.000000	98.712203
3745.000000	98.724957
3744.000000	98.737711
3743.000000	98.738549
3742.000000	98.728723
3741.000000	98.716628
3740.000000	98.707727
3739.000000	98.703833
3738.000000	98.705473
3737.000000	98.711610
3736.000000	98.718644
3735.000000	98.722473
3734.000000	98.722587
3733.000000	98.722074
3732.000000	98.722916
3731.000000	98.723926
3730.000000	98.723596
3729.000000	98.722560
3728.000000	98.722391
3727.000000	98.722842
3726.000000	98.721731
3725.000000	98.718157
3724.000000	98.713899
3723.000000	98.710862
3722.000000	98.708450
3721.000000	98.704994
3720.000000	98.701343
3719.000000	98.701290
3718.000000	98.707435
3717.000000	98.717791
3716.000000	98.727133
3715.000000	98.731220
3714.000000	98.729465
3713.000000	98.724974
3712.000000	98.722376
3711.000000	98.723012
3710.000000	98.723061
3709.000000	98.719181
3708.000000	98.712702
3707.000000	98.707039
3706.000000	98.704146
3705.000000	98.703672
3704.000000	98.704267
3703.000000	98.705335
3702.000000	98.707641
3701.000000	98.711727
3700.000000	98.716345
3699.000000	98.719725
3698.000000	98.721199
3697.000000	98.720925
3696.000000	98.719290
3695.000000	98.717398
3694.000000	98.717081
3693.000000	98.719526
3692.000000	98.723527
3691.000000	98.726056
3690.000000	98.725794
3689.000000	98.724445
3688.000000	98.723571
3687.000000	98.722530
3686.000000	98.720029
3685.000000	98.715115
3684.000000	98.707256
3683.000000	98.697007
3682.000000	98.686940
3681.000000	98.680244
3680.000000	98.677282
3679.000000	98.674588
3678.000000	98.669170
3677.000000	98.663268
3676.000000	98.662742
3675.000000	98.668280
3674.000000	98.672527
3673.000000	98.670370
3672.000000	98.664704
3671.000000	98.661441
3670.000000	98.662072
3669.000000	98.661146
3668.000000	98.653672
3667.000000	98.641440
3666.000000	98.629222
3665.000000	98.619562
3664.000000	98.611842
3663.000000	98.604220
3662.000000	98.596308
3661.000000	98.589879
3660.000000	98.587125
3659.000000	98.588508
3658.000000	98.592338
3657.000000	98.595436
3656.000000	98.595006
3655.000000	98.590989
3654.000000	98.585674
3653.000000	98.581210
3652.000000	98.577470
3651.000000	98.570780
3650.000000	98.557553
3649.000000	98.540901
3648.000000	98.528333
3647.000000	98.522243
3646.000000	98.517892
3645.000000	98.510037
3644.000000	98.498068
3643.000000	98.485550
3642.000000	98.476190
3641.000000	98.470467
3640.000000	98.466134
3639.000000	98.461084
3638.000000	98.454769
3637.000000	98.447621
3636.000000	98.440560
3635.000000	98.434794
3634.000000	98.430849
3633.000000	98.427527
3632.000000	98.422586
3631.000000	98.415040
3630.000000	98.405896
3629.000000	98.396965
3628.000000	98.388144
3627.000000	98.377249
3626.000000	98.363943
3625.000000	98.350337
3624.000000	98.338539
3623.000000	98.328909
3622.000000	98.319670
3621.000000	98.307914
3620.000000	98.292440
3619.000000	98.276117
3618.000000	98.263015
3617.000000	98.253643
3616.000000	98.245344
3615.000000	98.235483
3614.000000	98.223269
3613.000000	98.210146
3612.000000	98.198615
3611.000000	98.190007
3610.000000	98.183262
3609.000000	98.175638
3608.000000	98.165060
3607.000000	98.151821
3606.000000	98.137854
3605.000000	98.125053
3604.000000	98.114411
3603.000000	98.105688
3602.000000	98.097361
3601.000000	98.087612
3600.000000	98.076296
3599.000000	98.065096
3598.000000	98.054624
3597.000000	98.042387
3596.000000	98.025099
3595.000000	98.003363
3594.000000	97.982799
3593.000000	97.969012
3592.000000	97.962040
3591.000000	97.956513
3590.000000	97.945692
3589.000000	97.925768
3588.000000	97.900192
3587.000000	97.878516
3586.000000	97.866459
3585.000000	97.860548
3584.000000	97.853471
3583.000000	97.840023
3582.000000	97.819222
3581.000000	97.794546
3580.000000	97.772118
3579.000000	97.756754
3578.000000	97.748469
3577.000000	97.742937
3576.000000	97.734998
3575.000000	97.721737
3574.000000	97.703164
3573.000000	97.681822
3572.000000	97.662128
3571.000000	97.648651
3570.000000	97.642808
3569.000000	97.639945
3568.000000	97.630842
3567.000000	97.610053
3566.000000	97.582177
3565.000000	97.556196
3564.000000	97.536200
3563.000000	97.520380
3562.000000	97.505160
3561.000000	97.488461
3560.000000	97.470315
3559.000000	97.451681
3558.000000	97.433240
3557.000000	97.415209
3556.000000	97.397693
3555.000000	97.380623
3554.000000	97.363420
3553.000000	97.345235
3552.000000	97.326045
3551.000000	97.307326
3550.000000	97.291131
3549.000000	97.278166
3548.000000	97.266794
3547.000000	97.254263
3546.000000	97.239379
3545.000000	97.223571
3544.000000	97.208385
3543.000000	97.192549
3542.000000	97.172901
3541.000000	97.148385
3540.000000	97.122361
3539.000000	97.100351
3538.000000	97.085123
3537.000000	97.074098
3536.000000	97.061744
3535.000000	97.044524
3534.000000	97.023322
3533.000000	97.001780
3532.000000	96.983258
3531.000000	96.968939
3530.000000	96.957639
3529.000000	96.947083
3528.000000	96.935726
3527.000000	96.923387
3526.000000	96.910063
3525.000000	96.894701
3524.000000	96.875903
3523.000000	96.853879
3522.000000	96.831056
3521.000000	96.810402
3520.000000	96.793317
3519.000000	96.778949
3518.000000	96.764946
3517.000000	96.749017
3516.000000	96.730674
3515.000000	96.711909
3514.000000	96.695918
3513.000000	96.684416
3512.000000	96.675876
3511.000000	96.666614
3510.000000	96.654003
3509.000000	96.638565
3508.000000	96.622766
3507.000000	96.608309
3506.000000	96.595100
3505.000000	96.582204
3504.000000	96.568940
3503.000000	96.555165
3502.000000	96.541222
3501.000000	96.527917
3500.000000	96.516010
3499.000000	96.505292
3498.000000	96.494474
3497.000000	96.482270
3496.000000	96.468396
3495.000000	96.453300
3494.000000	96.437365
3493.000000	96.420996
3492.000000	96.405161
3491.000000	96.391065
3490.000000	96.379159
3489.000000	96.368760
3488.000000	96.358785
3487.000000	96.348579
3486.000000	96.337748
3485.000000	96.325280
3484.000000	96.309365
3483.000000	96.288921
3482.000000	96.265917
3481.000000	96.245530
3480.000000	96.232728
3479.000000	96.228289
3478.000000	96.228529
3477.000000	96.228538
3476.000000	96.225231
3475.000000	96.218037
3474.000000	96.207962
3473.000000	96.196441
3472.000000	96.184301
3471.000000	96.171020
3470.000000	96.155420
3469.000000	96.137610
3468.000000	96.119762
3467.000000	96.104285
3466.000000	96.091687
3465.000000	96.081014
3464.000000	96.071829
3463.000000	96.064575
3462.000000	96.058917
3461.000000	96.052885
3460.000000	96.044373
3459.000000	96.033118
3458.000000	96.020835
3457.000000	96.009596
3456.000000	95.999982
3455.000000	95.990502
3454.000000	95.978947
3453.000000	95.964692
3452.000000	95.949687
3451.000000	95.937067
3450.000000	95.928799
3449.000000	95.924624
3448.000000	95.922441
3447.000000	95.919062
3446.000000	95.911253
3445.000000	95.897357
3444.000000	95.878430
3443.000000	95.857790
3442.000000	95.839261
3441.000000	95.825293
3440.000000	95.815947
3439.000000	95.809126
3438.000000	95.802005
3437.000000	95.793036
3436.000000	95.782930
3435.000000	95.773421
3434.000000	95.765002
3433.000000	95.756129
3432.000000	95.744742
3431.000000	95.730262
3430.000000	95.714013
3429.000000	95.697968
3428.000000	95.683310
3427.000000	95.670118
3426.000000	95.658246
3425.000000	95.648149
3424.000000	95.640371
3423.000000	95.634067
3422.000000	95.626579
3421.000000	95.615297
3420.000000	95.600111
3419.000000	95.583619
3418.000000	95.568822
3417.000000	95.556960
3416.000000	95.547342
3415.000000	95.538543
3414.000000	95.529537
3413.000000	95.519972
3412.000000	95.509678
3411.000000	95.498227
3410.000000	95.485442
3409.000000	95.472446
3408.000000	95.461538
3407.000000	95.454186
3406.000000	95.449151
3405.000000	95.443242
3404.000000	95.434283
3403.000000	95.423155
3402.000000	95.412807
3401.000000	95.405391
3400.000000	95.400294
3399.000000	95.394552
3398.000000	95.385141
3397.000000	95.371388
3396.000000	95.355485
3395.000000	95.340569
3394.000000	95.328111
3393.000000	95.317041
3392.000000	95.305259
3391.000000	95.291846
3390.000000	95.277861
3389.000000	95.265271
3388.000000	95.255432
3387.000000	95.248447
3386.000000	95.243440
3385.000000	95.238917
3384.000000	95.232949
3383.000000	95.223824
3382.000000	95.211333
3381.000000	95.197350
3380.000000	95.184504
3379.000000	95.173960
3378.000000	95.164747
3377.000000	95.155092
3376.000000	95.143772
3375.000000	95.130154
3374.000000	95.113944
3373.000000	95.095780
3372.000000	95.077704
3371.000000	95.062072
3370.000000	95.049588
3369.000000	95.038601
3368.000000	95.026460
3367.000000	95.011549
3366.000000	94.994242
3365.000000	94.976103
3364.000000	94.958203
3363.000000	94.940184
3362.000000	94.921016
3361.000000	94.900555
3360.000000	94.880046
3359.000000	94.861050
3358.000000	94.844077
3357.000000	94.828242
3356.000000	94.811963
3355.000000	94.794034
3354.000000	94.774375
3353.000000	94.753761
3352.000000	94.732619
3351.000000	94.710375
3350.000000	94.686558
3349.000000	94.662156
3348.000000	94.638892
3347.000000	94.617110
3346.000000	94.595364
3345.000000	94.572445
3344.000000	94.548928
3343.000000	94.526197
3342.000000	94.504818
3341.000000	94.484649
3340.000000	94.465785
3339.000000	94.448474
3338.000000	94.432365
3337.000000	94.416460
3336.000000	94.399694
3335.000000	94.381288
3334.000000	94.361096
3333.000000	94.340178
3332.000000	94.320494
3331.000000	94.303295
3330.000000	94.287897
3329.000000	94.272379
3328.000000	94.255183
3327.000000	94.235928
3326.000000	94.215394
3325.000000	94.195335
3324.000000	94.177778
3323.000000	94.163675
3322.000000	94.152267
3321.000000	94.142075
3320.000000	94.131999
3319.000000	94.121256
3318.000000	94.109155
3317.000000	94.095755
3316.000000	94.082274
3315.000000	94.070006
3314.000000	94.059082
3313.000000	94.048811
3312.000000	94.038577
3311.000000	94.027784
3310.000000	94.015738
3309.000000	94.002738
3308.000000	93.990842
3307.000000	93.982178
3306.000000	93.976459
3305.000000	93.971039
3304.000000	93.963344
3303.000000	93.952763
3302.000000	93.940697
3301.000000	93.929740
3300.000000	93.922429
3299.000000	93.919370
3298.000000	93.918329
3297.000000	93.916037
3296.000000	93.911062
3295.000000	93.904310
3294.000000	93.896968
3293.000000	93.889374
3292.000000	93.882040
3291.000000	93.876195
3290.000000	93.872345
3289.000000	93.869060
3288.000000	93.864244
3287.000000	93.857602
3286.000000	93.851462
3285.000000	93.849208
3284.000000	93.852590
3283.000000	93.859742
3282.000000	93.865725
3281.000000	93.866174
3280.000000	93.861297
3279.000000	93.855915
3278.000000	93.855156
3277.000000	93.860310
3276.000000	93.869060
3275.000000	93.878901
3274.000000	93.888873
3273.000000	93.898195
3272.000000	93.904871
3271.000000	93.906920
3270.000000	93.904826
3269.000000	93.901931
3268.000000	93.902188
3267.000000	93.907586
3266.000000	93.917396
3265.000000	93.929253
3264.000000	93.940768
3263.000000	93.950701
3262.000000	93.959324
3261.000000	93.967814
3260.000000	93.976951
3259.000000	93.986337
3258.000000	93.995101
3257.000000	94.003229
3256.000000	94.011751
3255.000000	94.021686
3254.000000	94.033290
3253.000000	94.046419
3252.000000	94.060940
3251.000000	94.076361
3250.000000	94.091473
3249.000000	94.104910
3248.000000	94.115978
3247.000000	94.124693
3246.000000	94.131232
3245.000000	94.135697
3244.000000	94.138392
3243.000000	94.140156
3242.000000	94.142461
3241.000000	94.147170
3240.000000	94.155830
3239.000000	94.168827
3238.000000	94.185191
3237.000000	94.203100
3236.000000	94.220445
3235.000000	94.235420
3234.000000	94.247340
3233.000000	94.256887
3232.000000	94.264914
3231.000000	94.271032
3230.000000	94.274262
3229.000000	94.275205
3228.000000	94.276461
3227.000000	94.280320
3226.000000	94.286911
3225.000000	94.295208
3224.000000	94.304788
3223.000000	94.315638
3222.000000	94.327164
3221.000000	94.338740
3220.000000	94.350736
3219.000000	94.363513
3218.000000	94.375557
3217.000000	94.384332
3216.000000	94.389391
3215.000000	94.393469
3214.000000	94.399666
3213.000000	94.408261
3212.000000	94.417097
3211.000000	94.424517
3210.000000	94.430990
3209.000000	94.437794
3208.000000	94.445065
3207.000000	94.451922
3206.000000	94.458482
3205.000000	94.466821
3204.000000	94.478982
3203.000000	94.493997
3202.000000	94.508001
3201.000000	94.517966
3200.000000	94.524786
3199.000000	94.532085
3198.000000	94.542413
3197.000000	94.555388
3196.000000	94.568945
3195.000000	94.581477
3194.000000	94.593044
3193.000000	94.605632
3192.000000	94.622120
3191.000000	94.643533
3190.000000	94.666893
3189.000000	94.686805
3188.000000	94.699987
3187.000000	94.707918
3186.000000	94.715154
3185.000000	94.725882
3184.000000	94.741994
3183.000000	94.762918
3182.000000	94.785952
3181.000000	94.807457
3180.000000	94.824966
3179.000000	94.838467
3178.000000	94.849601
3177.000000	94.860128
3176.000000	94.871655
3175.000000	94.885793
3174.000000	94.903051
3173.000000	94.921525
3172.000000	94.937857
3171.000000	94.950246
3170.000000	94.960229
3169.000000	94.971435
3168.000000	94.986824
3167.000000	95.006874
3166.000000	95.029545
3165.000000	95.051526
3164.000000	95.070078
3163.000000	95.084364
3162.000000	95.095380
3161.000000	95.104910
3160.000000	95.114932
3159.000000	95.127625
3158.000000	95.144560
3157.000000	95.164933
3156.000000	95.185040
3155.000000	95.200791
3154.000000	95.211283
3153.000000	95.219565
3152.000000	95.229618
3151.000000	95.242972
3150.000000	95.258493
3149.000000	95.274812
3148.000000	95.291977
3147.000000	95.310543
3146.000000	95.329998
3145.000000	95.348901
3144.000000	95.366395
3143.000000	95.382847
3142.000000	95.398749
3141.000000	95.413585
3140.000000	95.426378
3139.000000	95.437166
3138.000000	95.447363
3137.000000	95.458484
3136.000000	95.470553
3135.000000	95.481794
3134.000000	95.489900
3133.000000	95.493953
3132.000000	95.495469
3131.000000	95.497339
3130.000000	95.501490
3129.000000	95.507641
3128.000000	95.514531
3127.000000	95.522002
3126.000000	95.531261
3125.000000	95.542993
3124.000000	95.555767
3123.000000	95.566657
3122.000000	95.573264
3121.000000	95.575178
3120.000000	95.574084
3119.000000	95.572792
3118.000000	95.573537
3117.000000	95.576511
3116.000000	95.580072
3115.000000	95.582782
3114.000000	95.584864
3113.000000	95.587123
3112.000000	95.589119
3111.000000	95.589562
3110.000000	95.588489
3109.000000	95.587609
3108.000000	95.587803
3107.000000	95.587273
3106.000000	95.583302
3105.000000	95.575521
3104.000000	95.566552
3103.000000	95.559418
3102.000000	95.554835
3101.000000	95.551010
3100.000000	95.545612
3099.000000	95.537926
3098.000000	95.529443
3097.000000	95.522488
3096.000000	95.518208
3095.000000	95.515842
3094.000000	95.513824
3093.000000	95.511068
3092.000000	95.506976
3091.000000	95.501054
3090.000000	95.493405
3089.000000	95.485255
3088.000000	95.477983
3087.000000	95.471525
3086.000000	95.464459
3085.000000	95.455854
3084.000000	95.446515
3083.000000	95.438191
3082.000000	95.432041
3081.000000	95.428127
3080.000000	95.426036
3079.000000	95.425549
3078.000000	95.426548
3077.000000	95.428277
3076.000000	95.428944
3075.000000	95.426809
3074.000000	95.422143
3073.000000	95.417678
3072.000000	95.416389
3071.000000	95.418887
3070.000000	95.423525
3069.000000	95.428636
3068.000000	95.433800
3067.000000	95.439093
3066.000000	95.444349
3065.000000	95.449764
3064.000000	95.456284
3063.000000	95.464772
3062.000000	95.475260
3061.000000	95.487362
3060.000000	95.500746
3059.000000	95.514664
3058.000000	95.527721
3057.000000	95.539017
3056.000000	95.549363
3055.000000	95.560696
3054.000000	95.574198
3053.000000	95.589258
3052.000000	95.604149
3051.000000	95.617512
3050.000000	95.629531
3049.000000	95.642023
3048.000000	95.657073
3047.000000	95.675136
3046.000000	95.694600
3045.000000	95.713410
3044.000000	95.730862
3043.000000	95.747491
3042.000000	95.763636
3041.000000	95.778883
3040.000000	95.793055
3039.000000	95.807115
3038.000000	95.822576
3037.000000	95.840047
3036.000000	95.858731
3035.000000	95.877328
3034.000000	95.895079
3033.000000	95.911747
3032.000000	95.926990
3031.000000	95.940391
3030.000000	95.952201
3029.000000	95.963481
3028.000000	95.975200
3027.000000	95.987496
3026.000000	96.000122
3025.000000	96.013093
3024.000000	96.026295
3023.000000	96.038860
3022.000000	96.049878
3021.000000	96.059845
3020.000000	96.070538
3019.000000	96.083038
3018.000000	96.096411
3017.000000	96.108719
3016.000000	96.119054
3015.000000	96.128287
3014.000000	96.137930
3013.000000	96.148342
3012.000000	96.157847
3011.000000	96.163759
3010.000000	96.164779
3009.000000	96.162461
3008.000000	96.160112
3007.000000	96.160320
3006.000000	96.163715
3005.000000	96.169287
3004.000000	96.174750
3003.000000	96.176972
3002.000000	96.173858
3001.000000	96.166776
3000.000000	96.160059
2999.000000	96.157065
2998.000000	96.156978
2997.000000	96.156037
2996.000000	96.151296
2995.000000	96.142518
2994.000000	96.131195
2993.000000	96.118961
2992.000000	96.106914
2991.000000	96.095333
2990.000000	96.083641
2989.000000	96.071010
2988.000000	96.057165
2987.000000	96.042327
2986.000000	96.026596
2985.000000	96.010015
2984.000000	95.993243
2983.000000	95.977542
2982.000000	95.963609
2981.000000	95.950518
2980.000000	95.936093
2979.000000	95.918639
2978.000000	95.898591
2977.000000	95.878375
2976.000000	95.860244
2975.000000	95.844156
2974.000000	95.828089
2973.000000	95.810371
2972.000000	95.790993
2971.000000	95.770495
2970.000000	95.748641
2969.000000	95.725055
2968.000000	95.700558
2967.000000	95.676733
2966.000000	95.654150
2965.000000	95.631948
2964.000000	95.609458
2963.000000	95.587752
2962.000000	95.569182
2961.000000	95.555425
2960.000000	95.545901
2959.000000	95.538009
2958.000000	95.529312
2957.000000	95.519819
2956.000000	95.512124
2955.000000	95.509061
2954.000000	95.511394
2953.000000	95.517777
2952.000000	95.526185
2951.000000	95.534711
2950.000000	95.541258
2949.000000	95.543558
2948.000000	95.539983
2947.000000	95.530292
2946.000000	95.515720
2945.000000	95.498592
2944.000000	95.481518
2943.000000	95.465917
2942.000000	95.450820
2941.000000	95.433354
2940.000000	95.411116
2939.000000	95.384470
2938.000000	95.356596
2937.000000	95.331090
2936.000000	95.309116
2935.000000	95.288918
2934.000000	95.268345
2933.000000	95.247822
2932.000000	95.230357
2931.000000	95.218416
2930.000000	95.211296
2929.000000	95.205971
2928.000000	95.200291
2927.000000	95.194985
2926.000000	95.192724
2925.000000	95.195821
2924.000000	95.204817
2923.000000	95.218974
2922.000000	95.237803
2921.000000	95.261981
2920.000000	95.292501
2919.000000	95.328732
2918.000000	95.367758
2917.000000	95.406151
2916.000000	95.442712
2915.000000	95.479292
2914.000000	95.518765
2913.000000	95.562161
2912.000000	95.607683
2911.000000	95.652350
2910.000000	95.694225
2909.000000	95.732921
2908.000000	95.768313
2907.000000	95.799597
2906.000000	95.826177
2905.000000	95.849137
2904.000000	95.871047
2903.000000	95.894081
2902.000000	95.918541
2901.000000	95.943202
2900.000000	95.966634
2899.000000	95.987994
2898.000000	96.007174
2897.000000	96.024659
2896.000000	96.041023
2895.000000	96.056192
2894.000000	96.069324
2893.000000	96.079695
2892.000000	96.087593
2891.000000	96.094126
2890.000000	96.100181
2889.000000	96.105622
2888.000000	96.109420
2887.000000	96.110552
2886.000000	96.108921
2885.000000	96.105396
2884.000000	96.100897
2883.000000	96.095716
2882.000000	96.089980
2881.000000	96.084329
2880.000000	96.079450
2879.000000	96.075125
2878.000000	96.070486
2877.000000	96.065195
2876.000000	96.059557
2875.000000	96.053559
2874.000000	96.047087
2873.000000	96.041632
2872.000000	96.040771
2871.000000	96.047866
2870.000000	96.063321
2869.000000	96.084294
2868.000000	96.106623
2867.000000	96.126760
2866.000000	96.142793
2865.000000	96.154585
2864.000000	96.162791
2863.000000	96.167479
2862.000000	96.168173
2861.000000	96.165723
2860.000000	96.163091
2859.000000	96.162926
2858.000000	96.164593
2857.000000	96.164839
2856.000000	96.161767
2855.000000	96.157376
2854.000000	96.156157
2853.000000	96.161800
2852.000000	96.175433
2851.000000	96.196295
2850.000000	96.223228
2849.000000	96.255384
2848.000000	96.291726
2847.000000	96.330288
2846.000000	96.368502
2845.000000	96.404577
2844.000000	96.438274
2843.000000	96.470137
2842.000000	96.500145
2841.000000	96.527331
2840.000000	96.550634
2839.000000	96.569873
2838.000000	96.586060
2837.000000	96.600872
2836.000000	96.615463
2835.000000	96.629602
2834.000000	96.642312
2833.000000	96.653418
2832.000000	96.664020
2831.000000	96.675215
2830.000000	96.686982
2829.000000	96.698670
2828.000000	96.709797
2827.000000	96.719723
2826.000000	96.727266
2825.000000	96.731748
2824.000000	96.734262
2823.000000	96.737047
2822.000000	96.741682
2821.000000	96.748487
2820.000000	96.757324
2819.000000	96.767848
2818.000000	96.778867
2817.000000	96.788457
2816.000000	96.795301
2815.000000	96.799629
2814.000000	96.802771
2813.000000	96.806209
2812.000000	96.810979
2811.000000	96.817293
2810.000000	96.824521
2809.000000	96.831941
2808.000000	96.839560
2807.000000	96.847682
2806.000000	96.855668
2805.000000	96.861872
2804.000000	96.865216
2803.000000	96.866352
2802.000000	96.866930
2801.000000	96.868164
2800.000000	96.870499
2799.000000	96.874275
2798.000000	96.880060
2797.000000	96.888158
2796.000000	96.897985
2795.000000	96.908010
2794.000000	96.916317
2793.000000	96.921432
2792.000000	96.923039
2791.000000	96.922275
2790.000000	96.921511
2789.000000	96.923555
2788.000000	96.930252
2787.000000	96.941181
2786.000000	96.953670
2785.000000	96.964528
2784.000000	96.972097
2783.000000	96.976875
2782.000000	96.980563
2781.000000	96.984750
2780.000000	96.990074
2779.000000	96.995992
2778.000000	97.001212
2777.000000	97.004727
2776.000000	97.006711
2775.000000	97.008438
2774.000000	97.011372
2773.000000	97.016370
2772.000000	97.023390
2771.000000	97.031553
2770.000000	97.039604
2769.000000	97.046663
2768.000000	97.052672
2767.000000	97.058094
2766.000000	97.063350
2765.000000	97.068595
2764.000000	97.073673
2763.000000	97.078097
2762.000000	97.081467
2761.000000	97.084251
2760.000000	97.087672
2759.000000	97.092365
2758.000000	97.097571
2757.000000	97.102277
2756.000000	97.106755
2755.000000	97.112101
2754.000000	97.118363
2753.000000	97.124030
2752.000000	97.127563
2751.000000	97.128819
2750.000000	97.128813
2749.000000	97.128794
2748.000000	97.129836
2747.000000	97.132634
2746.000000	97.137076
2745.000000	97.142348
2744.000000	97.147986
2743.000000	97.154583
2742.000000	97.162824
2741.000000	97.171777
2740.000000	97.178749
2739.000000	97.181437
2738.000000	97.180320
2737.000000	97.178685
2736.000000	97.180001
2735.000000	97.185200
2734.000000	97.192492
2733.000000	97.199526
2732.000000	97.205339
2731.000000	97.210260
2730.000000	97.214765
2729.000000	97.219124
2728.000000	97.223937
2727.000000	97.230187
2726.000000	97.238267
2725.000000	97.247158
2724.000000	97.254950
2723.000000	97.260322
2722.000000	97.263449
2721.000000	97.265505
2720.000000	97.267513
2719.000000	97.269808
2718.000000	97.272422
2717.000000	97.275405
2716.000000	97.278538
2715.000000	97.281156
2714.000000	97.282768
2713.000000	97.283668
2712.000000	97.284583
2711.000000	97.286005
2710.000000	97.288360
2709.000000	97.292357
2708.000000	97.298217
2707.000000	97.304751
2706.000000	97.310280
2705.000000	97.314511
2704.000000	97.318327
2703.000000	97.321558
2702.000000	97.322552
2701.000000	97.320844
2700.000000	97.318943
2699.000000	97.319993
2698.000000	97.324361
2697.000000	97.329851
2696.000000	97.334738
2695.000000	97.338967
2694.000000	97.342455
2693.000000	97.343996
2692.000000	97.342734
2691.000000	97.339731
2690.000000	97.337160
2689.000000	97.336286
2688.000000	97.336932
2687.000000	97.338723
2686.000000	97.342169
2685.000000	97.348094
2684.000000	97.356042
2683.000000	97.363669
2682.000000	97.368300
2681.000000	97.369381
2680.000000	97.369052
2679.000000	97.370002
2678.000000	97.373017
2677.000000	97.376892
2676.000000	97.380163
2675.000000	97.382231
2674.000000	97.383042
2673.000000	97.382658
2672.000000	97.381533
2671.000000	97.380630
2670.000000	97.380702
2669.000000	97.381474
2668.000000	97.381743
2667.000000	97.380380
2666.000000	97.377272
2665.000000	97.373460
2664.000000	97.370445
2663.000000	97.369288
2662.000000	97.370099
2661.000000	97.371967
2660.000000	97.373212
2659.000000	97.372178
2658.000000	97.368507
2657.000000	97.363753
2656.000000	97.360418
2655.000000	97.360360
2654.000000	97.364287
2653.000000	97.372151
2652.000000	97.382774
2651.000000	97.393238
2650.000000	97.400262
2649.000000	97.403248
2648.000000	97.405290
2647.000000	97.410191
2646.000000	97.418787
2645.000000	97.428625
2644.000000	97.436599
2643.000000	97.441169
2642.000000	97.442769
2641.000000	97.443291
2640.000000	97.445271
2639.000000	97.450685
2638.000000	97.459797
2637.000000	97.470725
2636.000000	97.479883
2635.000000	97.483676
2634.000000	97.481414
2633.000000	97.476967
2632.000000	97.476086
2631.000000	97.481142
2630.000000	97.489541
2629.000000	97.498062
2628.000000	97.507090
2627.000000	97.518882
2626.000000	97.532728
2625.000000	97.544153
2624.000000	97.549245
2623.000000	97.548355
2622.000000	97.545294
2621.000000	97.543936
2620.000000	97.545807
2619.000000	97.550120
2618.000000	97.555544
2617.000000	97.561794
2616.000000	97.569106
2615.000000	97.576494
2614.000000	97.582108
2613.000000	97.586096
2612.000000	97.591494
2611.000000	97.600441
2610.000000	97.610483
2609.000000	97.616640
2608.000000	97.616931
2607.000000	97.614360
2606.000000	97.613560
2605.000000	97.617089
2604.000000	97.624870
2603.000000	97.635250
2602.000000	97.645569
2601.000000	97.652649
2600.000000	97.654023
2599.000000	97.649467
2598.000000	97.641829
2597.000000	97.636164
2596.000000	97.636670
2595.000000	97.643429
2594.000000	97.652500
2593.000000	97.659708
2592.000000	97.663912
2591.000000	97.666709
2590.000000	97.670407
2589.000000	97.676608
2588.000000	97.684876
2587.000000	97.691863
2586.000000	97.693652
2585.000000	97.690282
2584.000000	97.686375
2583.000000	97.685830
2582.000000	97.687786
2581.000000	97.689473
2580.000000	97.690727
2579.000000	97.693148
2578.000000	97.696399
2577.000000	97.698435
2576.000000	97.698596
2575.000000	97.698112
2574.000000	97.698249
2573.000000	97.700051
2572.000000	97.704621
2571.000000	97.711144
2570.000000	97.715988
2569.000000	97.716901
2568.000000	97.717259
2567.000000	97.722849
2566.000000	97.734759
2565.000000	97.748404
2564.000000	97.759167
2563.000000	97.765695
2562.000000	97.767669
2561.000000	97.764232
2560.000000	97.755897
2559.000000	97.745576
2558.000000	97.736746
2557.000000	97.732166
2556.000000	97.733982
2555.000000	97.742171
2554.000000	97.752496
2553.000000	97.758851
2552.000000	97.758666
2551.000000	97.754269
2550.000000	97.749053
2549.000000	97.744889
2548.000000	97.743377
2547.000000	97.746341
2546.000000	97.753698
2545.000000	97.762953
2544.000000	97.771646
2543.000000	97.778443
2542.000000	97.781672
2541.000000	97.779746
2540.000000	97.774208
2539.000000	97.769680
2538.000000	97.769219
2537.000000	97.771627
2536.000000	97.774728
2535.000000	97.779279
2534.000000	97.787753
2533.000000	97.800375
2532.000000	97.813666
2531.000000	97.822289
2530.000000	97.822155
2529.000000	97.813418
2528.000000	97.801382
2527.000000	97.792920
2526.000000	97.790848
2525.000000	97.792529
2524.000000	97.794005
2523.000000	97.793848
2522.000000	97.792824
2521.000000	97.792182
2520.000000	97.793594
2519.000000	97.798789
2518.000000	97.807078
2517.000000	97.814136
2516.000000	97.815372
2515.000000	97.810808
2514.000000	97.805768
2513.000000	97.806361
2512.000000	97.814214
2511.000000	97.825264
2510.000000	97.833439
2509.000000	97.835618
2508.000000	97.833083
2507.000000	97.828722
2506.000000	97.824424
2505.000000	97.821919
2504.000000	97.824109
2503.000000	97.832963
2502.000000	97.846254
2501.000000	97.858345
2500.000000	97.864551
2499.000000	97.864004
2498.000000	97.859073
2497.000000	97.853680
2496.000000	97.851451
2495.000000	97.853269
2494.000000	97.856488
2493.000000	97.858302
2492.000000	97.859544
2491.000000	97.863095
2490.000000	97.868983
2489.000000	97.873907
2488.000000	97.876434
2487.000000	97.879905
2486.000000	97.888255
2485.000000	97.900296
2484.000000	97.909809
2483.000000	97.911182
2482.000000	97.904322
2481.000000	97.894233
2480.000000	97.886263
2479.000000	97.881585
2478.000000	97.877463
2477.000000	97.871807
2476.000000	97.866200
2475.000000	97.863841
2474.000000	97.865836
2473.000000	97.870887
2472.000000	97.877435
2471.000000	97.884401
2470.000000	97.890556
2469.000000	97.894876
2468.000000	97.897145
2467.000000	97.897025
2466.000000	97.893692
2465.000000	97.888094
2464.000000	97.884271
2463.000000	97.885965
2462.000000	97.892516
2461.000000	97.900082
2460.000000	97.906013
2459.000000	97.909605
2458.000000	97.909733
2457.000000	97.905418
2456.000000	97.898964
2455.000000	97.895325
2454.000000	97.897289
2453.000000	97.903429
2452.000000	97.911186
2451.000000	97.919455
2450.000000	97.927369
2449.000000	97.932920
2448.000000	97.934428
2447.000000	97.932382
2446.000000	97.929098
2445.000000	97.927088
2444.000000	97.927276
2443.000000	97.927703
2442.000000	97.925125
2441.000000	97.919738
2440.000000	97.917008
2439.000000	97.921847
2438.000000	97.931803
2437.000000	97.939192
2436.000000	97.939820
2435.000000	97.936091
2434.000000	97.931584
2433.000000	97.926860
2432.000000	97.922045
2431.000000	97.919736
2430.000000	97.922529
2429.000000	97.929547
2428.000000	97.937280
2427.000000	97.942682
2426.000000	97.944571
2425.000000	97.943718
2424.000000	97.942521
2423.000000	97.943002
2422.000000	97.944412
2421.000000	97.944579
2420.000000	97.943754
2419.000000	97.944538
2418.000000	97.947297
2417.000000	97.948686
2416.000000	97.946409
2415.000000	97.942871
2414.000000	97.942059
2413.000000	97.944949
2412.000000	97.950264
2411.000000	97.957836
2410.000000	97.968314
2409.000000	97.980308
2408.000000	97.990519
2407.000000	97.996760
2406.000000	97.998946
2405.000000	97.997007
2404.000000	97.989977
2403.000000	97.978273
2402.000000	97.966014
2401.000000	97.959566
2400.000000	97.962764
2399.000000	97.973124
2398.000000	97.983318
2397.000000	97.987196
2396.000000	97.984518
2395.000000	97.979756
2394.000000	97.977077
2393.000000	97.977434
2392.000000	97.979611
2391.000000	97.982157
2390.000000	97.984128
2389.000000	97.985613
2388.000000	97.988130
2387.000000	97.993396
2386.000000	98.001192
2385.000000	98.009301
2384.000000	98.015871
2383.000000	98.020985
2382.000000	98.025580
2381.000000	98.029688
2380.000000	98.031954
2379.000000	98.030308
2378.000000	98.023541
2377.000000	98.013680
2376.000000	98.006572
2375.000000	98.007584
2374.000000	98.015632
2373.000000	98.023676
2372.000000	98.026677
2371.000000	98.027039
2370.000000	98.029960
2369.000000	98.035298
2368.000000	98.037462
2367.000000	98.032612
2366.000000	98.022958
2365.000000	98.013849
2364.000000	98.009342
2363.000000	98.009879
2362.000000	98.012105
2361.000000	98.011581
2360.000000	98.006270
2359.000000	97.999617
2358.000000	97.998005
2357.000000	98.002999
2356.000000	98.009907
2355.000000	98.012522
2354.000000	98.009058
2353.000000	98.003001
2352.000000	97.998887
2351.000000	97.996895
2350.000000	97.993264
2349.000000	97.987334
2348.000000	97.982892
2347.000000	97.981734
2346.000000	97.979159
2345.000000	97.970498
2344.000000	97.960157
2343.000000	97.954963
2342.000000	97.957296
2341.000000	97.965730
2340.000000	97.976446
2339.000000	97.983267
2338.000000	97.980514
2337.000000	97.968740
2336.000000	97.955033
2335.000000	97.946969
2334.000000	97.945775
2333.000000	97.947809
2332.000000	97.949123
2331.000000	97.949704
2330.000000	97.950037
2329.000000	97.948865
2328.000000	97.939942
2327.000000	97.915561
2326.000000	97.874376
2325.000000	97.828368
2324.000000	97.798652
2323.000000	97.799012
2322.000000	97.823900
2321.000000	97.854897
2320.000000	97.877829
2319.000000	97.891181
2318.000000	97.899548
2317.000000	97.907639
2316.000000	97.917880
2315.000000	97.930726
2314.000000	97.943224
2313.000000	97.952894
2312.000000	97.960855
2311.000000	97.970761
2310.000000	97.982627
2309.000000	97.992994
2308.000000	97.998981
2307.000000	98.000458
2306.000000	97.997147
2305.000000	97.988876
2304.000000	97.978700
2303.000000	97.972839
2302.000000	97.974278
2301.000000	97.979509
2300.000000	97.982122
2299.000000	97.979329
2298.000000	97.972484
2297.000000	97.964231
2296.000000	97.955954
2295.000000	97.948247
2294.000000	97.941380
2293.000000	97.935774
2292.000000	97.932297
2291.000000	97.932372
2290.000000	97.936990
2289.000000	97.944767
2288.000000	97.950758
2287.000000	97.948359
2286.000000	97.935179
2285.000000	97.917564
2284.000000	97.907320
2283.000000	97.912164
2282.000000	97.930677
2281.000000	97.956145
2280.000000	97.981819
2279.000000	98.001165
2278.000000	98.008242
2277.000000	98.002958
2276.000000	97.993548
2275.000000	97.989264
2274.000000	97.992011
2273.000000	97.998569
2272.000000	98.007939
2271.000000	98.021163
2270.000000	98.036049
2269.000000	98.048247
2268.000000	98.057495
2267.000000	98.067285
2266.000000	98.077484
2265.000000	98.081885
2264.000000	98.074780
2263.000000	98.057912
2262.000000	98.040510
2261.000000	98.032716
2260.000000	98.036328
2259.000000	98.040917
2258.000000	98.034077
2257.000000	98.018159
2256.000000	98.010546
2255.000000	98.022060
2254.000000	98.041488
2253.000000	98.050103
2252.000000	98.046154
2251.000000	98.044740
2250.000000	98.056591
2249.000000	98.077483
2248.000000	98.097462
2247.000000	98.110032
2246.000000	98.112258
2245.000000	98.105362
2244.000000	98.097223
2243.000000	98.096135
2242.000000	98.099986
2241.000000	98.098151
2240.000000	98.084941
2239.000000	98.065130
2238.000000	98.046508
2237.000000	98.034710
2236.000000	98.034722
2235.000000	98.048298
2234.000000	98.067794
2233.000000	98.080321
2232.000000	98.080433
2231.000000	98.072276
2230.000000	98.058369
2229.000000	98.035387
2228.000000	98.004921
2227.000000	97.981461
2226.000000	97.984145
2225.000000	98.021478
2224.000000	98.083069
2223.000000	98.143246
2222.000000	98.175828
2221.000000	98.173323
2220.000000	98.153020
2219.000000	98.138377
2218.000000	98.136424
2217.000000	98.139537
2216.000000	98.144118
2215.000000	98.154316
2214.000000	98.167881
2213.000000	98.173147
2212.000000	98.165762
2211.000000	98.157157
2210.000000	98.158257
2209.000000	98.162904
2208.000000	98.156684
2207.000000	98.138456
2206.000000	98.123977
2205.000000	98.126008
2204.000000	98.136005
2203.000000	98.131359
2202.000000	98.102885
2201.000000	98.070400
2200.000000	98.062920
2199.000000	98.084129
2198.000000	98.108565
2197.000000	98.115263
2196.000000	98.113211
2195.000000	98.124214
2194.000000	98.152306
2193.000000	98.183245
2192.000000	98.206059
2191.000000	98.218810
2190.000000	98.217309
2189.000000	98.197427
2188.000000	98.169959
2187.000000	98.157535
2186.000000	98.171800
2185.000000	98.203456
2184.000000	98.236425
2183.000000	98.262684
2182.000000	98.280257
2181.000000	98.286003
2180.000000	98.275926
2179.000000	98.249907
2178.000000	98.216807
2177.000000	98.196079
2176.000000	98.204366
2175.000000	98.233311
2174.000000	98.250428
2173.000000	98.232766
2172.000000	98.192523
2171.000000	98.160121
2170.000000	98.152830
2169.000000	98.167897
2168.000000	98.193047
2167.000000	98.211590
2166.000000	98.209402
2165.000000	98.192456
2164.000000	98.186644
2163.000000	98.202703
2162.000000	98.218455
2161.000000	98.220987
2160.000000	98.248450
2159.000000	98.347462
2158.000000	98.490785
2157.000000	98.594214
2156.000000	98.615961
2155.000000	98.583823
2154.000000	98.537168
2153.000000	98.491800
2152.000000	98.451613
2151.000000	98.418829
2150.000000	98.392813
2149.000000	98.377233
2148.000000	98.384694
2147.000000	98.417417
2146.000000	98.449941
2145.000000	98.450506
2144.000000	98.416754
2143.000000	98.372103
2142.000000	98.333454
2141.000000	98.302464
2140.000000	98.281840
2139.000000	98.277747
2138.000000	98.286244
2137.000000	98.295831
2136.000000	98.304565
2135.000000	98.319127
2134.000000	98.335945
2133.000000	98.340003
2132.000000	98.324577
2131.000000	98.298902
2130.000000	98.275102
2129.000000	98.258896
2128.000000	98.252020
2127.000000	98.252636
2126.000000	98.252523
2125.000000	98.243022
2124.000000	98.225031
2123.000000	98.206334
2122.000000	98.190642
2121.000000	98.176847
2120.000000	98.166270
2119.000000	98.160557
2118.000000	98.154014
2117.000000	98.138770
2116.000000	98.117972
2115.000000	98.103536
2114.000000	98.099718
2113.000000	98.098707
2112.000000	98.094243
2111.000000	98.090052
2110.000000	98.091189
2109.000000	98.095447
2108.000000	98.097175
2107.000000	98.093786
2106.000000	98.086406
2105.000000	98.079844
2104.000000	98.082137
2103.000000	98.097097
2102.000000	98.116681
2101.000000	98.127861
2100.000000	98.127476
2099.000000	98.124320
2098.000000	98.128434
2097.000000	98.145520
2096.000000	98.178403
2095.000000	98.221866
2094.000000	98.257713
2093.000000	98.267829
2092.000000	98.254117
2091.000000	98.234681
2090.000000	98.220517
2089.000000	98.206687
2088.000000	98.186976
2087.000000	98.165943
2086.000000	98.152168
2085.000000	98.148813
2084.000000	98.154211
2083.000000	98.164659
2082.000000	98.174104
2081.000000	98.177777
2080.000000	98.177697
2079.000000	98.178221
2078.000000	98.176797
2077.000000	98.168265
2076.000000	98.157872
2075.000000	98.158002
2074.000000	98.170899
2073.000000	98.185568
2072.000000	98.194428
2071.000000	98.201984
2070.000000	98.213050
2069.000000	98.223355
2068.000000	98.226806
2067.000000	98.223522
2066.000000	98.216825
2065.000000	98.209915
2064.000000	98.207165
2063.000000	98.210864
2062.000000	98.216856
2061.000000	98.221251
2060.000000	98.228934
2059.000000	98.245566
2058.000000	98.264576
2057.000000	98.274952
2056.000000	98.278912
2055.000000	98.286299
2054.000000	98.292901
2053.000000	98.283362
2052.000000	98.257635
2051.000000	98.235575
2050.000000	98.230789
2049.000000	98.235791
2048.000000	98.240134
2047.000000	98.248014
2046.000000	98.266070
2045.000000	98.288812
2044.000000	98.307644
2043.000000	98.321218
2042.000000	98.329426
2041.000000	98.331456
2040.000000	98.334815
2039.000000	98.350101
2038.000000	98.373543
2037.000000	98.392120
2036.000000	98.407873
2035.000000	98.435644
2034.000000	98.471953
2033.000000	98.493380
2032.000000	98.495153
2031.000000	98.501092
2030.000000	98.521261
2029.000000	98.528712
2028.000000	98.496268
2027.000000	98.437173
2026.000000	98.392987
2025.000000	98.393714
2024.000000	98.435310
2023.000000	98.486220
2022.000000	98.512750
2021.000000	98.510489
2020.000000	98.511721
2019.000000	98.546979
2018.000000	98.602085
2017.000000	98.629952
2016.000000	98.605781
2015.000000	98.548853
2014.000000	98.490810
2013.000000	98.452153
2012.000000	98.445238
2011.000000	98.470335
2010.000000	98.507169
2009.000000	98.531720
2008.000000	98.543308
2007.000000	98.555732
2006.000000	98.565661
2005.000000	98.557765
2004.000000	98.536578
2003.000000	98.523638
2002.000000	98.522557
2001.000000	98.513741
2000.000000	98.484517
1999.000000	98.444598
1998.000000	98.412693
1997.000000	98.403312
1996.000000	98.423571
1995.000000	98.463699
1994.000000	98.491918
1993.000000	98.478367
1992.000000	98.432267
1991.000000	98.395285
1990.000000	98.390452
1989.000000	98.401905
1988.000000	98.404854
1987.000000	98.391650
1986.000000	98.368488
1985.000000	98.347255
1984.000000	98.340823
1983.000000	98.348129
1982.000000	98.345378
1981.000000	98.313846
1980.000000	98.276324
1979.000000	98.282270
1978.000000	98.352988
1977.000000	98.459338
1976.000000	98.559368
1975.000000	98.631606
1974.000000	98.665951
1973.000000	98.659674
1972.000000	98.633251
1971.000000	98.618545
1970.000000	98.624419
1969.000000	98.634855
1968.000000	98.638373
1967.000000	98.638073
1966.000000	98.635656
1965.000000	98.630249
1964.000000	98.630858
1963.000000	98.645855
1962.000000	98.662823
1961.000000	98.660769
1960.000000	98.639611
1959.000000	98.615193
1958.000000	98.590541
1957.000000	98.557757
1956.000000	98.522697
1955.000000	98.501778
1954.000000	98.498087
1953.000000	98.501146
1952.000000	98.507960
1951.000000	98.524695
1950.000000	98.548356
1949.000000	98.569106
1948.000000	98.587670
1947.000000	98.609867
1946.000000	98.627089
1945.000000	98.623176
1944.000000	98.599213
1943.000000	98.572262
1942.000000	98.551292
1941.000000	98.534147
1940.000000	98.523621
1939.000000	98.524102
1938.000000	98.525967
1937.000000	98.513242
1936.000000	98.488481
1935.000000	98.471439
1934.000000	98.471884
1933.000000	98.480176
1932.000000	98.486214
1931.000000	98.489498
1930.000000	98.486387
1929.000000	98.471988
1928.000000	98.454089
1927.000000	98.449272
1926.000000	98.461212
1925.000000	98.476704
1924.000000	98.489114
1923.000000	98.503792
1922.000000	98.519751
1921.000000	98.524738
1920.000000	98.514166
1919.000000	98.498948
1918.000000	98.488078
1917.000000	98.478367
1916.000000	98.469323
1915.000000	98.467936
1914.000000	98.476690
1913.000000	98.488032
1912.000000	98.494672
1911.000000	98.497248
1910.000000	98.496523
1909.000000	98.490526
1908.000000	98.480046
1907.000000	98.469927
1906.000000	98.461978
1905.000000	98.454765
1904.000000	98.454968
1903.000000	98.469852
1902.000000	98.491104
1901.000000	98.502473
1900.000000	98.502337
1899.000000	98.504904
1898.000000	98.517300
1897.000000	98.529718
1896.000000	98.535049
1895.000000	98.540180
1894.000000	98.550738
1893.000000	98.559568
1892.000000	98.559074
1891.000000	98.552335
1890.000000	98.545086
1889.000000	98.538662
1888.000000	98.536009
1887.000000	98.540778
1886.000000	98.549001
1885.000000	98.552344
1884.000000	98.550920
1883.000000	98.553118
1882.000000	98.559340
1881.000000	98.559573
1880.000000	98.548872
1879.000000	98.535138
1878.000000	98.528322
1877.000000	98.528630
1876.000000	98.532993
1875.000000	98.543770
1874.000000	98.561138
1873.000000	98.577591
1872.000000	98.588673
1871.000000	98.601104
1870.000000	98.621487
1869.000000	98.639864
1868.000000	98.640590
1867.000000	98.624685
1866.000000	98.600754
1865.000000	98.573384
1864.000000	98.548951
1863.000000	98.536119
1862.000000	98.536362
1861.000000	98.541881
1860.000000	98.545694
1859.000000	98.547610
1858.000000	98.548676
1857.000000	98.547334
1856.000000	98.544101
1855.000000	98.543577
1854.000000	98.546334
1853.000000	98.549763
1852.000000	98.553296
1851.000000	98.557365
1850.000000	98.564139
1849.000000	98.574664
1848.000000	98.588281
1847.000000	98.600564
1846.000000	98.605797
1845.000000	98.604539
1844.000000	98.604579
1843.000000	98.611334
1842.000000	98.616948
1841.000000	98.611175
1840.000000	98.597298
1839.000000	98.586763
1838.000000	98.580958
1837.000000	98.571796
1836.000000	98.563552
1835.000000	98.570413
1834.000000	98.592067
1833.000000	98.611717
1832.000000	98.617969
1831.000000	98.618019
1830.000000	98.623333
1829.000000	98.629195
1828.000000	98.625234
1827.000000	98.611239
1826.000000	98.598698
1825.000000	98.596752
1824.000000	98.601415
1823.000000	98.604138
1822.000000	98.601553
1821.000000	98.597778
1820.000000	98.598656
1819.000000	98.606232
1818.000000	98.615521
1817.000000	98.619077
1816.000000	98.619596
1815.000000	98.624531
1814.000000	98.633616
1813.000000	98.638497
1812.000000	98.634420
1811.000000	98.629585
1810.000000	98.630681
1809.000000	98.631902
1808.000000	98.626722
1807.000000	98.618352
1806.000000	98.614110
1805.000000	98.615820
1804.000000	98.622471
1803.000000	98.631521
1802.000000	98.639127
1801.000000	98.641650
1800.000000	98.639442
1799.000000	98.640557
1798.000000	98.648656
1797.000000	98.658374
1796.000000	98.662776
1795.000000	98.658552
1794.000000	98.649532
1793.000000	98.645168
1792.000000	98.649716
1791.000000	98.659939
1790.000000	98.667118
1789.000000	98.664487
1788.000000	98.655551
1787.000000	98.650314
1786.000000	98.653679
1785.000000	98.661045
1784.000000	98.668643
1783.000000	98.673060
1782.000000	98.671984
1781.000000	98.668076
1780.000000	98.664585
1779.000000	98.667105
1778.000000	98.677312
1777.000000	98.695835
1776.000000	98.719523
1775.000000	98.736274
1774.000000	98.738718
1773.000000	98.737134
1772.000000	98.742414
1771.000000	98.748564
1770.000000	98.738293
1769.000000	98.703885
1768.000000	98.667800
1767.000000	98.658879
1766.000000	98.673678
1765.000000	98.683972
1764.000000	98.675278
1763.000000	98.658604
1762.000000	98.649275
1761.000000	98.645684
1760.000000	98.635955
1759.000000	98.611216
1758.000000	98.566375
1757.000000	98.511475
1756.000000	98.466585
1755.000000	98.439497
1754.000000	98.414643
1753.000000	98.376526
1752.000000	98.331726
1751.000000	98.298490
1750.000000	98.272072
1749.000000	98.227866
1748.000000	98.169661
1747.000000	98.123532
1746.000000	98.100066
1745.000000	98.087433
1744.000000	98.076962
1743.000000	98.074656
1742.000000	98.081463
1741.000000	98.091852
1740.000000	98.120433
1739.000000	98.187655
1738.000000	98.271414
1737.000000	98.325403
1736.000000	98.336717
1735.000000	98.354454
1734.000000	98.427390
1733.000000	98.520057
1732.000000	98.578152
1731.000000	98.599813
1730.000000	98.606521
1729.000000	98.611345
1728.000000	98.619279
1727.000000	98.632333
1726.000000	98.651474
1725.000000	98.670261
1724.000000	98.683304
1723.000000	98.698888
1722.000000	98.717665
1721.000000	98.726124
1720.000000	98.720899
1719.000000	98.727940
1718.000000	98.763403
1717.000000	98.786305
1716.000000	98.758248
1715.000000	98.697455
1714.000000	98.630760
1713.000000	98.563037
1712.000000	98.494795
1711.000000	98.433661
1710.000000	98.382131
1709.000000	98.329312
1708.000000	98.258485
1707.000000	98.165927
1706.000000	98.062390
1705.000000	97.960066
1704.000000	97.863148
1703.000000	97.750123
1702.000000	97.587677
1701.000000	97.386360
1700.000000	97.214460
1699.000000	97.120722
1698.000000	97.036186
1697.000000	96.858918
1696.000000	96.593919
1695.000000	96.357360
1694.000000	96.207512
1693.000000	96.089022
1692.000000	95.957258
1691.000000	95.815977
1690.000000	95.678303
1689.000000	95.550707
1688.000000	95.434170
1687.000000	95.318867
1686.000000	95.178013
1685.000000	94.973131
1684.000000	94.707467
1683.000000	94.482484
1682.000000	94.325001
1681.000000	94.162375
1680.000000	93.973576
1679.000000	93.785637
1678.000000	93.606100
1677.000000	93.402157
1676.000000	93.153415
1675.000000	92.900580
1674.000000	92.703369
1673.000000	92.547275
1672.000000	92.372660
1671.000000	92.150039
1670.000000	91.879396
1669.000000	91.591125
1668.000000	91.338591
1667.000000	91.144239
1666.000000	90.980754
1665.000000	90.801280
1664.000000	90.580108
1663.000000	90.334025
1662.000000	90.105538
1661.000000	89.916122
1660.000000	89.751965
1659.000000	89.608488
1658.000000	89.496461
1657.000000	89.413892
1656.000000	89.327602
1655.000000	89.198513
1654.000000	88.990075
1653.000000	88.724751
1652.000000	88.572044
1651.000000	88.555772
1650.000000	88.552385
1649.000000	88.502595
1648.000000	88.384340
1647.000000	88.211417
1646.000000	88.056952
1645.000000	87.965471
1644.000000	87.908095
1643.000000	87.855077
1642.000000	87.801035
1641.000000	87.752552
1640.000000	87.715819
1639.000000	87.692020
1638.000000	87.665154
1637.000000	87.603167
1636.000000	87.486371
1635.000000	87.371238
1634.000000	87.328344
1633.000000	87.331474
1632.000000	87.337208
1631.000000	87.340541
1630.000000	87.353844
1629.000000	87.386275
1628.000000	87.440769
1627.000000	87.516506
1626.000000	87.607393
1625.000000	87.707730
1624.000000	87.824468
1623.000000	87.972984
1622.000000	88.151310
1621.000000	88.335875
1620.000000	88.503935
1619.000000	88.653966
1618.000000	88.810631
1617.000000	89.007910
1616.000000	89.242614
1615.000000	89.470951
1614.000000	89.668984
1613.000000	89.849939
1612.000000	90.038146
1611.000000	90.241306
1610.000000	90.448193
1609.000000	90.649232
1608.000000	90.844801
1607.000000	91.032201
1606.000000	91.206233
1605.000000	91.372757
1604.000000	91.537673
1603.000000	91.694141
1602.000000	91.831749
1601.000000	91.953683
1600.000000	92.071629
1599.000000	92.187352
1598.000000	92.294292
1597.000000	92.390877
1596.000000	92.479841
1595.000000	92.557149
1594.000000	92.616264
1593.000000	92.661483
1592.000000	92.701914
1591.000000	92.736292
1590.000000	92.756812
1589.000000	92.764985
1588.000000	92.767954
1587.000000	92.765188
1586.000000	92.750458
1585.000000	92.728347
1584.000000	92.706691
1583.000000	92.678585
1582.000000	92.638089
1581.000000	92.598397
1580.000000	92.572535
1579.000000	92.545823
1578.000000	92.486669
1577.000000	92.374248
1576.000000	92.228975
1575.000000	92.100998
1574.000000	92.005795
1573.000000	91.920698
1572.000000	91.822003
1571.000000	91.693090
1570.000000	91.524220
1569.000000	91.345349
1568.000000	91.200430
1567.000000	91.076123
1566.000000	90.933488
1565.000000	90.773360
1564.000000	90.632883
1563.000000	90.531820
1562.000000	90.448509
1561.000000	90.343825
1560.000000	90.188362
1559.000000	89.911503
1558.000000	89.628589
1557.000000	89.487973
1556.000000	89.396670
1555.000000	89.281836
1554.000000	89.157823
1553.000000	89.056474
1552.000000	88.976911
1551.000000	88.894959
1550.000000	88.802687
1549.000000	88.715520
1548.000000	88.653581
1547.000000	88.616085
1546.000000	88.596389
1545.000000	88.591263
1544.000000	88.591904
1543.000000	88.588153
1542.000000	88.571419
1541.000000	88.523780
1540.000000	88.441806
1539.000000	88.390157
1538.000000	88.407319
1537.000000	88.446807
1536.000000	88.472191
1535.000000	88.483910
1534.000000	88.500535
1533.000000	88.534016
1532.000000	88.580229
1531.000000	88.634069
1530.000000	88.693503
1529.000000	88.759489
1528.000000	88.832239
1527.000000	88.909929
1526.000000	88.993457
1525.000000	89.080596
1524.000000	89.160320
1523.000000	89.231481
1522.000000	89.311912
1521.000000	89.413148
1520.000000	89.519852
1519.000000	89.612671
1518.000000	89.695116
1517.000000	89.781118
1516.000000	89.875148
1515.000000	89.972834
1514.000000	90.074233
1513.000000	90.190416
1512.000000	90.335933
1511.000000	90.509658
1510.000000	90.694275
1509.000000	90.870846
1508.000000	91.035742
1507.000000	91.182719
1506.000000	91.320096
1505.000000	91.466339
1504.000000	91.607915
1503.000000	91.736338
1502.000000	91.865680
1501.000000	92.006595
1500.000000	92.157641
1499.000000	92.311916
1498.000000	92.469547
1497.000000	92.628237
1496.000000	92.783033
1495.000000	92.933856
1494.000000	93.077594
1493.000000	93.209551
1492.000000	93.337800
1491.000000	93.481501
1490.000000	93.634015
1489.000000	93.752992
1488.000000	93.819009
1487.000000	93.860056
1486.000000	93.899009
1485.000000	93.934753
1484.000000	93.960658
1483.000000	93.977193
1482.000000	93.989342
1481.000000	93.992769
1480.000000	93.982620
1479.000000	93.963152
1478.000000	93.942303
1477.000000	93.919194
1476.000000	93.888221
1475.000000	93.842654
1474.000000	93.767236
1473.000000	93.640882
1472.000000	93.477724
1471.000000	93.333499
1470.000000	93.227230
1469.000000	93.134901
1468.000000	93.040978
1467.000000	92.943556
1466.000000	92.835869
1465.000000	92.710979
1464.000000	92.584317
1463.000000	92.485654
1462.000000	92.417033
1461.000000	92.359312
1460.000000	92.296520
1459.000000	92.213011
1458.000000	92.077294
1457.000000	91.879614
1456.000000	91.704144
1455.000000	91.606404
1454.000000	91.543037
1453.000000	91.481100
1452.000000	91.426354
1451.000000	91.392191
1450.000000	91.375963
1449.000000	91.363385
1448.000000	91.354233
1447.000000	91.357411
1446.000000	91.373954
1445.000000	91.399663
1444.000000	91.431028
1443.000000	91.472219
1442.000000	91.527827
1441.000000	91.593900
1440.000000	91.658434
1439.000000	91.713830
1438.000000	91.769943
1437.000000	91.847332
1436.000000	91.950486
1435.000000	92.059013
1434.000000	92.154288
1433.000000	92.235028
1432.000000	92.310450
1431.000000	92.385462
1430.000000	92.455550
1429.000000	92.514395
1428.000000	92.565833
1427.000000	92.615014
1426.000000	92.660821
1425.000000	92.702425
1424.000000	92.734945
1423.000000	92.754529
1422.000000	92.762687
1421.000000	92.763870
1420.000000	92.767351
1419.000000	92.775647
1418.000000	92.778530
1417.000000	92.766308
1416.000000	92.739057
1415.000000	92.707055
1414.000000	92.681599
1413.000000	92.661491
1412.000000	92.635229
1411.000000	92.597086
1410.000000	92.552892
1409.000000	92.507428
1408.000000	92.461915
1407.000000	92.416961
1406.000000	92.369952
1405.000000	92.319553
1404.000000	92.272490
1403.000000	92.240391
1402.000000	92.224057
1401.000000	92.215835
1400.000000	92.215335
1399.000000	92.228152
1398.000000	92.251664
1397.000000	92.271227
1396.000000	92.277998
1395.000000	92.278813
1394.000000	92.287756
1393.000000	92.311887
1392.000000	92.347167
1391.000000	92.388395
1390.000000	92.433065
1389.000000	92.478114
1388.000000	92.520749
1387.000000	92.560029
1386.000000	92.595210
1385.000000	92.626591
1384.000000	92.657807
1383.000000	92.696363
1382.000000	92.745735
1381.000000	92.800528
1380.000000	92.856332
1379.000000	92.915952
1378.000000	92.983401
1377.000000	93.057937
1376.000000	93.137359
1375.000000	93.218139
1374.000000	93.293196
1373.000000	93.359104
1372.000000	93.422400
1371.000000	93.491235
1370.000000	93.567349
1369.000000	93.648341
1368.000000	93.731474
1367.000000	93.816688
1366.000000	93.904695
1365.000000	93.994709
1364.000000	94.083581
1363.000000	94.162841
1362.000000	94.222556
1361.000000	94.261435
1360.000000	94.287485
1359.000000	94.308989
1358.000000	94.329018
1357.000000	94.345560
1356.000000	94.354334
1355.000000	94.351725
1354.000000	94.336697
1353.000000	94.309596
1352.000000	94.272837
1351.000000	94.229806
1350.000000	94.182067
1349.000000	94.129821
1348.000000	94.072303
1347.000000	94.009633
1346.000000	93.943330
1345.000000	93.876827
1344.000000	93.816155
1343.000000	93.766962
1342.000000	93.728783
1341.000000	93.692774
1340.000000	93.647873
1339.000000	93.592253
1338.000000	93.535748
1337.000000	93.489067
1336.000000	93.458097
1335.000000	93.446607
1334.000000	93.456479
1333.000000	93.485817
1332.000000	93.529861
1331.000000	93.583465
1330.000000	93.641663
1329.000000	93.699481
1328.000000	93.754218
1327.000000	93.806495
1326.000000	93.856914
1325.000000	93.903007
1324.000000	93.940911
1323.000000	93.970037
1322.000000	93.993570
1321.000000	94.014006
1320.000000	94.030384
1319.000000	94.040931
1318.000000	94.046983
1317.000000	94.053369
1316.000000	94.065919
1315.000000	94.088405
1314.000000	94.119689
1313.000000	94.153540
1312.000000	94.184270
1311.000000	94.212843
1310.000000	94.245262
1309.000000	94.284615
1308.000000	94.327567
1307.000000	94.368788
1306.000000	94.406045
1305.000000	94.439920
1304.000000	94.470648
1303.000000	94.498336
1302.000000	94.524936
1301.000000	94.553251
1300.000000	94.583698
1299.000000	94.613699
1298.000000	94.639659
1297.000000	94.658183
1296.000000	94.666223
1295.000000	94.661862
1294.000000	94.645889
1293.000000	94.621056
1292.000000	94.589745
1291.000000	94.553124
1290.000000	94.511352
1289.000000	94.464005
1288.000000	94.410926
1287.000000	94.353919
1286.000000	94.297299
1285.000000	94.245819
1284.000000	94.202344
1283.000000	94.167740
1282.000000	94.142005
1281.000000	94.124861
1280.000000	94.115649
1279.000000	94.112685
1278.000000	94.113365
1277.000000	94.115531
1276.000000	94.118404
1275.000000	94.121951
1274.000000	94.125617
1273.000000	94.128205
1272.000000	94.128265
1271.000000	94.123656
1270.000000	94.111694
1269.000000	94.091920
1268.000000	94.068398
1267.000000	94.046586
1266.000000	94.026950
1265.000000	94.003294
1264.000000	93.968879
1263.000000	93.923007
1262.000000	93.870455
1261.000000	93.816389
1260.000000	93.762811
1259.000000	93.708269
1258.000000	93.649329
1257.000000	93.583236
1256.000000	93.510664
1255.000000	93.434657
1254.000000	93.356650
1253.000000	93.275527
1252.000000	93.190717
1251.000000	93.103542
1250.000000	93.014266
1249.000000	92.921250
1248.000000	92.824893
1247.000000	92.728724
1246.000000	92.634479
1245.000000	92.539427
1244.000000	92.441435
1243.000000	92.343676
1242.000000	92.251654
1241.000000	92.168150
1240.000000	92.093617
1239.000000	92.028598
1238.000000	91.973221
1237.000000	91.928232
1236.000000	91.897712
1235.000000	91.887047
1234.000000	91.896892
1233.000000	91.922286
1232.000000	91.960165
1231.000000	92.012423
1230.000000	92.080460
1229.000000	92.162713
1228.000000	92.258473
1227.000000	92.370025
1226.000000	92.497671
1225.000000	92.636462
1224.000000	92.780715
1223.000000	92.928002
1222.000000	93.077351
1221.000000	93.225902
1220.000000	93.368719
1219.000000	93.500224
1218.000000	93.616050
1217.000000	93.714801
1216.000000	93.797599
1215.000000	93.864653
1214.000000	93.912579
1213.000000	93.938643
1212.000000	93.945681
1211.000000	93.939347
1210.000000	93.921303
1209.000000	93.888081
1208.000000	93.838675
1207.000000	93.779178
1206.000000	93.718692
1205.000000	93.664279
1204.000000	93.621123
1203.000000	93.593541
1202.000000	93.583254
1201.000000	93.590143
1200.000000	93.615814
1199.000000	93.662984
1198.000000	93.729013
1197.000000	93.804952
1196.000000	93.884142
1195.000000	93.967097
1194.000000	94.056285
1193.000000	94.149506
1192.000000	94.241347
1191.000000	94.328346
1190.000000	94.410001
1189.000000	94.487086
1188.000000	94.561038
1187.000000	94.632801
1186.000000	94.700073
1185.000000	94.758476
1184.000000	94.807048
1183.000000	94.850052
1182.000000	94.890979
1181.000000	94.926768
1180.000000	94.952009
1179.000000	94.966891
1178.000000	94.977045
1177.000000	94.986546
1176.000000	94.994690
1175.000000	94.999677
1174.000000	95.001379
1173.000000	94.999919
1172.000000	94.994558
1171.000000	94.985092
1170.000000	94.973128
1169.000000	94.960991
1168.000000	94.949798
1167.000000	94.938395
1166.000000	94.923951
1165.000000	94.905161
1164.000000	94.885774
1163.000000	94.873314
1162.000000	94.872729
1161.000000	94.883418
1160.000000	94.903292
1159.000000	94.932944
1158.000000	94.974045
1157.000000	95.025891
1156.000000	95.086699
1155.000000	95.155712
1154.000000	95.231620
1153.000000	95.311231
1152.000000	95.391656
1151.000000	95.472251
1150.000000	95.552178
1149.000000	95.628585
1148.000000	95.700189
1147.000000	95.770375
1146.000000	95.842803
1145.000000	95.915142
1144.000000	95.981297
1143.000000	96.039099
1142.000000	96.092095
1141.000000	96.143244
1140.000000	96.191067
1139.000000	96.233686
1138.000000	96.272685
1137.000000	96.310820
1136.000000	96.347734
1135.000000	96.380142
1134.000000	96.405429
1133.000000	96.423534
1132.000000	96.436669
1131.000000	96.447808
1130.000000	96.458249
1129.000000	96.466530
1128.000000	96.470968
1127.000000	96.473216
1126.000000	96.476733
1125.000000	96.481631
1124.000000	96.484380
1123.000000	96.483643
1122.000000	96.483523
1121.000000	96.488760
1120.000000	96.498378
1119.000000	96.506023
1118.000000	96.505676
1117.000000	96.496235
1116.000000	96.481398
1115.000000	96.465812
1114.000000	96.451151
1113.000000	96.436231
1112.000000	96.421501
1111.000000	96.411052
1110.000000	96.407565
1109.000000	96.407238
1108.000000	96.403434
1107.000000	96.394448
1106.000000	96.383907
1105.000000	96.374660
1104.000000	96.366707
1103.000000	96.360702
1102.000000	96.357416
1101.000000	96.353354
1100.000000	96.341307
1099.000000	96.318040
1098.000000	96.287914
1097.000000	96.256757
1096.000000	96.226576
1095.000000	96.196603
1094.000000	96.164914
1093.000000	96.127002
1092.000000	96.077863
1091.000000	96.018599
1090.000000	95.956438
1089.000000	95.895357
1088.000000	95.830664
1087.000000	95.756137
1086.000000	95.672929
1085.000000	95.588633
1084.000000	95.511428
1083.000000	95.448651
1082.000000	95.407655
1081.000000	95.392618
1080.000000	95.402349
1079.000000	95.433251
1078.000000	95.482672
1077.000000	95.547575
1076.000000	95.620979
1075.000000	95.694014
1074.000000	95.761467
1073.000000	95.822782
1072.000000	95.877553
1071.000000	95.922779
1070.000000	95.955981
1069.000000	95.979163
1068.000000	95.997940
1067.000000	96.016503
1066.000000	96.034084
1065.000000	96.046089
1064.000000	96.049278
1063.000000	96.046402
1062.000000	96.045089
1061.000000	96.051665
1060.000000	96.066780
1059.000000	96.087688
1058.000000	96.113309
1057.000000	96.145441
1056.000000	96.184904
1055.000000	96.227945
1054.000000	96.267665
1053.000000	96.298957
1052.000000	96.321559
1051.000000	96.338247
1050.000000	96.351061
1049.000000	96.360762
1048.000000	96.369823
1047.000000	96.382827
1046.000000	96.401343
1045.000000	96.419898
1044.000000	96.430176
1043.000000	96.429610
1042.000000	96.422874
1041.000000	96.413868
1040.000000	96.398937
1039.000000	96.369891
1038.000000	96.322477
1037.000000	96.259843
1036.000000	96.189726
1035.000000	96.120997
1034.000000	96.061749
1033.000000	96.017296
1032.000000	95.989157
1031.000000	95.976865
1030.000000	95.980471
1029.000000	96.001220
1028.000000	96.039087
1027.000000	96.090634
1026.000000	96.150071
1025.000000	96.212380
1024.000000	96.275573
1023.000000	96.339551
1022.000000	96.403636
1021.000000	96.465278
1020.000000	96.520460
1019.000000	96.565226
1018.000000	96.597937
1017.000000	96.620868
1016.000000	96.639370
1015.000000	96.659377
1014.000000	96.685577
1013.000000	96.721405
1012.000000	96.768862
1011.000000	96.826463
1010.000000	96.887796
1009.000000	96.944627
1008.000000	96.992887
1007.000000	97.035299
1006.000000	97.078008
1005.000000	97.125126
1004.000000	97.176365
1003.000000	97.228555
1002.000000	97.278521
1001.000000	97.325302
1000.000000	97.370876
999.000000	97.418360
998.000000	97.468216
997.000000	97.516375
996.000000	97.557290
995.000000	97.589620
994.000000	97.618188
993.000000	97.649426
992.000000	97.685509
991.000000	97.723257
990.000000	97.757919
989.000000	97.786701
988.000000	97.808748
987.000000	97.823647
986.000000	97.831140
985.000000	97.832069
984.000000	97.828339
983.000000	97.821594
982.000000	97.812703
981.000000	97.802667
980.000000	97.793258
979.000000	97.785274
978.000000	97.776475
977.000000	97.763480
976.000000	97.746761
975.000000	97.732231
974.000000	97.726049
973.000000	97.728991
972.000000	97.737441
971.000000	97.748984
970.000000	97.764658
969.000000	97.785927
968.000000	97.812024
967.000000	97.840835
966.000000	97.871235
965.000000	97.903357
964.000000	97.936686
963.000000	97.968611
962.000000	97.995502
961.000000	98.015991
960.000000	98.032761
959.000000	98.049839
958.000000	98.068205
957.000000	98.085856
956.000000	98.102477
955.000000	98.121027
954.000000	98.142965
953.000000	98.164825
952.000000	98.182495
951.000000	98.196760
950.000000	98.210890
949.000000	98.224420
948.000000	98.233465
947.000000	98.236715
946.000000	98.236676
945.000000	98.234686
944.000000	98.229415
943.000000	98.221411
942.000000	98.214993
941.000000	98.213155
940.000000	98.213610
939.000000	98.211858
938.000000	98.206115
937.000000	98.198441
936.000000	98.193575
935.000000	98.197475
934.000000	98.213329
933.000000	98.237207
932.000000	98.260712
931.000000	98.279605
930.000000	98.296727
929.000000	98.314997
928.000000	98.331547
927.000000	98.342030
926.000000	98.347300
925.000000	98.351522
924.000000	98.356068
923.000000	98.359704
922.000000	98.363801
921.000000	98.372982
920.000000	98.390314
919.000000	98.414589
918.000000	98.442318
917.000000	98.470016
916.000000	98.494768
915.000000	98.515491
914.000000	98.533914
913.000000	98.551988
912.000000	98.568439
911.000000	98.580618
910.000000	98.589769
909.000000	98.601328
908.000000	98.618428
907.000000	98.637422
906.000000	98.651485
905.000000	98.657119
904.000000	98.655905
903.000000	98.651395
902.000000	98.646764
901.000000	98.645395
900.000000	98.651326
899.000000	98.667000
898.000000	98.690060
897.000000	98.713359
896.000000	98.729485
895.000000	98.735951
894.000000	98.736097
893.000000	98.735424
892.000000	98.737619
891.000000	98.742888
890.000000	98.747597
889.000000	98.745303
888.000000	98.730516
887.000000	98.702851
886.000000	98.666806
885.000000	98.626127
884.000000	98.579791
883.000000	98.524694
882.000000	98.460376
881.000000	98.389949
880.000000	98.317769
879.000000	98.248218
878.000000	98.185865
877.000000	98.135038
876.000000	98.099073
875.000000	98.080521
874.000000	98.081528
873.000000	98.102947
872.000000	98.143426
871.000000	98.198895
870.000000	98.262721
869.000000	98.326744
868.000000	98.382905
867.000000	98.425257
866.000000	98.451838
865.000000	98.465470
864.000000	98.472162
863.000000	98.477518
862.000000	98.483401
861.000000	98.487909
860.000000	98.488658
859.000000	98.485367
858.000000	98.479615
857.000000	98.473525
856.000000	98.469456
855.000000	98.469560
854.000000	98.474223
853.000000	98.481587
852.000000	98.489704
851.000000	98.498488
850.000000	98.508652
849.000000	98.519796
848.000000	98.530517
847.000000	98.539631
846.000000	98.546705
845.000000	98.552733
844.000000	98.561251
843.000000	98.576876
842.000000	98.600862
841.000000	98.629127
840.000000	98.655923
839.000000	98.678201
838.000000	98.695325
837.000000	98.706455
836.000000	98.710918
835.000000	98.710617
834.000000	98.709624
833.000000	98.710946
832.000000	98.714925
831.000000	98.720940
830.000000	98.729440
829.000000	98.741526
828.000000	98.756075
827.000000	98.766943
826.000000	98.765109
825.000000	98.747183
824.000000	98.721778
823.000000	98.703796
822.000000	98.701307
821.000000	98.710744
820.000000	98.723884
819.000000	98.734041
818.000000	98.735528
817.000000	98.724342
816.000000	98.703190
815.000000	98.681539
814.000000	98.667195
813.000000	98.661334
812.000000	98.663922
811.000000	98.677763
810.000000	98.702261
809.000000	98.728168
808.000000	98.744684
807.000000	98.748854
806.000000	98.743441
805.000000	98.730198
804.000000	98.711904
803.000000	98.697655
802.000000	98.697576
801.000000	98.711758
800.000000	98.729459
799.000000	98.738622
798.000000	98.732817
797.000000	98.712352
796.000000	98.684700
795.000000	98.661996
794.000000	98.651495
793.000000	98.648913
792.000000	98.645608
791.000000	98.639705
790.000000	98.634629
789.000000	98.629376
788.000000	98.618093
787.000000	98.599445
786.000000	98.579913
785.000000	98.566775
784.000000	98.562620
783.000000	98.566703
782.000000	98.576053
781.000000	98.584224
780.000000	98.583903
779.000000	98.572811
778.000000	98.554760
777.000000	98.535017
776.000000	98.517454
775.000000	98.505271
774.000000	98.500094
773.000000	98.499476
772.000000	98.498497
771.000000	98.494600
770.000000	98.489276
769.000000	98.485876
768.000000	98.487498
767.000000	98.494684
766.000000	98.502088
765.000000	98.499914
764.000000	98.483037
763.000000	98.457827
762.000000	98.436464
761.000000	98.425294
760.000000	98.421628
759.000000	98.419713
758.000000	98.415029
757.000000	98.403732
756.000000	98.383211
755.000000	98.355200
754.000000	98.326427
753.000000	98.304784
752.000000	98.294325
751.000000	98.292084
750.000000	98.288919
749.000000	98.276433
748.000000	98.254872
747.000000	98.231844
746.000000	98.212696
745.000000	98.196268
744.000000	98.181399
743.000000	98.171599
742.000000	98.169582
741.000000	98.172229
740.000000	98.174796
739.000000	98.174841
738.000000	98.167697
737.000000	98.144558
736.000000	98.102509
735.000000	98.053040
734.000000	98.013295
733.000000	97.990494
732.000000	97.979817
731.000000	97.973743
730.000000	97.966513
729.000000	97.952458
728.000000	97.928434
727.000000	97.898002
726.000000	97.867637
725.000000	97.839573
724.000000	97.812716
723.000000	97.787817
722.000000	97.765695
721.000000	97.742140
720.000000	97.711914
719.000000	97.677567
718.000000	97.646851
717.000000	97.621022
716.000000	97.592020
715.000000	97.552980
714.000000	97.507578
713.000000	97.467033
712.000000	97.439438
711.000000	97.422752
710.000000	97.407606
709.000000	97.386195
708.000000	97.358140
707.000000	97.327480
706.000000	97.296510
705.000000	97.266902
704.000000	97.244368
703.000000	97.235169
702.000000	97.237169
701.000000	97.239860
700.000000	97.234661
699.000000	97.220660
698.000000	97.200098
697.000000	97.174986
696.000000	97.149571
695.000000	97.129135
694.000000	97.114986
693.000000	97.106493
692.000000	97.107151
691.000000	97.119308
690.000000	97.132472
689.000000	97.128689
688.000000	97.104458
687.000000	97.076095
686.000000	97.057134
685.000000	97.042790
684.000000	97.022263
683.000000	96.994819
682.000000	96.967136
681.000000	96.944644
680.000000	96.930927
679.000000	96.925681
678.000000	96.917477
677.000000	96.892255
676.000000	96.853139
675.000000	96.818745
674.000000	96.802183
673.000000	96.796571
672.000000	96.786978
671.000000	96.764348
670.000000	96.731163
669.000000	96.684207
668.000000	96.622327
667.000000	96.597698
666.000000	96.629152
665.000000	96.659634
664.000000	96.656172
663.000000	96.625582
662.000000	96.589821
661.000000	96.560388
660.000000	96.540199
659.000000	96.534310
658.000000	96.541786
657.000000	96.549270
656.000000	96.545841
655.000000	96.535202
654.000000	96.528713
653.000000	96.530895
652.000000	96.538482
651.000000	96.546006
650.000000	96.545331
649.000000	96.529554
648.000000	96.505897
647.000000	96.494153
646.000000	96.502565
645.000000	96.515209
644.000000	96.512980
643.000000	96.496537
642.000000	96.479408
641.000000	96.469146
640.000000	96.466442
639.000000	96.472362
638.000000	96.482523
637.000000	96.482906
636.000000	96.464619
635.000000	96.437472
634.000000	96.419012
633.000000	96.415770
632.000000	96.423153
631.000000	96.433326
630.000000	96.433848
629.000000	96.412277
628.000000	96.375042
627.000000	96.350913
626.000000	96.360684
625.000000	96.390928
624.000000	96.412406
623.000000	96.414112
622.000000	96.404370
621.000000	96.390500
620.000000	96.375922
619.000000	96.368765
618.000000	96.373488
617.000000	96.377534
616.000000	96.364081
615.000000	96.336214
614.000000	96.313449
613.000000	96.307939
612.000000	96.316862
611.000000	96.333034
610.000000	96.349473
609.000000	96.356725
608.000000	96.349011
607.000000	96.333009
606.000000	96.321462
605.000000	96.321351
604.000000	96.334485
603.000000	96.360442
602.000000	96.388918
601.000000	96.399147
600.000000	96.380127
599.000000	96.344908
598.000000	96.313655
597.000000	96.291595
596.000000	96.276664
595.000000	96.275903
594.000000	96.297001
593.000000	96.330885
592.000000	96.358429
591.000000	96.370460
590.000000	96.368591
589.000000	96.354073
588.000000	96.330241
587.000000	96.308899
586.000000	96.300069
585.000000	96.299689
584.000000	96.297773
583.000000	96.290425
582.000000	96.273672
581.000000	96.240303
580.000000	96.198729
579.000000	96.180963
578.000000	96.209555
577.000000	96.265553
576.000000	96.305476
575.000000	96.304409
574.000000	96.270396
573.000000	96.221872
572.000000	96.171487
571.000000	96.127718
570.000000	96.092373
569.000000	96.059921
568.000000	96.031078
567.000000	96.015546
566.000000	96.010208
565.000000	95.991417
564.000000	95.944284
563.000000	95.884323
562.000000	95.835805
561.000000	95.805036
560.000000	95.789995
559.000000	95.796464
558.000000	95.821717
557.000000	95.841962
556.000000	95.840190
555.000000	95.830118
554.000000	95.831332
553.000000	95.839137
552.000000	95.842529
551.000000	95.853039
550.000000	95.888071
549.000000	95.939754
548.000000	95.987774
547.000000	96.027455
546.000000	96.060622
545.000000	96.077855
544.000000	96.077354
543.000000	96.083065
542.000000	96.114662
541.000000	96.152491
540.000000	96.160825
539.000000	96.134533
538.000000	96.095700
537.000000	96.055669
536.000000	96.009158
535.000000	95.959881
534.000000	95.922318
533.000000	95.900264
532.000000	95.884934
531.000000	95.868663
530.000000	95.846373
529.000000	95.817315
528.000000	95.800855
527.000000	95.831908
526.000000	95.912933
525.000000	95.992026
524.000000	96.027471
523.000000	96.039949
522.000000	96.070098
521.000000	96.123117
520.000000	96.179851
519.000000	96.234177
518.000000	96.287202
517.000000	96.324734
516.000000	96.338796
515.000000	96.349136
514.000000	96.369771
513.000000	96.382040
512.000000	96.372026
511.000000	96.367974
510.000000	96.404075
509.000000	96.469108
508.000000	96.530316
507.000000	96.586997
506.000000	96.655897
505.000000	96.725109
504.000000	96.772051
503.000000	96.809562
502.000000	96.866268
501.000000	96.930552
500.000000	96.967882
499.000000	96.983822
498.000000	97.013763
497.000000	97.059668
496.000000	97.083228
495.000000	97.063461
494.000000	97.024716
493.000000	97.002032
492.000000	97.009480
491.000000	97.049182
490.000000	97.118398
489.000000	97.198018
488.000000	97.258577
487.000000	97.282324
486.000000	97.269620
485.000000	97.236917
484.000000	97.225358
483.000000	97.286851
482.000000	97.424516
481.000000	97.568462
480.000000	97.641138
479.000000	97.628944
478.000000	97.574221
477.000000	97.519405
476.000000	97.486986
475.000000	97.495028
474.000000	97.547389
473.000000	97.614139
472.000000	97.664942
471.000000	97.714276
470.000000	97.777852
469.000000	97.818768
468.000000	97.796458
467.000000	97.741215
466.000000	97.726643
465.000000	97.776429
464.000000	97.855653
463.000000	97.946947
462.000000	98.052914
461.000000	98.178321
460.000000	98.276176
459.000000	98.310770
458.000000	98.328138
457.000000	98.279282
456.000000	98.229912
455.000000	98.272857
454.000000	98.447927
453.000000	98.668149
452.000000	98.787969
451.000000	98.770088
450.000000	98.713734
