PE IR       SUBTECH     SPECTRUM    ASCII       PEDS        4.00        
   -1
3C-XXX-F014_1.ASC
23/09/07
10:47:46.00
23/09/07
11:30:09.00
uco
Sample 014 By uco Date Thursday, September 07 2023
450.000000
#HDR
-1
-1
#GR
cm-1
%T
1.0
0.0
4000.000000
-1.000000
3551
8
98.828706
86.843890
#DATA
4000.000000	98.745322
3999.000000	98.745038
3998.000000	98.742514
3997.000000	98.739540
3996.000000	98.737495
3995.000000	98.736801
3994.000000	98.736870
3993.000000	98.736601
3992.000000	98.734999
3991.000000	98.731452
3990.000000	98.725909
3989.000000	98.719217
3988.000000	98.713254
3987.000000	98.710075
3986.000000	98.710577
3985.000000	98.713959
3984.000000	98.718467
3983.000000	98.722439
3982.000000	98.724480
3981.000000	98.723297
3980.000000	98.718158
3979.000000	98.709764
3978.000000	98.700295
3977.000000	98.692365
3976.000000	98.688019
3975.000000	98.688387
3974.000000	98.693587
3973.000000	98.702324
3972.000000	98.711809
3971.000000	98.718800
3970.000000	98.721463
3969.000000	98.720361
3968.000000	98.717599
3967.000000	98.714952
3966.000000	98.712652
3965.000000	98.709815
3964.000000	98.705728
3963.000000	98.700660
3962.000000	98.695789
3961.000000	98.692621
3960.000000	98.692289
3959.000000	98.694840
3958.000000	98.698722
3957.000000	98.701130
3956.000000	98.699746
3955.000000	98.694569
3954.000000	98.688118
3953.000000	98.683701
3952.000000	98.683192
3951.000000	98.686270
3950.000000	98.691137
3949.000000	98.695709
3948.000000	98.698429
3947.000000	98.698397
3946.000000	98.695357
3945.000000	98.689930
3944.000000	98.684003
3943.000000	98.680540
3942.000000	98.681892
3941.000000	98.687882
3940.000000	98.695639
3939.000000	98.701227
3938.000000	98.701871
3937.000000	98.697341
3936.000000	98.689895
3935.000000	98.682975
3934.000000	98.679646
3933.000000	98.681564
3932.000000	98.688206
3931.000000	98.696589
3930.000000	98.702466
3929.000000	98.702689
3928.000000	98.697313
3927.000000	98.689988
3926.000000	98.685928
3925.000000	98.688223
3924.000000	98.695310
3923.000000	98.702584
3922.000000	98.706275
3921.000000	98.704920
3920.000000	98.698548
3919.000000	98.688395
3918.000000	98.677716
3917.000000	98.671317
3916.000000	98.672318
3915.000000	98.679173
3914.000000	98.686684
3913.000000	98.690020
3912.000000	98.687759
3911.000000	98.682135
3910.000000	98.676701
3909.000000	98.673380
3908.000000	98.671662
3907.000000	98.669939
3906.000000	98.667358
3905.000000	98.664747
3904.000000	98.663903
3903.000000	98.666014
3902.000000	98.670987
3901.000000	98.677905
3900.000000	98.685380
3899.000000	98.691595
3898.000000	98.695169
3897.000000	98.696227
3896.000000	98.696004
3895.000000	98.695438
3894.000000	98.694388
3893.000000	98.692107
3892.000000	98.688610
3891.000000	98.685265
3890.000000	98.683443
3889.000000	98.683045
3888.000000	98.682900
3887.000000	98.682624
3886.000000	98.683529
3885.000000	98.686590
3884.000000	98.690649
3883.000000	98.693792
3882.000000	98.695038
3881.000000	98.694502
3880.000000	98.692551
3879.000000	98.689294
3878.000000	98.685470
3877.000000	98.682619
3876.000000	98.682150
3875.000000	98.684405
3874.000000	98.687460
3873.000000	98.688106
3872.000000	98.685503
3871.000000	98.682919
3870.000000	98.684611
3869.000000	98.690699
3868.000000	98.697419
3867.000000	98.701681
3866.000000	98.702758
3865.000000	98.702071
3864.000000	98.702067
3863.000000	98.703565
3862.000000	98.704649
3861.000000	98.703103
3860.000000	98.699137
3859.000000	98.694870
3858.000000	98.691560
3857.000000	98.687773
3856.000000	98.680847
3855.000000	98.670524
3854.000000	98.661265
3853.000000	98.658056
3852.000000	98.660473
3851.000000	98.666875
3850.000000	98.676673
3849.000000	98.687540
3848.000000	98.696439
3847.000000	98.700979
3846.000000	98.700053
3845.000000	98.693873
3844.000000	98.683900
3843.000000	98.672340
3842.000000	98.661659
3841.000000	98.654468
3840.000000	98.653203
3839.000000	98.658810
3838.000000	98.669476
3837.000000	98.681396
3836.000000	98.691628
3835.000000	98.699213
3834.000000	98.703955
3833.000000	98.705606
3832.000000	98.703960
3831.000000	98.699054
3830.000000	98.691765
3829.000000	98.684235
3828.000000	98.679362
3827.000000	98.679136
3826.000000	98.682465
3825.000000	98.685726
3824.000000	98.686318
3823.000000	98.685316
3822.000000	98.686426
3821.000000	98.690558
3820.000000	98.692570
3819.000000	98.688911
3818.000000	98.683087
3817.000000	98.680634
3816.000000	98.683065
3815.000000	98.685640
3814.000000	98.683825
3813.000000	98.679177
3812.000000	98.675806
3811.000000	98.676249
3810.000000	98.680686
3809.000000	98.687776
3808.000000	98.695589
3807.000000	98.701575
3806.000000	98.703110
3805.000000	98.699677
3804.000000	98.693501
3803.000000	98.688345
3802.000000	98.688215
3801.000000	98.692884
3800.000000	98.697127
3799.000000	98.698426
3798.000000	98.698365
3797.000000	98.698335
3796.000000	98.698033
3795.000000	98.696379
3794.000000	98.693594
3793.000000	98.691439
3792.000000	98.691361
3791.000000	98.693300
3790.000000	98.696143
3789.000000	98.698730
3788.000000	98.700460
3787.000000	98.701056
3786.000000	98.700180
3785.000000	98.697764
3784.000000	98.694661
3783.000000	98.692632
3782.000000	98.693477
3781.000000	98.697763
3780.000000	98.703793
3779.000000	98.708013
3778.000000	98.707967
3777.000000	98.704972
3776.000000	98.702521
3775.000000	98.702515
3774.000000	98.703779
3773.000000	98.703698
3772.000000	98.701022
3771.000000	98.697362
3770.000000	98.695838
3769.000000	98.697841
3768.000000	98.702316
3767.000000	98.707787
3766.000000	98.713135
3765.000000	98.716844
3764.000000	98.717162
3763.000000	98.713134
3762.000000	98.705092
3761.000000	98.694627
3760.000000	98.684993
3759.000000	98.680319
3758.000000	98.682818
3757.000000	98.690914
3756.000000	98.700759
3755.000000	98.709076
3754.000000	98.714684
3753.000000	98.718261
3752.000000	98.720542
3751.000000	98.720758
3750.000000	98.717687
3749.000000	98.712711
3748.000000	98.709468
3747.000000	98.710585
3746.000000	98.717069
3745.000000	98.727422
3744.000000	98.735062
3743.000000	98.734858
3742.000000	98.730099
3741.000000	98.724749
3740.000000	98.718690
3739.000000	98.711498
3738.000000	98.704826
3737.000000	98.702135
3736.000000	98.706471
3735.000000	98.717142
3734.000000	98.729740
3733.000000	98.740489
3732.000000	98.748209
3731.000000	98.752717
3730.000000	98.753842
3729.000000	98.751597
3728.000000	98.746758
3727.000000	98.741137
3726.000000	98.736704
3725.000000	98.734351
3724.000000	98.733925
3723.000000	98.734888
3722.000000	98.736484
3721.000000	98.738151
3720.000000	98.740191
3719.000000	98.743333
3718.000000	98.747319
3717.000000	98.750416
3716.000000	98.750916
3715.000000	98.748776
3714.000000	98.745258
3713.000000	98.741616
3712.000000	98.738006
3711.000000	98.733653
3710.000000	98.728410
3709.000000	98.723676
3708.000000	98.720941
3707.000000	98.720408
3706.000000	98.721414
3705.000000	98.723381
3704.000000	98.726039
3703.000000	98.729097
3702.000000	98.732177
3701.000000	98.734977
3700.000000	98.737361
3699.000000	98.739042
3698.000000	98.739240
3697.000000	98.737087
3696.000000	98.732529
3695.000000	98.726784
3694.000000	98.722196
3693.000000	98.721833
3692.000000	98.728365
3691.000000	98.741617
3690.000000	98.755986
3689.000000	98.762553
3688.000000	98.757639
3687.000000	98.746944
3686.000000	98.737884
3685.000000	98.732648
3684.000000	98.729493
3683.000000	98.726286
3682.000000	98.722085
3681.000000	98.716721
3680.000000	98.709932
3679.000000	98.701206
3678.000000	98.690918
3677.000000	98.682102
3676.000000	98.679819
3675.000000	98.684619
3674.000000	98.690480
3673.000000	98.693975
3672.000000	98.695952
3671.000000	98.697321
3670.000000	98.697422
3669.000000	98.693759
3668.000000	98.685520
3667.000000	98.675227
3666.000000	98.665585
3665.000000	98.658304
3664.000000	98.654536
3663.000000	98.654136
3662.000000	98.655154
3661.000000	98.654909
3660.000000	98.651852
3659.000000	98.646103
3658.000000	98.638587
3657.000000	98.630386
3656.000000	98.622628
3655.000000	98.616458
3654.000000	98.612524
3653.000000	98.610160
3652.000000	98.607706
3651.000000	98.603949
3650.000000	98.599185
3649.000000	98.595186
3648.000000	98.593285
3647.000000	98.592185
3646.000000	98.589203
3645.000000	98.583496
3644.000000	98.577336
3643.000000	98.574334
3642.000000	98.575910
3641.000000	98.579354
3640.000000	98.580253
3639.000000	98.576393
3638.000000	98.568351
3637.000000	98.557224
3636.000000	98.543629
3635.000000	98.529010
3634.000000	98.516142
3633.000000	98.506998
3632.000000	98.501121
3631.000000	98.497106
3630.000000	98.494837
3629.000000	98.494187
3628.000000	98.492203
3627.000000	98.486498
3626.000000	98.478413
3625.000000	98.469367
3624.000000	98.459943
3623.000000	98.451019
3622.000000	98.443362
3621.000000	98.436882
3620.000000	98.430639
3619.000000	98.423876
3618.000000	98.417125
3617.000000	98.411707
3616.000000	98.407592
3615.000000	98.402288
3614.000000	98.392549
3613.000000	98.377373
3612.000000	98.359356
3611.000000	98.342388
3610.000000	98.328745
3609.000000	98.319208
3608.000000	98.314437
3607.000000	98.314442
3606.000000	98.317533
3605.000000	98.321007
3604.000000	98.322783
3603.000000	98.322035
3602.000000	98.318759
3601.000000	98.313140
3600.000000	98.305404
3599.000000	98.295903
3598.000000	98.284845
3597.000000	98.272131
3596.000000	98.257928
3595.000000	98.243362
3594.000000	98.229921
3593.000000	98.218204
3592.000000	98.207527
3591.000000	98.197010
3590.000000	98.186747
3589.000000	98.177842
3588.000000	98.170642
3587.000000	98.163240
3586.000000	98.153754
3585.000000	98.143069
3584.000000	98.133229
3583.000000	98.124711
3582.000000	98.116392
3581.000000	98.107132
3580.000000	98.096971
3579.000000	98.086804
3578.000000	98.077252
3577.000000	98.068405
3576.000000	98.060047
3575.000000	98.051333
3574.000000	98.040382
3573.000000	98.025492
3572.000000	98.007127
3571.000000	97.987962
3570.000000	97.970853
3569.000000	97.957269
3568.000000	97.947234
3567.000000	97.939862
3566.000000	97.933467
3565.000000	97.925815
3564.000000	97.915159
3563.000000	97.901463
3562.000000	97.886926
3561.000000	97.874576
3560.000000	97.865559
3559.000000	97.857902
3558.000000	97.848385
3557.000000	97.835210
3556.000000	97.818645
3555.000000	97.799915
3554.000000	97.780456
3553.000000	97.762200
3552.000000	97.747523
3551.000000	97.737855
3550.000000	97.732655
3549.000000	97.730344
3548.000000	97.729648
3547.000000	97.729616
3546.000000	97.728745
3545.000000	97.724995
3544.000000	97.716869
3543.000000	97.703892
3542.000000	97.686311
3541.000000	97.665283
3540.000000	97.643339
3539.000000	97.623757
3538.000000	97.608681
3537.000000	97.597746
3536.000000	97.588574
3535.000000	97.578732
3534.000000	97.567316
3533.000000	97.555103
3532.000000	97.543728
3531.000000	97.534496
3530.000000	97.527314
3529.000000	97.520611
3528.000000	97.512575
3527.000000	97.502445
3526.000000	97.490467
3525.000000	97.476954
3524.000000	97.462047
3523.000000	97.446404
3522.000000	97.431417
3521.000000	97.418196
3520.000000	97.406503
3519.000000	97.395033
3518.000000	97.382771
3517.000000	97.370018
3516.000000	97.357957
3515.000000	97.347331
3514.000000	97.337796
3513.000000	97.328503
3512.000000	97.319012
3511.000000	97.309575
3510.000000	97.300852
3509.000000	97.293449
3508.000000	97.287469
3507.000000	97.282245
3506.000000	97.276640
3505.000000	97.269804
3504.000000	97.261724
3503.000000	97.253030
3502.000000	97.244423
3501.000000	97.236392
3500.000000	97.229144
3499.000000	97.222500
3498.000000	97.215880
3497.000000	97.208365
3496.000000	97.198687
3495.000000	97.185486
3494.000000	97.168241
3493.000000	97.148261
3492.000000	97.128392
3491.000000	97.111551
3490.000000	97.099529
3489.000000	97.092663
3488.000000	97.089638
3487.000000	97.087263
3486.000000	97.081608
3485.000000	97.070474
3484.000000	97.054786
3483.000000	97.037614
3482.000000	97.022190
3481.000000	97.010672
3480.000000	97.003831
3479.000000	97.000853
3478.000000	96.999719
3477.000000	96.998544
3476.000000	96.996678
3475.000000	96.994305
3474.000000	96.991269
3473.000000	96.986737
3472.000000	96.979550
3471.000000	96.968406
3470.000000	96.952478
3469.000000	96.932963
3468.000000	96.913664
3467.000000	96.898726
3466.000000	96.889426
3465.000000	96.883951
3464.000000	96.879975
3463.000000	96.876310
3462.000000	96.872047
3461.000000	96.865675
3460.000000	96.856091
3459.000000	96.843860
3458.000000	96.830719
3457.000000	96.818159
3456.000000	96.806878
3455.000000	96.797116
3454.000000	96.788882
3453.000000	96.781938
3452.000000	96.776073
3451.000000	96.771552
3450.000000	96.769027
3449.000000	96.768653
3448.000000	96.769159
3447.000000	96.767974
3446.000000	96.762769
3445.000000	96.752919
3444.000000	96.739401
3443.000000	96.723973
3442.000000	96.709057
3441.000000	96.697626
3440.000000	96.691641
3439.000000	96.690123
3438.000000	96.689462
3437.000000	96.686256
3436.000000	96.679627
3435.000000	96.670766
3434.000000	96.661189
3433.000000	96.651918
3432.000000	96.643339
3431.000000	96.634820
3430.000000	96.625144
3429.000000	96.614248
3428.000000	96.603968
3427.000000	96.595924
3426.000000	96.589279
3425.000000	96.581823
3424.000000	96.572940
3423.000000	96.564081
3422.000000	96.556314
3421.000000	96.548811
3420.000000	96.540183
3419.000000	96.530153
3418.000000	96.519234
3417.000000	96.507694
3416.000000	96.495647
3415.000000	96.483739
3414.000000	96.473212
3413.000000	96.465251
3412.000000	96.459954
3411.000000	96.455516
3410.000000	96.448987
3409.000000	96.438996
3408.000000	96.427676
3407.000000	96.418670
3406.000000	96.412967
3405.000000	96.407763
3404.000000	96.399761
3403.000000	96.388626
3402.000000	96.376647
3401.000000	96.366106
3400.000000	96.357751
3399.000000	96.350837
3398.000000	96.343519
3397.000000	96.333699
3396.000000	96.320710
3395.000000	96.306289
3394.000000	96.293279
3393.000000	96.283226
3392.000000	96.275414
3391.000000	96.268025
3390.000000	96.259888
3389.000000	96.251154
3388.000000	96.242768
3387.000000	96.235424
3386.000000	96.228838
3385.000000	96.221898
3384.000000	96.213461
3383.000000	96.202968
3382.000000	96.190590
3381.000000	96.177297
3380.000000	96.164728
3379.000000	96.154244
3378.000000	96.145652
3377.000000	96.137170
3376.000000	96.126966
3375.000000	96.114674
3374.000000	96.101396
3373.000000	96.088626
3372.000000	96.077274
3371.000000	96.067253
3370.000000	96.057422
3369.000000	96.046000
3368.000000	96.031560
3367.000000	96.014125
3366.000000	95.995553
3365.000000	95.978793
3364.000000	95.966116
3363.000000	95.957299
3362.000000	95.949367
3361.000000	95.938645
3360.000000	95.923662
3359.000000	95.906167
3358.000000	95.889215
3357.000000	95.874325
3356.000000	95.860466
3355.000000	95.845548
3354.000000	95.828593
3353.000000	95.810387
3352.000000	95.792354
3351.000000	95.775260
3350.000000	95.759128
3349.000000	95.743747
3348.000000	95.728693
3347.000000	95.713187
3346.000000	95.696755
3345.000000	95.679993
3344.000000	95.663823
3343.000000	95.647900
3342.000000	95.630870
3341.000000	95.612710
3340.000000	95.595706
3339.000000	95.582205
3338.000000	95.571933
3337.000000	95.562209
3336.000000	95.550283
3335.000000	95.534821
3334.000000	95.515949
3333.000000	95.495134
3332.000000	95.474919
3331.000000	95.457570
3330.000000	95.443541
3329.000000	95.431426
3328.000000	95.419111
3327.000000	95.404797
3326.000000	95.387831
3325.000000	95.369615
3324.000000	95.353206
3323.000000	95.340817
3322.000000	95.331613
3321.000000	95.322629
3320.000000	95.311384
3319.000000	95.296992
3318.000000	95.279639
3317.000000	95.260473
3316.000000	95.241819
3315.000000	95.225911
3314.000000	95.213013
3313.000000	95.201722
3312.000000	95.191008
3311.000000	95.180836
3310.000000	95.170930
3309.000000	95.160489
3308.000000	95.149648
3307.000000	95.139755
3306.000000	95.131281
3305.000000	95.122409
3304.000000	95.110578
3303.000000	95.095129
3302.000000	95.078073
3301.000000	95.062675
3300.000000	95.051441
3299.000000	95.044700
3298.000000	95.040489
3297.000000	95.036058
3296.000000	95.029785
3295.000000	95.021659
3294.000000	95.012351
3293.000000	95.002707
3292.000000	94.993891
3291.000000	94.986870
3290.000000	94.981521
3289.000000	94.977005
3288.000000	94.973214
3287.000000	94.970944
3286.000000	94.970551
3285.000000	94.971431
3284.000000	94.972866
3283.000000	94.974310
3282.000000	94.974718
3281.000000	94.973134
3280.000000	94.970818
3279.000000	94.971292
3278.000000	94.976934
3277.000000	94.986083
3276.000000	94.994660
3275.000000	95.000570
3274.000000	95.005383
3273.000000	95.011901
3272.000000	95.020909
3271.000000	95.030387
3270.000000	95.037410
3269.000000	95.040770
3268.000000	95.042107
3267.000000	95.044477
3266.000000	95.049659
3265.000000	95.057053
3264.000000	95.065296
3263.000000	95.074141
3262.000000	95.084191
3261.000000	95.095369
3260.000000	95.106630
3259.000000	95.117286
3258.000000	95.128144
3257.000000	95.141094
3256.000000	95.157530
3255.000000	95.176932
3254.000000	95.196922
3253.000000	95.215044
3252.000000	95.230563
3251.000000	95.244281
3250.000000	95.256868
3249.000000	95.268205
3248.000000	95.278447
3247.000000	95.288386
3246.000000	95.297977
3245.000000	95.305393
3244.000000	95.309045
3243.000000	95.310337
3242.000000	95.313082
3241.000000	95.320001
3240.000000	95.330679
3239.000000	95.343232
3238.000000	95.356889
3237.000000	95.372075
3236.000000	95.388453
3235.000000	95.404158
3234.000000	95.417333
3233.000000	95.427510
3232.000000	95.434892
3231.000000	95.438996
3230.000000	95.439384
3229.000000	95.437922
3228.000000	95.439019
3227.000000	95.446281
3226.000000	95.459015
3225.000000	95.472743
3224.000000	95.483116
3223.000000	95.489166
3222.000000	95.493306
3221.000000	95.499053
3220.000000	95.508402
3219.000000	95.520031
3218.000000	95.529912
3217.000000	95.534747
3216.000000	95.535337
3215.000000	95.536032
3214.000000	95.540261
3213.000000	95.547359
3212.000000	95.554379
3211.000000	95.560225
3210.000000	95.566844
3209.000000	95.576344
3208.000000	95.588098
3207.000000	95.599187
3206.000000	95.607401
3205.000000	95.613279
3204.000000	95.619311
3203.000000	95.627449
3202.000000	95.637549
3201.000000	95.648066
3200.000000	95.657760
3199.000000	95.666627
3198.000000	95.675498
3197.000000	95.685041
3196.000000	95.694866
3195.000000	95.703468
3194.000000	95.709741
3193.000000	95.715074
3192.000000	95.723344
3191.000000	95.737545
3190.000000	95.756401
3189.000000	95.775101
3188.000000	95.789611
3187.000000	95.799625
3186.000000	95.807725
3185.000000	95.816909
3184.000000	95.829035
3183.000000	95.844086
3182.000000	95.859768
3181.000000	95.872589
3180.000000	95.880515
3179.000000	95.884727
3178.000000	95.888754
3177.000000	95.896153
3176.000000	95.909054
3175.000000	95.927466
3174.000000	95.948885
3173.000000	95.969094
3172.000000	95.984710
3171.000000	95.995383
3170.000000	96.003107
3169.000000	96.009942
3168.000000	96.017009
3167.000000	96.025162
3166.000000	96.035221
3165.000000	96.047141
3164.000000	96.059819
3163.000000	96.072270
3162.000000	96.084646
3161.000000	96.097663
3160.000000	96.111277
3159.000000	96.124419
3158.000000	96.136165
3157.000000	96.146897
3156.000000	96.158110
3155.000000	96.171031
3154.000000	96.185620
3153.000000	96.200814
3152.000000	96.215244
3151.000000	96.227422
3150.000000	96.236022
3149.000000	96.241221
3148.000000	96.245763
3147.000000	96.253459
3146.000000	96.265756
3145.000000	96.280452
3144.000000	96.294286
3143.000000	96.306258
3142.000000	96.317594
3141.000000	96.329177
3140.000000	96.340215
3139.000000	96.349459
3138.000000	96.356740
3137.000000	96.363036
3136.000000	96.369500
3135.000000	96.376595
3134.000000	96.383777
3133.000000	96.390056
3132.000000	96.395250
3131.000000	96.400444
3130.000000	96.406691
3129.000000	96.413497
3128.000000	96.419422
3127.000000	96.424219
3126.000000	96.429475
3125.000000	96.436591
3124.000000	96.444768
3123.000000	96.451618
3122.000000	96.455510
3121.000000	96.456817
3120.000000	96.457057
3119.000000	96.457428
3118.000000	96.458088
3117.000000	96.458476
3116.000000	96.458239
3115.000000	96.458040
3114.000000	96.459077
3113.000000	96.461303
3112.000000	96.462614
3111.000000	96.460828
3110.000000	96.456666
3109.000000	96.453557
3108.000000	96.453575
3107.000000	96.454438
3106.000000	96.451877
3105.000000	96.444950
3104.000000	96.437698
3103.000000	96.434966
3102.000000	96.437232
3101.000000	96.440189
3100.000000	96.439117
3099.000000	96.433181
3098.000000	96.425600
3097.000000	96.420271
3096.000000	96.418549
3095.000000	96.418815
3094.000000	96.418665
3093.000000	96.417005
3092.000000	96.414068
3091.000000	96.410185
3090.000000	96.405367
3089.000000	96.399876
3088.000000	96.394289
3087.000000	96.388792
3086.000000	96.383112
3085.000000	96.377360
3084.000000	96.372301
3083.000000	96.368331
3082.000000	96.364752
3081.000000	96.360522
3080.000000	96.355400
3079.000000	96.350056
3078.000000	96.345396
3077.000000	96.341930
3076.000000	96.339261
3075.000000	96.336127
3074.000000	96.331792
3073.000000	96.327669
3072.000000	96.326515
3071.000000	96.329297
3070.000000	96.333850
3069.000000	96.337495
3068.000000	96.340046
3067.000000	96.342992
3066.000000	96.346557
3065.000000	96.349374
3064.000000	96.350948
3063.000000	96.352825
3062.000000	96.356940
3061.000000	96.363742
3060.000000	96.372035
3059.000000	96.379709
3058.000000	96.384827
3057.000000	96.387359
3056.000000	96.390075
3055.000000	96.396539
3054.000000	96.407676
3053.000000	96.420988
3052.000000	96.433250
3051.000000	96.443078
3050.000000	96.450969
3049.000000	96.458192
3048.000000	96.466201
3047.000000	96.476098
3046.000000	96.487744
3045.000000	96.499763
3044.000000	96.510875
3043.000000	96.520820
3042.000000	96.529784
3041.000000	96.537731
3040.000000	96.544860
3039.000000	96.552219
3038.000000	96.561157
3037.000000	96.572168
3036.000000	96.584442
3035.000000	96.596240
3034.000000	96.605750
3033.000000	96.612334
3032.000000	96.617371
3031.000000	96.623372
3030.000000	96.631733
3029.000000	96.641708
3028.000000	96.651774
3027.000000	96.661460
3026.000000	96.671427
3025.000000	96.682133
3024.000000	96.692909
3023.000000	96.702387
3022.000000	96.709756
3021.000000	96.715511
3020.000000	96.720708
3019.000000	96.725337
3018.000000	96.728097
3017.000000	96.728341
3016.000000	96.727696
3015.000000	96.728680
3014.000000	96.731892
3013.000000	96.735475
3012.000000	96.737039
3011.000000	96.735001
3010.000000	96.728503
3009.000000	96.717885
3008.000000	96.705756
3007.000000	96.695961
3006.000000	96.690327
3005.000000	96.687020
3004.000000	96.682500
3003.000000	96.674389
3002.000000	96.662189
3001.000000	96.646734
3000.000000	96.629845
2999.000000	96.613440
2998.000000	96.597723
2997.000000	96.580856
2996.000000	96.561234
2995.000000	96.539383
2994.000000	96.516674
2993.000000	96.493126
2992.000000	96.467767
2991.000000	96.440397
2990.000000	96.411459
2989.000000	96.380305
2988.000000	96.345253
2987.000000	96.305725
2986.000000	96.263231
2985.000000	96.219895
2984.000000	96.176753
2983.000000	96.133742
2982.000000	96.090281
2981.000000	96.044879
2980.000000	95.994913
2979.000000	95.937989
2978.000000	95.874215
2977.000000	95.806642
2976.000000	95.738739
2975.000000	95.671176
2974.000000	95.601245
2973.000000	95.525659
2972.000000	95.443639
2971.000000	95.356973
2970.000000	95.267782
2969.000000	95.177119
2968.000000	95.085819
2967.000000	94.995550
2966.000000	94.908544
2965.000000	94.826967
2964.000000	94.752815
2963.000000	94.687909
2962.000000	94.633150
2961.000000	94.588447
2960.000000	94.553849
2959.000000	94.530411
2958.000000	94.519510
2957.000000	94.521459
2956.000000	94.535605
2955.000000	94.560972
2954.000000	94.595923
2953.000000	94.637137
2952.000000	94.679743
2951.000000	94.719251
2950.000000	94.752521
2949.000000	94.776964
2948.000000	94.789168
2947.000000	94.785542
2946.000000	94.764685
2945.000000	94.728734
2944.000000	94.682014
2943.000000	94.627627
2942.000000	94.565669
2941.000000	94.494495
2940.000000	94.413624
2939.000000	94.324859
2938.000000	94.231033
2937.000000	94.134863
2936.000000	94.039096
2935.000000	93.946981
2934.000000	93.861485
2933.000000	93.784285
2932.000000	93.715846
2931.000000	93.656060
2930.000000	93.604492
2929.000000	93.560407
2928.000000	93.523759
2927.000000	93.496069
2926.000000	93.479610
2925.000000	93.475475
2924.000000	93.482820
2923.000000	93.500139
2922.000000	93.526359
2921.000000	93.560569
2920.000000	93.601801
2919.000000	93.650026
2918.000000	93.707440
2917.000000	93.777681
2916.000000	93.863111
2915.000000	93.962433
2914.000000	94.070431
2913.000000	94.180051
2912.000000	94.285370
2911.000000	94.383770
2910.000000	94.475884
2909.000000	94.563572
2908.000000	94.648026
2907.000000	94.729397
2906.000000	94.807719
2905.000000	94.883549
2904.000000	94.957821
2903.000000	95.031329
2902.000000	95.104453
2901.000000	95.177073
2900.000000	95.248653
2899.000000	95.318444
2898.000000	95.385753
2897.000000	95.450082
2896.000000	95.511087
2895.000000	95.568504
2894.000000	95.622270
2893.000000	95.672738
2892.000000	95.720604
2891.000000	95.766354
2890.000000	95.809464
2889.000000	95.848051
2888.000000	95.879442
2887.000000	95.901403
2886.000000	95.913374
2885.000000	95.916720
2884.000000	95.913621
2883.000000	95.905342
2882.000000	95.891362
2881.000000	95.870219
2880.000000	95.841069
2879.000000	95.804524
2878.000000	95.762379
2877.000000	95.717275
2876.000000	95.672491
2875.000000	95.631372
2874.000000	95.596466
2873.000000	95.569167
2872.000000	95.550482
2871.000000	95.541611
2870.000000	95.542853
2869.000000	95.551406
2868.000000	95.560894
2867.000000	95.564135
2866.000000	95.557062
2865.000000	95.539976
2864.000000	95.514874
2863.000000	95.482553
2862.000000	95.442947
2861.000000	95.397922
2860.000000	95.352109
2859.000000	95.310349
2858.000000	95.275030
2857.000000	95.246566
2856.000000	95.225721
2855.000000	95.214244
2854.000000	95.214017
2853.000000	95.226772
2852.000000	95.254987
2851.000000	95.302162
2850.000000	95.371325
2849.000000	95.463112
2848.000000	95.574638
2847.000000	95.699331
2846.000000	95.828006
2845.000000	95.951920
2844.000000	96.066105
2843.000000	96.170208
2842.000000	96.265757
2841.000000	96.352688
2840.000000	96.429117
2839.000000	96.493748
2838.000000	96.547640
2837.000000	96.593419
2836.000000	96.633295
2835.000000	96.668194
2834.000000	96.698462
2833.000000	96.724715
2832.000000	96.747865
2831.000000	96.768741
2830.000000	96.788132
2829.000000	96.807124
2828.000000	96.826560
2827.000000	96.845862
2826.000000	96.863112
2825.000000	96.876956
2824.000000	96.888091
2823.000000	96.898245
2822.000000	96.908241
2821.000000	96.918002
2820.000000	96.928008
2819.000000	96.939252
2818.000000	96.951492
2817.000000	96.962825
2816.000000	96.971766
2815.000000	96.979014
2814.000000	96.986608
2813.000000	96.995920
2812.000000	97.006989
2811.000000	97.019103
2810.000000	97.031421
2809.000000	97.043597
2808.000000	97.056441
2807.000000	97.071369
2806.000000	97.088226
2805.000000	97.104062
2804.000000	97.115211
2803.000000	97.120916
2802.000000	97.124209
2801.000000	97.128988
2800.000000	97.136591
2799.000000	97.145233
2798.000000	97.152239
2797.000000	97.156538
2796.000000	97.159437
2795.000000	97.163319
2794.000000	97.169546
2793.000000	97.177325
2792.000000	97.184576
2791.000000	97.189953
2790.000000	97.194157
2789.000000	97.199305
2788.000000	97.207023
2787.000000	97.217074
2786.000000	97.227722
2785.000000	97.237343
2784.000000	97.245484
2783.000000	97.252479
2782.000000	97.258559
2781.000000	97.263846
2780.000000	97.268854
2779.000000	97.274205
2778.000000	97.279641
2777.000000	97.283987
2776.000000	97.286553
2775.000000	97.288326
2774.000000	97.291370
2773.000000	97.297138
2772.000000	97.305366
2771.000000	97.314292
2770.000000	97.321728
2769.000000	97.326363
2768.000000	97.328664
2767.000000	97.330618
2766.000000	97.334282
2765.000000	97.340142
2764.000000	97.346684
2763.000000	97.351575
2762.000000	97.353607
2761.000000	97.353808
2760.000000	97.354632
2759.000000	97.357949
2758.000000	97.363727
2757.000000	97.370493
2756.000000	97.376593
2755.000000	97.380970
2754.000000	97.383479
2753.000000	97.385114
2752.000000	97.387499
2751.000000	97.391288
2750.000000	97.395156
2749.000000	97.397122
2748.000000	97.396993
2747.000000	97.396850
2746.000000	97.399011
2745.000000	97.404117
2744.000000	97.411247
2743.000000	97.419049
2742.000000	97.426273
2741.000000	97.431834
2740.000000	97.435181
2739.000000	97.436684
2738.000000	97.437438
2737.000000	97.438608
2736.000000	97.440933
2735.000000	97.444522
2734.000000	97.449020
2733.000000	97.454060
2732.000000	97.459506
2731.000000	97.465058
2730.000000	97.469919
2729.000000	97.473481
2728.000000	97.476286
2727.000000	97.479654
2726.000000	97.484139
2725.000000	97.488993
2724.000000	97.493442
2723.000000	97.497785
2722.000000	97.502583
2721.000000	97.507209
2720.000000	97.510168
2719.000000	97.510976
2718.000000	97.511073
2717.000000	97.512437
2716.000000	97.515536
2715.000000	97.519062
2714.000000	97.521581
2713.000000	97.523041
2712.000000	97.524529
2711.000000	97.527065
2710.000000	97.531054
2709.000000	97.536450
2708.000000	97.542603
2707.000000	97.548041
2706.000000	97.551500
2705.000000	97.553500
2704.000000	97.555914
2703.000000	97.559460
2702.000000	97.562595
2701.000000	97.563779
2700.000000	97.563886
2699.000000	97.565003
2698.000000	97.567389
2697.000000	97.569206
2696.000000	97.569289
2695.000000	97.568749
2694.000000	97.569338
2693.000000	97.571358
2692.000000	97.573665
2691.000000	97.574913
2690.000000	97.574290
2689.000000	97.571965
2688.000000	97.569568
2687.000000	97.569699
2686.000000	97.573976
2685.000000	97.581391
2684.000000	97.588871
2683.000000	97.593525
2682.000000	97.594518
2681.000000	97.593278
2680.000000	97.592200
2679.000000	97.592774
2678.000000	97.594590
2677.000000	97.596097
2676.000000	97.596338
2675.000000	97.595821
2674.000000	97.595787
2673.000000	97.596957
2672.000000	97.598934
2671.000000	97.600497
2670.000000	97.600503
2669.000000	97.598886
2668.000000	97.596862
2667.000000	97.595843
2666.000000	97.596096
2665.000000	97.596690
2664.000000	97.596721
2663.000000	97.596323
2662.000000	97.596461
2661.000000	97.597862
2660.000000	97.600016
2659.000000	97.601108
2658.000000	97.599350
2657.000000	97.594937
2656.000000	97.590643
2655.000000	97.590079
2654.000000	97.595233
2653.000000	97.605503
2652.000000	97.618236
2651.000000	97.629849
2650.000000	97.637453
2649.000000	97.640868
2648.000000	97.643127
2647.000000	97.647944
2646.000000	97.656234
2645.000000	97.665412
2644.000000	97.671923
2643.000000	97.673978
2642.000000	97.672376
2641.000000	97.669763
2640.000000	97.669202
2639.000000	97.672509
2638.000000	97.679355
2637.000000	97.687953
2636.000000	97.696372
2635.000000	97.703125
2634.000000	97.707542
2633.000000	97.710617
2632.000000	97.714844
2631.000000	97.721811
2630.000000	97.730106
2629.000000	97.736885
2628.000000	97.741482
2627.000000	97.746283
2626.000000	97.753813
2625.000000	97.763820
2624.000000	97.773408
2623.000000	97.779225
2622.000000	97.779782
2621.000000	97.776649
2620.000000	97.773489
2619.000000	97.773172
2618.000000	97.775890
2617.000000	97.780460
2616.000000	97.786326
2615.000000	97.792950
2614.000000	97.798430
2613.000000	97.801115
2612.000000	97.802451
2611.000000	97.805783
2610.000000	97.811767
2609.000000	97.817080
2608.000000	97.818526
2607.000000	97.816920
2606.000000	97.815806
2605.000000	97.817600
2604.000000	97.822006
2603.000000	97.827227
2602.000000	97.831615
2601.000000	97.834323
2600.000000	97.835143
2599.000000	97.834239
2598.000000	97.832683
2597.000000	97.833297
2596.000000	97.839300
2595.000000	97.850526
2594.000000	97.861889
2593.000000	97.867585
2592.000000	97.866979
2591.000000	97.864896
2590.000000	97.866249
2589.000000	97.871570
2588.000000	97.877285
2587.000000	97.879024
2586.000000	97.875229
2585.000000	97.869078
2584.000000	97.866270
2583.000000	97.869123
2582.000000	97.873707
2581.000000	97.874772
2580.000000	97.872378
2579.000000	97.871118
2578.000000	97.873536
2577.000000	97.877852
2576.000000	97.881930
2575.000000	97.885936
2574.000000	97.890066
2573.000000	97.892811
2572.000000	97.893197
2571.000000	97.892858
2570.000000	97.894797
2569.000000	97.901374
2568.000000	97.913407
2567.000000	97.928868
2566.000000	97.942195
2565.000000	97.947706
2564.000000	97.945066
2563.000000	97.939506
2562.000000	97.935885
2561.000000	97.934522
2560.000000	97.933281
2559.000000	97.931424
2558.000000	97.930130
2557.000000	97.930854
2556.000000	97.933955
2555.000000	97.937755
2554.000000	97.939102
2553.000000	97.936758
2552.000000	97.933898
2551.000000	97.934815
2550.000000	97.939317
2549.000000	97.943284
2548.000000	97.944597
2547.000000	97.945109
2546.000000	97.946360
2545.000000	97.947200
2544.000000	97.946925
2543.000000	97.947075
2542.000000	97.948104
2541.000000	97.947297
2540.000000	97.942204
2539.000000	97.933871
2538.000000	97.925097
2537.000000	97.918047
2536.000000	97.915207
2535.000000	97.919524
2534.000000	97.930648
2533.000000	97.942787
2532.000000	97.948648
2531.000000	97.944833
2530.000000	97.932518
2529.000000	97.915487
2528.000000	97.899216
2527.000000	97.889071
2526.000000	97.886177
2525.000000	97.886136
2524.000000	97.884107
2523.000000	97.880268
2522.000000	97.878857
2521.000000	97.883159
2520.000000	97.893027
2519.000000	97.905566
2518.000000	97.915835
2517.000000	97.918439
2516.000000	97.911673
2515.000000	97.900304
2514.000000	97.892364
2513.000000	97.892773
2512.000000	97.900518
2511.000000	97.911099
2510.000000	97.920269
2509.000000	97.926252
2508.000000	97.930098
2507.000000	97.934194
2506.000000	97.939812
2505.000000	97.946326
2504.000000	97.953009
2503.000000	97.960488
2502.000000	97.969558
2501.000000	97.979494
2500.000000	97.988649
2499.000000	97.996328
2498.000000	98.003325
2497.000000	98.010784
2496.000000	98.018520
2495.000000	98.024087
2494.000000	98.023919
2493.000000	98.016976
2492.000000	98.007428
2491.000000	98.001982
2490.000000	98.004008
2489.000000	98.011290
2488.000000	98.019969
2487.000000	98.029023
2486.000000	98.039988
2485.000000	98.053576
2484.000000	98.067807
2483.000000	98.079159
2482.000000	98.085143
2481.000000	98.086092
2480.000000	98.084509
2479.000000	98.082156
2478.000000	98.078417
2477.000000	98.072638
2476.000000	98.066914
2475.000000	98.064575
2474.000000	98.066131
2473.000000	98.068933
2472.000000	98.070916
2471.000000	98.072624
2470.000000	98.075149
2469.000000	98.078069
2468.000000	98.080249
2467.000000	98.081212
2466.000000	98.081342
2465.000000	98.082022
2464.000000	98.085514
2463.000000	98.092847
2462.000000	98.101614
2461.000000	98.107532
2460.000000	98.108662
2459.000000	98.106627
2458.000000	98.103671
2457.000000	98.100489
2456.000000	98.097033
2455.000000	98.093624
2454.000000	98.091004
2453.000000	98.090888
2452.000000	98.096040
2451.000000	98.107484
2450.000000	98.121539
2449.000000	98.132055
2448.000000	98.136021
2447.000000	98.135082
2446.000000	98.131934
2445.000000	98.128024
2444.000000	98.124729
2443.000000	98.123159
2442.000000	98.122146
2441.000000	98.119632
2440.000000	98.117074
2439.000000	98.118849
2438.000000	98.125641
2437.000000	98.131706
2436.000000	98.131241
2435.000000	98.125093
2434.000000	98.118769
2433.000000	98.115920
2432.000000	98.116265
2431.000000	98.118243
2430.000000	98.120753
2429.000000	98.122799
2428.000000	98.123761
2427.000000	98.124400
2426.000000	98.126533
2425.000000	98.131595
2424.000000	98.139496
2423.000000	98.148129
2422.000000	98.153943
2421.000000	98.154393
2420.000000	98.150193
2419.000000	98.144173
2418.000000	98.137932
2417.000000	98.131302
2416.000000	98.125120
2415.000000	98.122084
2414.000000	98.123822
2413.000000	98.128998
2412.000000	98.135528
2411.000000	98.142941
2410.000000	98.151173
2409.000000	98.158559
2408.000000	98.163092
2407.000000	98.165232
2406.000000	98.167667
2405.000000	98.171847
2404.000000	98.175682
2403.000000	98.175457
2402.000000	98.170146
2401.000000	98.163256
2400.000000	98.159456
2399.000000	98.159399
2398.000000	98.159233
2397.000000	98.155762
2396.000000	98.150363
2395.000000	98.146675
2394.000000	98.146277
2393.000000	98.148569
2392.000000	98.153257
2391.000000	98.160199
2390.000000	98.167585
2389.000000	98.173043
2388.000000	98.176699
2387.000000	98.180832
2386.000000	98.186877
2385.000000	98.194563
2384.000000	98.203597
2383.000000	98.214203
2382.000000	98.225287
2381.000000	98.234552
2380.000000	98.240028
2379.000000	98.240077
2378.000000	98.233010
2377.000000	98.219428
2376.000000	98.204703
2375.000000	98.195381
2374.000000	98.192908
2373.000000	98.193855
2372.000000	98.196572
2371.000000	98.203186
2370.000000	98.214260
2369.000000	98.225948
2368.000000	98.233263
2367.000000	98.234036
2366.000000	98.228546
2365.000000	98.218218
2364.000000	98.205032
2363.000000	98.189351
2362.000000	98.170188
2361.000000	98.150131
2360.000000	98.136667
2359.000000	98.136591
2358.000000	98.149708
2357.000000	98.169276
2356.000000	98.186346
2355.000000	98.192851
2354.000000	98.188441
2353.000000	98.179473
2352.000000	98.172551
2351.000000	98.169408
2350.000000	98.168393
2349.000000	98.166931
2348.000000	98.164110
2347.000000	98.161231
2346.000000	98.157218
2345.000000	98.147592
2344.000000	98.133523
2343.000000	98.123522
2342.000000	98.124066
2341.000000	98.133354
2340.000000	98.144481
2339.000000	98.151711
2338.000000	98.152807
2337.000000	98.147963
2336.000000	98.138966
2335.000000	98.130564
2334.000000	98.127938
2333.000000	98.132354
2332.000000	98.138503
2331.000000	98.142122
2330.000000	98.143685
2329.000000	98.145631
2328.000000	98.142987
2327.000000	98.127170
2326.000000	98.095807
2325.000000	98.060000
2324.000000	98.037598
2323.000000	98.039229
2322.000000	98.058818
2321.000000	98.081031
2320.000000	98.095882
2319.000000	98.104935
2318.000000	98.112573
2317.000000	98.120474
2316.000000	98.127602
2315.000000	98.133774
2314.000000	98.137878
2313.000000	98.140668
2312.000000	98.146840
2311.000000	98.163108
2310.000000	98.188319
2309.000000	98.211894
2308.000000	98.222657
2307.000000	98.218977
2306.000000	98.206809
2305.000000	98.193140
2304.000000	98.182693
2303.000000	98.178342
2302.000000	98.179291
2301.000000	98.181088
2300.000000	98.179362
2299.000000	98.174456
2298.000000	98.168986
2297.000000	98.164057
2296.000000	98.157895
2295.000000	98.149408
2294.000000	98.139936
2293.000000	98.133330
2292.000000	98.133280
2291.000000	98.139944
2290.000000	98.147836
2289.000000	98.149053
2288.000000	98.139694
2287.000000	98.122856
2286.000000	98.106179
2285.000000	98.097782
2284.000000	98.103310
2283.000000	98.122581
2282.000000	98.149020
2281.000000	98.174553
2280.000000	98.195188
2279.000000	98.208911
2278.000000	98.210973
2277.000000	98.198090
2276.000000	98.177476
2275.000000	98.164543
2274.000000	98.168995
2273.000000	98.187600
2272.000000	98.211167
2271.000000	98.233032
2270.000000	98.249562
2269.000000	98.259251
2268.000000	98.264624
2267.000000	98.269844
2266.000000	98.273819
2265.000000	98.270734
2264.000000	98.259226
2263.000000	98.245245
2262.000000	98.233971
2261.000000	98.225105
2260.000000	98.218215
2259.000000	98.216022
2258.000000	98.219422
2257.000000	98.225187
2256.000000	98.231825
2255.000000	98.241691
2254.000000	98.253898
2253.000000	98.261526
2252.000000	98.260321
2251.000000	98.254963
2250.000000	98.252545
2249.000000	98.254386
2248.000000	98.256872
2247.000000	98.256390
2246.000000	98.250873
2245.000000	98.241535
2244.000000	98.234566
2243.000000	98.236157
2242.000000	98.245206
2241.000000	98.256647
2240.000000	98.271028
2239.000000	98.292036
2238.000000	98.314123
2237.000000	98.324235
2236.000000	98.319985
2235.000000	98.315663
2234.000000	98.323886
2233.000000	98.340014
2232.000000	98.350259
2231.000000	98.347236
2230.000000	98.331921
2229.000000	98.309395
2228.000000	98.290082
2227.000000	98.287060
2226.000000	98.303675
2225.000000	98.328248
2224.000000	98.347145
2223.000000	98.357965
2222.000000	98.365157
2221.000000	98.369765
2220.000000	98.370789
2219.000000	98.371042
2218.000000	98.374237
2217.000000	98.379896
2216.000000	98.386198
2215.000000	98.393951
2214.000000	98.403661
2213.000000	98.413149
2212.000000	98.421480
2211.000000	98.430415
2210.000000	98.438639
2209.000000	98.440239
2208.000000	98.432931
2207.000000	98.422947
2206.000000	98.417791
2205.000000	98.417261
2204.000000	98.413183
2203.000000	98.395601
2202.000000	98.362166
2201.000000	98.327372
2200.000000	98.317766
2199.000000	98.346494
2198.000000	98.394824
2197.000000	98.430145
2196.000000	98.441934
2195.000000	98.446199
2194.000000	98.455182
2193.000000	98.460644
2192.000000	98.451564
2191.000000	98.431201
2190.000000	98.408147
2189.000000	98.386609
2188.000000	98.373900
2187.000000	98.382343
2186.000000	98.411906
2185.000000	98.443571
2184.000000	98.464223
2183.000000	98.488467
2182.000000	98.538135
2181.000000	98.604204
2180.000000	98.646702
2179.000000	98.635368
2178.000000	98.580762
2177.000000	98.524468
2176.000000	98.502187
2175.000000	98.513656
2174.000000	98.526360
2173.000000	98.509514
2172.000000	98.462122
2171.000000	98.407684
2170.000000	98.370723
2169.000000	98.362657
2168.000000	98.378085
2167.000000	98.395537
2166.000000	98.392829
2165.000000	98.375132
2164.000000	98.378861
2163.000000	98.428722
2162.000000	98.502020
2161.000000	98.558730
2160.000000	98.597468
2159.000000	98.649107
2158.000000	98.712352
2157.000000	98.744448
2156.000000	98.724795
2155.000000	98.678589
2154.000000	98.636702
2153.000000	98.609809
2152.000000	98.597489
2151.000000	98.594504
2150.000000	98.589247
2149.000000	98.576785
2148.000000	98.572109
2147.000000	98.589710
2146.000000	98.612828
2145.000000	98.606701
2144.000000	98.564919
2143.000000	98.518701
2142.000000	98.496833
2141.000000	98.497553
2140.000000	98.503386
2139.000000	98.505307
2138.000000	98.504792
2137.000000	98.506487
2136.000000	98.516302
2135.000000	98.536050
2134.000000	98.555638
2133.000000	98.560355
2132.000000	98.547833
2131.000000	98.528859
2130.000000	98.512159
2129.000000	98.498374
2128.000000	98.486479
2127.000000	98.475097
2126.000000	98.457959
2125.000000	98.428718
2124.000000	98.391235
2123.000000	98.356307
2122.000000	98.329206
2121.000000	98.309656
2120.000000	98.301414
2119.000000	98.308688
2118.000000	98.322818
2117.000000	98.326151
2116.000000	98.313572
2115.000000	98.298963
2114.000000	98.295534
2113.000000	98.300038
2112.000000	98.301503
2111.000000	98.296235
2110.000000	98.287439
2109.000000	98.277585
2108.000000	98.267904
2107.000000	98.260395
2106.000000	98.256028
2105.000000	98.255013
2104.000000	98.260137
2103.000000	98.274046
2102.000000	98.292251
2101.000000	98.306055
2100.000000	98.313852
2099.000000	98.321981
2098.000000	98.334305
2097.000000	98.348248
2096.000000	98.361574
2095.000000	98.373600
2094.000000	98.379207
2093.000000	98.372452
2092.000000	98.357204
2091.000000	98.343789
2090.000000	98.334596
2089.000000	98.323187
2088.000000	98.308627
2087.000000	98.300152
2086.000000	98.304787
2085.000000	98.319634
2084.000000	98.337958
2083.000000	98.354313
2082.000000	98.363109
2081.000000	98.362237
2080.000000	98.359237
2079.000000	98.363085
2078.000000	98.369907
2077.000000	98.368494
2076.000000	98.359783
2075.000000	98.356685
2074.000000	98.363467
2073.000000	98.372017
2072.000000	98.379400
2071.000000	98.391718
2070.000000	98.407249
2069.000000	98.413799
2068.000000	98.409813
2067.000000	98.410237
2066.000000	98.423941
2065.000000	98.440826
2064.000000	98.449174
2063.000000	98.451133
2062.000000	98.452834
2061.000000	98.454985
2060.000000	98.459568
2059.000000	98.470326
2058.000000	98.481692
2057.000000	98.484426
2056.000000	98.485790
2055.000000	98.502553
2054.000000	98.526424
2053.000000	98.522411
2052.000000	98.474934
2051.000000	98.412751
2050.000000	98.374889
2049.000000	98.369927
2048.000000	98.384317
2047.000000	98.415660
2046.000000	98.471049
2045.000000	98.539602
2044.000000	98.592858
2043.000000	98.610495
2042.000000	98.591361
2041.000000	98.549387
2040.000000	98.508899
2039.000000	98.488766
2038.000000	98.483442
2037.000000	98.476216
2036.000000	98.475810
2035.000000	98.514381
2034.000000	98.595805
2033.000000	98.675825
2032.000000	98.715820
2031.000000	98.727088
2030.000000	98.735352
2029.000000	98.736451
2028.000000	98.717000
2027.000000	98.693991
2026.000000	98.698324
2025.000000	98.732680
2024.000000	98.769306
2023.000000	98.782910
2022.000000	98.770359
2021.000000	98.746080
2020.000000	98.730826
2019.000000	98.733732
2018.000000	98.738376
2017.000000	98.719027
2016.000000	98.676523
2015.000000	98.639737
2014.000000	98.629693
2013.000000	98.644618
2012.000000	98.677583
2011.000000	98.724812
2010.000000	98.772338
2009.000000	98.798109
2008.000000	98.795342
2007.000000	98.775350
2006.000000	98.743522
2005.000000	98.699983
2004.000000	98.661336
2003.000000	98.649994
2002.000000	98.661931
2001.000000	98.666985
2000.000000	98.647689
1999.000000	98.613234
1998.000000	98.578273
1997.000000	98.555093
1996.000000	98.561442
1995.000000	98.605520
1994.000000	98.659567
1993.000000	98.676604
1992.000000	98.646723
1991.000000	98.611092
1990.000000	98.601992
1989.000000	98.602913
1988.000000	98.582193
1987.000000	98.535793
1986.000000	98.483694
1985.000000	98.447489
1984.000000	98.441639
1983.000000	98.464008
1982.000000	98.487953
1981.000000	98.485462
1980.000000	98.471066
1979.000000	98.493415
1978.000000	98.571812
1977.000000	98.666654
1976.000000	98.729094
1975.000000	98.749903
1974.000000	98.742141
1973.000000	98.720284
1972.000000	98.709297
1971.000000	98.731101
1970.000000	98.769014
1969.000000	98.780538
1968.000000	98.756033
1967.000000	98.732161
1966.000000	98.733983
1965.000000	98.742610
1964.000000	98.736191
1963.000000	98.723254
1962.000000	98.719084
1961.000000	98.721323
1960.000000	98.722696
1959.000000	98.721889
1958.000000	98.711451
1957.000000	98.681403
1956.000000	98.644492
1955.000000	98.631238
1954.000000	98.649366
1953.000000	98.674328
1952.000000	98.686153
1951.000000	98.694268
1950.000000	98.710949
1949.000000	98.724529
1948.000000	98.720339
1947.000000	98.705670
1946.000000	98.695488
1945.000000	98.689916
1944.000000	98.681703
1943.000000	98.673345
1942.000000	98.671077
1941.000000	98.673733
1940.000000	98.678695
1939.000000	98.685362
1938.000000	98.687113
1937.000000	98.673597
1936.000000	98.647800
1935.000000	98.627692
1934.000000	98.623189
1933.000000	98.625041
1932.000000	98.619627
1931.000000	98.607881
1930.000000	98.596726
1929.000000	98.584833
1928.000000	98.574881
1927.000000	98.576565
1926.000000	98.596458
1925.000000	98.624731
1924.000000	98.648947
1923.000000	98.672797
1922.000000	98.701625
1921.000000	98.723804
1920.000000	98.720941
1919.000000	98.690461
1918.000000	98.651328
1917.000000	98.623058
1916.000000	98.609134
1915.000000	98.602157
1914.000000	98.596710
1913.000000	98.595597
1912.000000	98.603599
1911.000000	98.619671
1910.000000	98.632738
1909.000000	98.630143
1908.000000	98.615103
1907.000000	98.600145
1906.000000	98.595170
1905.000000	98.598780
1904.000000	98.605262
1903.000000	98.613072
1902.000000	98.617023
1901.000000	98.611364
1900.000000	98.604629
1899.000000	98.611797
1898.000000	98.634808
1897.000000	98.656558
1896.000000	98.661519
1895.000000	98.656253
1894.000000	98.656645
1893.000000	98.665808
1892.000000	98.673458
1891.000000	98.670160
1890.000000	98.655896
1889.000000	98.639948
1888.000000	98.635205
1887.000000	98.645987
1886.000000	98.661807
1885.000000	98.669081
1884.000000	98.665739
1883.000000	98.659832
1882.000000	98.653013
1881.000000	98.640079
1880.000000	98.626247
1879.000000	98.624004
1878.000000	98.636186
1877.000000	98.651886
1876.000000	98.658481
1875.000000	98.657055
1874.000000	98.659526
1873.000000	98.673425
1872.000000	98.696390
1871.000000	98.720511
1870.000000	98.738501
1869.000000	98.748255
1868.000000	98.752821
1867.000000	98.753092
1866.000000	98.740791
1865.000000	98.710462
1864.000000	98.674562
1863.000000	98.653505
1862.000000	98.652581
1861.000000	98.660421
1860.000000	98.669528
1859.000000	98.682042
1858.000000	98.694930
1857.000000	98.697517
1856.000000	98.688543
1855.000000	98.679458
1854.000000	98.677658
1853.000000	98.676460
1852.000000	98.675614
1851.000000	98.678170
1850.000000	98.682935
1849.000000	98.692573
1848.000000	98.716210
1847.000000	98.755166
1846.000000	98.787580
1845.000000	98.787559
1844.000000	98.759173
1843.000000	98.735895
1842.000000	98.730944
1841.000000	98.723895
1840.000000	98.704022
1839.000000	98.684169
1838.000000	98.678561
1837.000000	98.679026
1836.000000	98.674899
1835.000000	98.678457
1834.000000	98.704664
1833.000000	98.744229
1832.000000	98.773809
1831.000000	98.674479
1830.000000	98.670569
1829.000000	98.667024
1828.000000	98.661130
1827.000000	98.656857
1826.000000	98.657308
1825.000000	98.658769
1824.000000	98.706345
1823.000000	98.702729
1822.000000	98.702777
1821.000000	98.696345
1820.000000	98.689177
1819.000000	98.688896
1818.000000	98.694135
1817.000000	98.695081
1816.000000	98.690307
1815.000000	98.691709
1814.000000	98.701709
1813.000000	98.711736
1812.000000	98.712442
1811.000000	98.706188
1810.000000	98.700942
1809.000000	98.691122
1808.000000	98.669570
1807.000000	98.643747
1806.000000	98.626316
1805.000000	98.619930
1804.000000	98.616977
1803.000000	98.611026
1802.000000	98.593917
1801.000000	98.566144
1800.000000	98.535516
1799.000000	98.512097
1798.000000	98.501777
1797.000000	98.504406
1796.000000	98.520084
1795.000000	98.545054
1794.000000	98.564090
1793.000000	98.568660
1792.000000	98.568481
1791.000000	98.580454
1790.000000	98.604727
1789.000000	98.625798
1788.000000	98.636089
1787.000000	98.641055
1786.000000	98.646182
1785.000000	98.651088
1784.000000	98.658566
1783.000000	98.675290
1782.000000	98.687375
1781.000000	98.686646
1780.000000	98.681742
1779.000000	98.686222
1778.000000	98.703882
1777.000000	98.648264
1776.000000	98.651787
1775.000000	98.810788
1774.000000	98.828706
1773.000000	98.804704
1772.000000	98.768350
1771.000000	98.755555
1770.000000	98.750595
1769.000000	98.708712
1768.000000	98.624506
1767.000000	98.548475
1766.000000	98.516650
1765.000000	98.506776
1764.000000	98.472957
1763.000000	98.398563
1762.000000	98.299489
1761.000000	98.203392
1760.000000	98.113209
1759.000000	98.005009
1758.000000	97.838827
1757.000000	97.598967
1756.000000	97.338674
1755.000000	97.119354
1754.000000	96.926738
1753.000000	96.693772
1752.000000	96.385019
1751.000000	96.035726
1750.000000	95.705964
1749.000000	95.395313
1748.000000	95.091717
1747.000000	94.826315
1746.000000	94.615117
1745.000000	94.441625
1744.000000	94.293970
1743.000000	94.189716
1742.000000	94.137133
1741.000000	94.109162
1740.000000	94.095604
1739.000000	94.143505
1738.000000	94.275549
1737.000000	94.440258
1736.000000	94.582200
1735.000000	94.718335
1734.000000	94.917574
1733.000000	95.173513
1732.000000	95.425075
1731.000000	95.650606
1730.000000	95.860527
1729.000000	96.066549
1728.000000	96.275922
1727.000000	96.486918
1726.000000	96.688160
1725.000000	96.877224
1724.000000	97.056117
1723.000000	97.236212
1722.000000	97.423442
1721.000000	97.600414
1720.000000	97.746451
1719.000000	97.861825
1718.000000	97.968252
1717.000000	98.059681
1716.000000	98.109595
1715.000000	98.121352
1714.000000	98.109392
1713.000000	98.082198
1712.000000	98.050558
1711.000000	98.026752
1710.000000	98.011817
1709.000000	97.999867
1708.000000	97.985857
1707.000000	97.952135
1706.000000	97.888827
1705.000000	97.823228
1704.000000	97.801694
1703.000000	97.810728
1702.000000	97.765180
1701.000000	97.597745
1700.000000	97.391496
1699.000000	97.303279
1698.000000	97.277481
1697.000000	97.141784
1696.000000	96.863032
1695.000000	96.597601
1694.000000	96.460777
1693.000000	96.386321
1692.000000	96.287231
1691.000000	96.158576
1690.000000	96.034785
1689.000000	95.939510
1688.000000	95.883539
1687.000000	95.844308
1686.000000	95.769082
1685.000000	95.595365
1684.000000	95.350281
1683.000000	95.167578
1682.000000	95.053667
1681.000000	94.918000
1680.000000	94.750125
1679.000000	94.603851
1678.000000	94.491638
1677.000000	94.359788
1676.000000	94.166832
1675.000000	93.963994
1674.000000	93.826615
1673.000000	93.742846
1672.000000	93.640823
1671.000000	93.483645
1670.000000	93.278062
1669.000000	93.050167
1668.000000	92.842575
1667.000000	92.682970
1666.000000	92.556050
1665.000000	92.420157
1664.000000	92.241220
1663.000000	92.036084
1662.000000	91.845844
1661.000000	91.682566
1660.000000	91.468939
1659.000000	91.323591
1658.000000	91.182357
1657.000000	91.040697
1656.000000	90.893353
1655.000000	90.739482
1654.000000	90.579171
1653.000000	90.639410
1652.000000	90.467848
1651.000000	90.437559
1650.000000	90.447423
1649.000000	90.412786
1648.000000	90.324647
1647.000000	90.222397
1646.000000	90.147621
1645.000000	90.095221
1644.000000	90.050681
1643.000000	90.016016
1642.000000	89.990562
1641.000000	89.978017
1640.000000	89.991843
1639.000000	90.032455
1638.000000	90.080041
1637.000000	90.102186
1636.000000	90.097289
1635.000000	90.090014
1634.000000	90.100956
1633.000000	90.118514
1632.000000	90.125172
1631.000000	90.133052
1630.000000	90.162035
1629.000000	90.220225
1628.000000	90.305776
1627.000000	90.414167
1626.000000	90.529573
1625.000000	90.638637
1624.000000	90.747536
1623.000000	90.879092
1622.000000	91.032581
1621.000000	91.184942
1620.000000	91.321579
1619.000000	91.438831
1618.000000	91.553802
1617.000000	91.699685
1616.000000	91.884087
1615.000000	92.066987
1614.000000	92.214794
1613.000000	92.328942
1612.000000	92.438273
1611.000000	92.571108
1610.000000	92.722555
1609.000000	92.870926
1608.000000	93.008806
1607.000000	93.141338
1606.000000	93.262408
1605.000000	93.369349
1604.000000	93.470813
1603.000000	93.568354
1602.000000	93.655059
1601.000000	93.728139
1600.000000	93.794807
1599.000000	93.860234
1598.000000	93.921473
1597.000000	93.977357
1596.000000	94.030924
1595.000000	94.081357
1594.000000	94.120880
1593.000000	94.146842
1592.000000	94.166576
1591.000000	94.185585
1590.000000	94.199825
1589.000000	94.205301
1588.000000	94.204570
1587.000000	94.198714
1586.000000	94.184275
1585.000000	94.159459
1584.000000	94.135638
1583.000000	94.112145
1582.000000	94.079693
1581.000000	94.047913
1580.000000	94.037820
1579.000000	94.039307
1578.000000	94.012879
1577.000000	93.934940
1576.000000	93.834475
1575.000000	93.767482
1574.000000	93.739735
1573.000000	93.717101
1572.000000	93.671767
1571.000000	93.594182
1570.000000	93.491447
1569.000000	93.386096
1568.000000	93.304889
1567.000000	93.232638
1566.000000	93.138717
1565.000000	93.025296
1564.000000	92.938756
1563.000000	92.905366
1562.000000	92.897714
1561.000000	92.861861
1560.000000	92.757816
1559.000000	92.583768
1558.000000	92.403187
1557.000000	92.261751
1556.000000	92.121672
1555.000000	91.949949
1554.000000	91.768053
1553.000000	91.621745
1552.000000	91.514443
1551.000000	91.406960
1550.000000	91.287615
1549.000000	91.174622
1548.000000	91.088443
1547.000000	91.022764
1546.000000	90.963937
1545.000000	90.918300
1544.000000	90.901274
1543.000000	90.902346
1542.000000	90.891261
1541.000000	90.836719
1540.000000	90.741791
1539.000000	90.651155
1538.000000	90.604292
1537.000000	90.594672
1536.000000	90.587020
1535.000000	90.569189
1534.000000	90.554987
1533.000000	90.563788
1532.000000	90.582021
1531.000000	90.591951
1530.000000	90.598309
1529.000000	90.611220
1528.000000	90.637429
1527.000000	90.680263
1526.000000	90.735685
1525.000000	90.797300
1524.000000	90.852128
1523.000000	90.883825
1522.000000	90.895252
1521.000000	90.908407
1520.000000	90.937738
1519.000000	90.970664
1518.000000	90.981638
1517.000000	90.972034
1516.000000	90.967163
1515.000000	90.983018
1514.000000	91.008306
1513.000000	91.038914
1512.000000	91.093340
1511.000000	91.195000
1510.000000	91.333879
1509.000000	91.472661
1508.000000	91.582845
1507.000000	91.665369
1506.000000	91.703514
1505.000000	91.704229
1504.000000	91.715831
1503.000000	91.741912
1502.000000	91.774819
1501.000000	91.817523
1500.000000	91.877290
1499.000000	91.949188
1498.000000	92.013342
1497.000000	92.048981
1496.000000	92.059082
1495.000000	92.081769
1494.000000	92.133833
1493.000000	92.195689
1492.000000	92.249920
1491.000000	92.301320
1490.000000	92.349778
1489.000000	92.367585
1488.000000	92.337408
1487.000000	92.283368
1486.000000	92.229624
1485.000000	92.172347
1484.000000	92.112433
1483.000000	92.047556
1482.000000	91.973076
1481.000000	91.888800
1480.000000	91.804898
1479.000000	91.728017
1478.000000	91.648053
1477.000000	91.555304
1476.000000	91.455455
1475.000000	91.356525
1474.000000	91.222605
1473.000000	91.007638
1472.000000	90.736844
1471.000000	90.492148
1470.000000	90.298224
1469.000000	90.129176
1468.000000	89.971735
1467.000000	89.830147
1466.000000	89.693605
1465.000000	89.548512
1464.000000	89.414954
1463.000000	89.319861
1462.000000	89.262698
1461.000000	89.223822
1460.000000	89.189982
1459.000000	89.136756
1458.000000	89.011234
1457.000000	88.784257
1456.000000	88.554167
1455.000000	88.414798
1454.000000	88.323749
1453.000000	88.228524
1452.000000	88.136312
1451.000000	88.074970
1450.000000	88.039089
1449.000000	87.997202
1448.000000	87.939230
1447.000000	87.888621
1446.000000	87.848250
1445.000000	87.807787
1444.000000	87.763725
1443.000000	87.718090
1442.000000	87.677073
1441.000000	87.648084
1440.000000	87.637268
1439.000000	87.630097
1438.000000	87.596466
1437.000000	87.517603
1436.000000	87.430943
1435.000000	87.388294
1434.000000	87.381346
1433.000000	87.375201
1432.000000	87.360826
1431.000000	87.344089
1430.000000	87.316698
1429.000000	87.263592
1428.000000	87.194764
1427.000000	87.137843
1426.000000	87.090327
1425.000000	87.041673
1424.000000	87.006030
1423.000000	87.002719
1422.000000	87.019826
1421.000000	87.022101
1420.000000	86.993356
1419.000000	86.949321
1418.000000	86.911791
1417.000000	86.881274
1416.000000	86.855526
1415.000000	86.843890
1414.000000	86.853337
1413.000000	86.881904
1412.000000	86.925635
1411.000000	86.982239
1410.000000	87.048647
1409.000000	87.121120
1408.000000	87.198831
1407.000000	87.284885
1406.000000	87.370363
1405.000000	87.445806
1404.000000	87.517174
1403.000000	87.592901
1402.000000	87.667866
1401.000000	87.729752
1400.000000	87.781763
1399.000000	87.840780
1398.000000	87.910793
1397.000000	87.975350
1396.000000	88.022337
1395.000000	88.057824
1394.000000	88.091523
1393.000000	88.134259
1392.000000	88.195147
1391.000000	88.275050
1390.000000	88.366375
1389.000000	88.459987
1388.000000	88.552250
1387.000000	88.644195
1386.000000	88.731654
1385.000000	88.810888
1384.000000	88.887562
1383.000000	88.970152
1382.000000	89.063662
1381.000000	89.166016
1380.000000	89.276911
1379.000000	89.400617
1378.000000	89.538396
1377.000000	89.686691
1376.000000	89.842596
1375.000000	90.001723
1374.000000	90.149436
1373.000000	90.273250
1372.000000	90.377662
1371.000000	90.475620
1370.000000	90.571217
1369.000000	90.666510
1368.000000	90.766856
1367.000000	90.874551
1366.000000	90.986720
1365.000000	91.100156
1364.000000	91.212481
1363.000000	91.314997
1362.000000	91.393110
1361.000000	91.443204
1360.000000	91.478327
1359.000000	91.511581
1358.000000	91.545866
1357.000000	91.580411
1356.000000	91.616310
1355.000000	91.654045
1354.000000	91.691391
1353.000000	91.726872
1352.000000	91.759965
1351.000000	91.791786
1350.000000	91.819410
1349.000000	91.840806
1348.000000	91.854923
1347.000000	91.858146
1346.000000	91.846549
1345.000000	91.823196
1344.000000	91.798614
1343.000000	91.780435
1342.000000	91.766321
1341.000000	91.748301
1340.000000	91.720379
1339.000000	91.680569
1338.000000	91.630897
1337.000000	91.579355
1336.000000	91.538551
1335.000000	91.519385
1334.000000	91.525685
1333.000000	91.555091
1332.000000	91.602384
1331.000000	91.661040
1330.000000	91.724145
1329.000000	91.787927
1328.000000	91.852243
1327.000000	91.916864
1326.000000	91.978274
1325.000000	92.034013
1324.000000	92.085239
1323.000000	92.133683
1322.000000	92.179762
1321.000000	92.224277
1320.000000	92.268851
1319.000000	92.313113
1318.000000	92.354792
1317.000000	92.394233
1316.000000	92.436003
1315.000000	92.483915
1314.000000	92.536830
1313.000000	92.590555
1312.000000	92.642222
1311.000000	92.692113
1310.000000	92.742204
1309.000000	92.794319
1308.000000	92.848533
1307.000000	92.904282
1306.000000	92.961437
1305.000000	93.020725
1304.000000	93.080896
1303.000000	93.138325
1302.000000	93.191520
1301.000000	93.243862
1300.000000	93.299310
1299.000000	93.357095
1298.000000	93.413572
1297.000000	93.466568
1296.000000	93.515094
1295.000000	93.556139
1294.000000	93.586386
1293.000000	93.606236
1292.000000	93.618951
1291.000000	93.626773
1290.000000	93.629543
1289.000000	93.626622
1288.000000	93.618300
1287.000000	93.606453
1286.000000	93.595020
1285.000000	93.587770
1284.000000	93.584712
1283.000000	93.582833
1282.000000	93.581232
1281.000000	93.581976
1280.000000	93.584186
1279.000000	93.580875
1278.000000	93.565573
1277.000000	93.538970
1276.000000	93.505951
1275.000000	93.468054
1274.000000	93.422907
1273.000000	93.368644
1272.000000	93.304338
1271.000000	93.228130
1270.000000	93.138571
1269.000000	93.037777
1268.000000	92.930002
1267.000000	92.816880
1266.000000	92.697721
1265.000000	92.573388
1264.000000	92.446824
1263.000000	92.319796
1262.000000	92.192703
1261.000000	92.068503
1260.000000	91.953112
1259.000000	91.848935
1258.000000	91.751798
1257.000000	91.658660
1256.000000	91.574969
1255.000000	91.510032
1254.000000	91.466081
1253.000000	91.435249
1252.000000	91.407243
1251.000000	91.375428
1250.000000	91.336794
1249.000000	91.290950
1248.000000	91.240391
1247.000000	91.188591
1246.000000	91.136649
1245.000000	91.083605
1244.000000	91.030364
1243.000000	90.981252
1242.000000	90.941342
1241.000000	90.913839
1240.000000	90.900052
1239.000000	90.900080
1238.000000	90.913018
1237.000000	90.939219
1236.000000	90.980860
1235.000000	91.038383
1234.000000	91.108111
1233.000000	91.185108
1232.000000	91.268356
1231.000000	91.360592
1230.000000	91.465280
1229.000000	91.586527
1228.000000	91.728148
1227.000000	91.889835
1226.000000	92.064463
1225.000000	92.241699
1224.000000	92.414034
1223.000000	92.578180
1222.000000	92.733508
1221.000000	92.880296
1220.000000	93.017639
1219.000000	93.141852
1218.000000	93.249890
1217.000000	93.343669
1216.000000	93.427925
1215.000000	93.504236
1214.000000	93.569417
1213.000000	93.621216
1212.000000	93.661164
1211.000000	93.690855
1210.000000	93.709061
1209.000000	93.713392
1208.000000	93.704122
1207.000000	93.685045
1206.000000	93.661872
1205.000000	93.640061
1204.000000	93.621920
1203.000000	93.605696
1202.000000	93.588623
1201.000000	93.571330
1200.000000	93.557827
1199.000000	93.551083
1198.000000	93.550560
1197.000000	93.554401
1196.000000	93.561416
1195.000000	93.569558
1194.000000	93.574596
1193.000000	93.572448
1192.000000	93.562254
1191.000000	93.546370
1190.000000	93.528428
1189.000000	93.511320
1188.000000	93.495186
1187.000000	93.476263
1186.000000	93.448779
1185.000000	93.409605
1184.000000	93.359792
1183.000000	93.301562
1182.000000	93.235804
1181.000000	93.162955
1180.000000	93.084874
1179.000000	93.003410
1178.000000	92.918504
1177.000000	92.830091
1176.000000	92.740537
1175.000000	92.652918
1174.000000	92.567061
1173.000000	92.480350
1172.000000	92.392692
1171.000000	92.308046
1170.000000	92.230118
1169.000000	92.159107
1168.000000	92.093870
1167.000000	92.034539
1166.000000	91.982366
1165.000000	91.938778
1164.000000	91.906193
1163.000000	91.888484
1162.000000	91.888425
1161.000000	91.906790
1160.000000	91.943438
1159.000000	91.997990
1158.000000	92.070374
1157.000000	92.160999
1156.000000	92.270919
1155.000000	92.399070
1154.000000	92.540836
1153.000000	92.692702
1152.000000	92.855835
1151.000000	93.033177
1150.000000	93.223029
1149.000000	93.418105
1148.000000	93.610777
1147.000000	93.797277
1146.000000	93.978120
1145.000000	94.155731
1144.000000	94.331117
1143.000000	94.501591
1142.000000	94.662853
1141.000000	94.813006
1140.000000	94.953287
1139.000000	95.085442
1138.000000	95.209020
1137.000000	95.321746
1136.000000	95.420691
1135.000000	95.503371
1134.000000	95.569733
1133.000000	95.621944
1132.000000	95.662781
1131.000000	95.694401
1130.000000	95.718272
1129.000000	95.735214
1128.000000	95.744649
1127.000000	95.746615
1126.000000	95.744078
1125.000000	95.740345
1124.000000	95.734469
1123.000000	95.721806
1122.000000	95.700166
1121.000000	95.671599
1120.000000	95.636045
1119.000000	95.587718
1118.000000	95.520071
1117.000000	95.432609
1116.000000	95.329952
1115.000000	95.215850
1114.000000	95.092134
1113.000000	94.962743
1112.000000	94.836646
1111.000000	94.725101
1110.000000	94.636497
1109.000000	94.573907
1108.000000	94.536681
1107.000000	94.522220
1106.000000	94.525102
1105.000000	94.537553
1104.000000	94.551880
1103.000000	94.563117
1102.000000	94.568188
1101.000000	94.563019
1100.000000	94.542629
1099.000000	94.504357
1098.000000	94.451369
1097.000000	94.390905
1096.000000	94.330541
1095.000000	94.276478
1094.000000	94.233455
1093.000000	94.203807
1092.000000	94.187530
1091.000000	94.184244
1090.000000	94.195039
1089.000000	94.220429
1088.000000	94.257518
1087.000000	94.301745
1086.000000	94.350898
1085.000000	94.406643
1084.000000	94.471263
1083.000000	94.544930
1082.000000	94.626502
1081.000000	94.713983
1080.000000	94.803909
1079.000000	94.892661
1078.000000	94.979532
1077.000000	95.065476
1076.000000	95.148137
1075.000000	95.222259
1074.000000	95.286811
1073.000000	95.346908
1072.000000	95.404775
1071.000000	95.453619
1070.000000	95.484243
1069.000000	95.495413
1068.000000	95.494307
1067.000000	95.489417
1066.000000	95.486698
1065.000000	95.489056
1064.000000	95.495132
1063.000000	95.500021
1062.000000	95.500437
1061.000000	95.498733
1060.000000	95.499934
1059.000000	95.507053
1058.000000	95.521064
1057.000000	95.542599
1056.000000	95.570302
1055.000000	95.599728
1054.000000	95.627393
1053.000000	95.654248
1052.000000	95.682737
1051.000000	95.712384
1050.000000	95.741518
1049.000000	95.770494
1048.000000	95.799418
1047.000000	95.824969
1046.000000	95.843167
1045.000000	95.853053
1044.000000	95.854590
1043.000000	95.846692
1042.000000	95.830423
1041.000000	95.810609
1040.000000	95.789313
1039.000000	95.759912
1038.000000	95.713594
1037.000000	95.650570
1036.000000	95.580958
1035.000000	95.515538
1034.000000	95.459642
1033.000000	95.414535
1032.000000	95.379744
1031.000000	95.353489
1030.000000	95.334350
1029.000000	95.323912
1028.000000	95.324626
1027.000000	95.335521
1026.000000	95.353151
1025.000000	95.376023
1024.000000	95.404775
1023.000000	95.437831
1022.000000	95.471445
1021.000000	95.504618
1020.000000	95.539677
1019.000000	95.577902
1018.000000	95.618197
1017.000000	95.660568
1016.000000	95.706620
1015.000000	95.755849
1014.000000	95.806130
1013.000000	95.859013
1012.000000	95.920038
1011.000000	95.991751
1010.000000	96.069705
1009.000000	96.147321
1008.000000	96.221611
1007.000000	96.292546
1006.000000	96.359881
1005.000000	96.422520
1004.000000	96.478887
1003.000000	96.527150
1002.000000	96.567415
1001.000000	96.603741
1000.000000	96.641522
999.000000	96.681885
998.000000	96.720846
997.000000	96.754352
996.000000	96.781218
995.000000	96.801496
994.000000	96.815330
993.000000	96.824822
992.000000	96.834165
991.000000	96.845933
990.000000	96.858792
989.000000	96.870020
988.000000	96.879060
987.000000	96.887553
986.000000	96.896678
985.000000	96.904900
984.000000	96.907751
983.000000	96.900740
982.000000	96.884422
981.000000	96.865896
980.000000	96.852808
979.000000	96.845452
978.000000	96.836802
977.000000	96.820429
976.000000	96.795953
975.000000	96.766952
974.000000	96.736898
973.000000	96.709159
972.000000	96.688188
971.000000	96.677685
970.000000	96.677615
969.000000	96.684567
968.000000	96.694798
967.000000	96.705997
966.000000	96.717890
965.000000	96.732625
964.000000	96.753610
963.000000	96.782933
962.000000	96.820151
961.000000	96.864253
960.000000	96.914717
959.000000	96.969187
958.000000	97.022778
957.000000	97.072397
956.000000	97.120868
955.000000	97.173556
954.000000	97.231261
953.000000	97.289302
952.000000	97.343788
951.000000	97.395919
950.000000	97.448529
949.000000	97.500830
948.000000	97.548756
947.000000	97.589663
946.000000	97.624354
945.000000	97.654532
944.000000	97.680841
943.000000	97.703926
942.000000	97.725471
941.000000	97.746382
940.000000	97.765340
939.000000	97.781018
938.000000	97.795018
937.000000	97.811235
936.000000	97.832671
935.000000	97.859985
934.000000	97.891938
933.000000	97.925693
932.000000	97.957516
931.000000	97.985115
930.000000	98.009202
929.000000	98.031565
928.000000	98.052538
927.000000	98.072117
926.000000	98.092321
925.000000	98.115502
924.000000	98.140768
923.000000	98.164669
922.000000	98.185625
921.000000	98.205121
920.000000	98.224619
919.000000	98.244004
918.000000	98.263859
917.000000	98.286980
916.000000	98.316378
915.000000	98.352919
914.000000	98.394554
913.000000	98.436303
912.000000	98.471888
911.000000	98.498297
910.000000	98.519093
909.000000	98.540809
908.000000	98.565800
907.000000	98.590942
906.000000	98.612811
905.000000	98.630870
904.000000	98.645783
903.000000	98.657868
902.000000	98.667947
901.000000	98.677274
900.000000	98.686664
899.000000	98.697826
898.000000	98.714250
897.000000	98.736659
896.000000	98.758945
895.000000	98.773379
894.000000	98.779875
893.000000	98.784822
892.000000	98.789721
891.000000	98.785471
890.000000	98.756207
889.000000	98.681666
888.000000	98.536457
887.000000	98.297736
886.000000	97.965391
885.000000	97.571541
884.000000	97.162480
883.000000	96.768380
882.000000	96.384875
881.000000	95.981562
880.000000	95.529259
879.000000	95.026518
878.000000	94.505326
877.000000	94.017187
876.000000	93.615180
875.000000	93.345285
874.000000	93.244772
873.000000	93.334875
872.000000	93.612995
871.000000	94.046543
870.000000	94.577985
869.000000	95.141867
868.000000	95.679977
867.000000	96.151256
866.000000	96.537208
865.000000	96.842812
864.000000	97.086914
863.000000	97.289304
862.000000	97.463230
861.000000	97.615103
860.000000	97.746882
859.000000	97.858965
858.000000	97.954350
857.000000	98.037286
856.000000	98.107594
855.000000	98.161323
854.000000	98.198985
853.000000	98.227252
852.000000	98.246786
851.000000	98.245988
850.000000	98.217591
849.000000	98.178966
848.000000	98.165187
847.000000	98.197893
846.000000	98.266676
845.000000	98.343615
844.000000	98.409233
843.000000	98.460992
842.000000	98.503365
841.000000	98.537858
840.000000	98.563018
839.000000	98.579103
838.000000	98.589673
837.000000	98.598027
836.000000	98.603045
835.000000	98.600758
834.000000	98.591057
833.000000	98.581023
832.000000	98.578787
831.000000	98.585769
830.000000	98.598276
829.000000	98.615470
828.000000	98.640526
827.000000	98.672759
826.000000	98.704090
825.000000	98.726394
824.000000	98.738290
823.000000	98.741839
822.000000	98.737370
821.000000	98.726386
820.000000	98.716186
819.000000	98.715670
818.000000	98.726315
817.000000	98.740755
816.000000	98.750257
815.000000	98.751508
814.000000	98.747237
813.000000	98.743534
812.000000	98.746739
811.000000	98.759066
810.000000	98.774874
809.000000	98.783058
808.000000	98.776085
807.000000	98.756964
806.000000	98.736421
805.000000	98.723139
804.000000	98.717103
803.000000	98.712171
802.000000	98.703735
801.000000	98.692444
800.000000	98.680430
799.000000	98.665682
798.000000	98.643343
797.000000	98.613784
796.000000	98.586277
795.000000	98.570681
794.000000	98.565678
793.000000	98.559356
792.000000	98.542943
791.000000	98.520670
790.000000	98.503605
789.000000	98.496006
788.000000	98.491257
787.000000	98.480667
786.000000	98.463396
785.000000	98.446847
784.000000	98.438745
783.000000	98.439650
782.000000	98.442609
781.000000	98.439772
780.000000	98.429093
779.000000	98.414029
778.000000	98.397823
777.000000	98.380568
776.000000	98.362148
775.000000	98.344621
774.000000	98.329549
773.000000	98.315657
772.000000	98.302255
771.000000	98.292894
770.000000	98.291597
769.000000	98.296474
768.000000	98.301095
767.000000	98.301756
766.000000	98.299100
765.000000	98.292340
764.000000	98.277151
763.000000	98.251754
762.000000	98.220852
761.000000	98.189933
760.000000	98.158648
759.000000	98.123915
758.000000	98.087402
757.000000	98.054661
756.000000	98.027123
755.000000	98.000581
754.000000	97.973901
753.000000	97.954488
752.000000	97.949685
751.000000	97.954465
750.000000	97.953387
749.000000	97.937071
748.000000	97.913079
747.000000	97.897232
746.000000	97.896616
745.000000	97.904378
744.000000	97.909331
743.000000	97.905719
742.000000	97.893588
741.000000	97.874936
740.000000	97.852685
739.000000	97.830379
738.000000	97.809201
737.000000	97.786477
736.000000	97.759117
735.000000	97.727201
734.000000	97.692104
733.000000	97.652961
732.000000	97.608335
731.000000	97.560685
730.000000	97.516065
729.000000	97.478479
728.000000	97.447442
727.000000	97.420825
726.000000	97.396981
725.000000	97.375173
724.000000	97.355261
723.000000	97.334931
722.000000	97.305285
721.000000	97.252580
720.000000	97.168847
719.000000	97.056486
718.000000	96.914092
717.000000	96.719512
716.000000	96.440430
715.000000	96.075439
714.000000	95.687395
713.000000	95.386275
712.000000	95.264770
711.000000	95.337551
710.000000	95.536364
709.000000	95.760722
708.000000	95.937613
707.000000	96.047066
706.000000	96.105340
705.000000	96.135623
704.000000	96.153108
703.000000	96.164072
702.000000	96.169492
701.000000	96.167686
700.000000	96.155531
699.000000	96.131876
698.000000	96.100444
697.000000	96.070135
696.000000	96.049950
695.000000	96.039481
694.000000	96.029189
693.000000	96.012663
692.000000	95.995399
691.000000	95.988775
690.000000	95.995301
689.000000	96.005624
688.000000	96.009790
687.000000	96.005808
686.000000	95.998293
685.000000	95.992502
684.000000	95.989721
683.000000	95.985771
682.000000	95.973028
681.000000	95.948129
680.000000	95.918623
679.000000	95.898724
678.000000	95.895842
677.000000	95.902337
676.000000	95.908487
675.000000	95.914108
674.000000	95.926157
673.000000	95.948543
672.000000	95.980550
671.000000	96.024061
670.000000	96.088120
669.000000	96.174738
668.000000	96.238059
667.000000	96.235152
666.000000	96.217916
665.000000	96.204786
664.000000	96.189559
663.000000	96.177758
662.000000	96.174471
661.000000	96.175225
660.000000	96.175545
659.000000	96.179541
658.000000	96.188448
657.000000	96.188159
656.000000	96.165702
655.000000	96.125375
654.000000	96.081490
653.000000	96.043345
652.000000	96.014522
651.000000	95.993862
650.000000	95.970440
649.000000	95.928887
648.000000	95.869146
647.000000	95.808852
646.000000	95.759191
645.000000	95.712951
644.000000	95.661707
643.000000	95.608431
642.000000	95.556898
641.000000	95.502524
640.000000	95.445514
639.000000	95.400237
638.000000	95.376236
637.000000	95.361748
636.000000	95.339869
635.000000	95.311876
634.000000	95.294369
633.000000	95.299898
632.000000	95.327224
631.000000	95.361948
630.000000	95.381580
629.000000	95.372441
628.000000	95.347545
627.000000	95.336398
626.000000	95.349474
625.000000	95.365593
624.000000	95.360255
623.000000	95.330623
622.000000	95.287079
621.000000	95.237480
620.000000	95.189920
619.000000	95.154973
618.000000	95.132713
617.000000	95.109362
616.000000	95.078132
615.000000	95.049578
614.000000	95.030535
613.000000	95.011300
612.000000	94.987137
611.000000	94.975002
610.000000	94.990731
609.000000	95.023491
608.000000	95.051183
607.000000	95.071696
606.000000	95.100200
605.000000	95.146075
604.000000	95.209857
603.000000	95.293780
602.000000	95.397938
601.000000	95.509229
600.000000	95.609014
599.000000	95.690016
598.000000	95.757634
597.000000	95.820538
596.000000	95.889071
595.000000	95.972659
594.000000	96.064412
593.000000	96.136231
592.000000	96.166772
591.000000	96.171395
590.000000	96.186924
589.000000	96.228442
588.000000	96.278465
587.000000	96.313886
586.000000	96.327876
585.000000	96.328237
584.000000	96.327215
583.000000	96.332810
582.000000	96.339717
581.000000	96.331620
580.000000	96.303182
579.000000	96.274942
578.000000	96.272095
577.000000	96.292890
576.000000	96.312316
575.000000	96.314755
574.000000	96.310281
573.000000	96.315991
572.000000	96.336613
571.000000	96.365185
570.000000	96.391046
569.000000	96.407687
568.000000	96.418969
567.000000	96.433583
566.000000	96.448471
565.000000	96.445447
564.000000	96.413982
563.000000	96.370041
562.000000	96.340385
561.000000	96.333914
560.000000	96.340969
559.000000	96.353716
558.000000	96.370190
557.000000	96.384087
556.000000	96.387186
555.000000	96.380184
554.000000	96.370016
553.000000	96.359210
552.000000	96.349193
551.000000	96.348737
550.000000	96.365632
549.000000	96.394284
548.000000	96.424189
547.000000	96.453102
546.000000	96.479382
545.000000	96.490036
544.000000	96.474504
543.000000	96.444328
542.000000	96.423414
541.000000	96.423022
540.000000	96.437051
539.000000	96.454283
538.000000	96.460748
537.000000	96.439621
536.000000	96.387577
535.000000	96.327148
534.000000	96.286342
533.000000	96.269680
532.000000	96.263305
531.000000	96.258761
530.000000	96.255025
529.000000	96.246937
528.000000	96.233428
527.000000	96.233066
526.000000	96.267699
525.000000	96.325467
524.000000	96.369022
523.000000	96.380828
522.000000	96.376469
521.000000	96.382084
520.000000	96.413933
519.000000	96.471408
518.000000	96.534643
517.000000	96.576912
516.000000	96.592893
515.000000	96.602057
514.000000	96.616919
513.000000	96.627487
512.000000	96.627014
511.000000	96.633034
510.000000	96.664471
509.000000	96.711670
508.000000	96.751158
507.000000	96.779384
506.000000	96.808359
505.000000	96.838563
504.000000	96.863519
503.000000	96.891031
502.000000	96.931404
501.000000	96.968929
500.000000	96.979195
499.000000	96.969145
498.000000	96.968947
497.000000	96.991925
496.000000	97.023912
495.000000	97.048951
494.000000	97.064270
493.000000	97.070362
492.000000	97.071372
491.000000	97.088461
490.000000	97.144034
489.000000	97.226627
488.000000	97.293635
487.000000	97.313223
486.000000	97.292437
485.000000	97.269022
484.000000	97.286179
483.000000	97.365645
482.000000	97.482723
481.000000	97.573685
480.000000	97.588079
479.000000	97.535087
478.000000	97.470315
477.000000	97.440094
476.000000	97.455128
475.000000	97.514114
474.000000	97.617935
473.000000	97.748061
472.000000	97.858273
471.000000	97.916805
470.000000	97.931169
469.000000	97.913292
468.000000	97.861753
467.000000	97.785763
466.000000	97.716002
465.000000	97.678853
464.000000	97.684424
463.000000	97.742551
462.000000	97.858713
461.000000	98.011508
460.000000	98.108995
459.000000	98.212478
458.000000	98.295328
457.000000	98.365909
456.000000	98.434798
455.000000	98.524739
454.000000	98.645082
453.000000	98.758636
452.000000	98.802724
451.000000	98.767146
450.000000	98.718373
