PE IR       SUBTECH     SPECTRUM    ASCII       PEDS        4.00        
   -1
3C-YYX-C009_1.ASC
23/09/07
11:18:19.00
23/09/07
11:30:09.00
uco
Sample 009 By uco Date Thursday, September 07 2023
450.000000
#HDR
-1
-1
#GR
cm-1
%T
1.0
0.0
4000.000000
-1.000000
3551
8
98.592392
78.997922
#DATA
4000.000000	98.521160
3999.000000	98.518385
3998.000000	98.513676
3997.000000	98.508206
3996.000000	98.503999
3995.000000	98.502534
3994.000000	98.503655
3993.000000	98.505767
3992.000000	98.507006
3991.000000	98.506297
3990.000000	98.503810
3989.000000	98.500821
3988.000000	98.499151
3987.000000	98.500031
3986.000000	98.503104
3985.000000	98.506636
3984.000000	98.508896
3983.000000	98.509374
3982.000000	98.508607
3981.000000	98.507164
3980.000000	98.505096
3979.000000	98.502079
3978.000000	98.497828
3977.000000	98.492584
3976.000000	98.487656
3975.000000	98.485405
3974.000000	98.487872
3973.000000	98.494966
3972.000000	98.503975
3971.000000	98.511005
3970.000000	98.513288
3969.000000	98.510523
3968.000000	98.504810
3967.000000	98.499353
3966.000000	98.496556
3965.000000	98.496841
3964.000000	98.498844
3963.000000	98.500726
3962.000000	98.501573
3961.000000	98.501764
3960.000000	98.502030
3959.000000	98.502339
3958.000000	98.501715
3957.000000	98.499081
3956.000000	98.494539
3955.000000	98.489625
3954.000000	98.486261
3953.000000	98.485525
3952.000000	98.487293
3951.000000	98.490698
3950.000000	98.494335
3949.000000	98.496298
3948.000000	98.494990
3947.000000	98.490390
3946.000000	98.484572
3945.000000	98.480584
3944.000000	98.480453
3943.000000	98.483741
3942.000000	98.487823
3941.000000	98.490345
3940.000000	98.490937
3939.000000	98.490329
3938.000000	98.488825
3937.000000	98.485986
3936.000000	98.481900
3935.000000	98.478298
3934.000000	98.478123
3933.000000	98.483806
3932.000000	98.494741
3931.000000	98.506527
3930.000000	98.513508
3929.000000	98.512962
3928.000000	98.507110
3927.000000	98.500792
3926.000000	98.497441
3925.000000	98.496796
3924.000000	98.496285
3923.000000	98.494218
3922.000000	98.490735
3921.000000	98.486190
3920.000000	98.480419
3919.000000	98.473843
3918.000000	98.468852
3917.000000	98.468877
3916.000000	98.475089
3915.000000	98.484563
3914.000000	98.492114
3913.000000	98.494249
3912.000000	98.491248
3911.000000	98.486120
3910.000000	98.481418
3909.000000	98.477038
3908.000000	98.471395
3907.000000	98.463838
3906.000000	98.455877
3905.000000	98.450602
3904.000000	98.450889
3903.000000	98.457324
3902.000000	98.467201
3901.000000	98.475941
3900.000000	98.480765
3899.000000	98.482216
3898.000000	98.482296
3897.000000	98.482223
3896.000000	98.482050
3895.000000	98.482015
3894.000000	98.483107
3893.000000	98.485942
3892.000000	98.489566
3891.000000	98.492232
3890.000000	98.493236
3889.000000	98.492643
3888.000000	98.490195
3887.000000	98.485867
3886.000000	98.480544
3885.000000	98.475799
3884.000000	98.473300
3883.000000	98.473058
3882.000000	98.473179
3881.000000	98.471338
3880.000000	98.466993
3879.000000	98.462312
3878.000000	98.459522
3877.000000	98.458629
3876.000000	98.459025
3875.000000	98.460329
3874.000000	98.461199
3873.000000	98.460143
3872.000000	98.458072
3871.000000	98.458462
3870.000000	98.463451
3869.000000	98.470810
3868.000000	98.477106
3867.000000	98.481363
3866.000000	98.484789
3865.000000	98.488764
3864.000000	98.492946
3863.000000	98.495336
3862.000000	98.493998
3861.000000	98.488563
3860.000000	98.481003
3859.000000	98.473786
3858.000000	98.467662
3857.000000	98.461202
3856.000000	98.453459
3855.000000	98.446667
3854.000000	98.443290
3853.000000	98.443371
3852.000000	98.447521
3851.000000	98.455249
3850.000000	98.463262
3849.000000	98.469380
3848.000000	98.473580
3847.000000	98.476708
3846.000000	98.478799
3845.000000	98.478794
3844.000000	98.475834
3843.000000	98.470895
3842.000000	98.466569
3841.000000	98.465411
3840.000000	98.468591
3839.000000	98.475115
3838.000000	98.482343
3837.000000	98.488109
3836.000000	98.492568
3835.000000	98.496843
3834.000000	98.500602
3833.000000	98.502102
3832.000000	98.500299
3831.000000	98.495813
3830.000000	98.490047
3829.000000	98.484044
3828.000000	98.479125
3827.000000	98.477073
3826.000000	98.478093
3825.000000	98.479713
3824.000000	98.478967
3823.000000	98.475827
3822.000000	98.472091
3821.000000	98.467913
3820.000000	98.462351
3819.000000	98.455905
3818.000000	98.450239
3817.000000	98.447517
3816.000000	98.449585
3815.000000	98.455149
3814.000000	98.460736
3813.000000	98.463795
3812.000000	98.464176
3811.000000	98.463802
3810.000000	98.464530
3809.000000	98.466772
3808.000000	98.469398
3807.000000	98.470708
3806.000000	98.469880
3805.000000	98.467476
3804.000000	98.465096
3803.000000	98.466179
3802.000000	98.473545
3801.000000	98.484309
3800.000000	98.492163
3799.000000	98.495242
3798.000000	98.495467
3797.000000	98.495112
3796.000000	98.494951
3795.000000	98.494417
3794.000000	98.492886
3793.000000	98.490320
3792.000000	98.487488
3791.000000	98.485743
3790.000000	98.485996
3789.000000	98.488034
3788.000000	98.491178
3787.000000	98.494709
3786.000000	98.497562
3785.000000	98.498337
3784.000000	98.496470
3783.000000	98.493175
3782.000000	98.490801
3781.000000	98.491305
3780.000000	98.494821
3779.000000	98.499142
3778.000000	98.501423
3777.000000	98.500866
3776.000000	98.498818
3775.000000	98.496764
3774.000000	98.494400
3773.000000	98.490184
3772.000000	98.483875
3771.000000	98.478038
3770.000000	98.476347
3769.000000	98.480248
3768.000000	98.488586
3767.000000	98.498718
3766.000000	98.506930
3765.000000	98.509520
3764.000000	98.505666
3763.000000	98.498501
3762.000000	98.492406
3761.000000	98.489773
3760.000000	98.489702
3759.000000	98.489432
3758.000000	98.487429
3757.000000	98.484451
3756.000000	98.481827
3755.000000	98.480003
3754.000000	98.478226
3753.000000	98.474843
3752.000000	98.468224
3751.000000	98.458361
3750.000000	98.448084
3749.000000	98.441000
3748.000000	98.438807
3747.000000	98.442127
3746.000000	98.452004
3745.000000	98.466908
3744.000000	98.480304
3743.000000	98.488560
3742.000000	98.492938
3741.000000	98.493263
3740.000000	98.489627
3739.000000	98.484834
3738.000000	98.483207
3737.000000	98.487897
3736.000000	98.498932
3735.000000	98.512526
3734.000000	98.522558
3733.000000	98.525452
3732.000000	98.522992
3731.000000	98.519263
3730.000000	98.516271
3729.000000	98.513618
3728.000000	98.511324
3727.000000	98.510196
3726.000000	98.509445
3725.000000	98.506623
3724.000000	98.500929
3723.000000	98.494582
3722.000000	98.490013
3721.000000	98.488334
3720.000000	98.490136
3719.000000	98.495213
3718.000000	98.501288
3717.000000	98.504950
3716.000000	98.504942
3715.000000	98.503371
3714.000000	98.502413
3713.000000	98.501493
3712.000000	98.498288
3711.000000	98.493005
3710.000000	98.488900
3709.000000	98.487952
3708.000000	98.490078
3707.000000	98.494350
3706.000000	98.499941
3705.000000	98.506776
3704.000000	98.515337
3703.000000	98.524314
3702.000000	98.529668
3701.000000	98.528444
3700.000000	98.523293
3699.000000	98.518904
3698.000000	98.515897
3697.000000	98.511128
3696.000000	98.502449
3695.000000	98.491799
3694.000000	98.483223
3693.000000	98.480213
3692.000000	98.483966
3691.000000	98.492342
3690.000000	98.498436
3689.000000	98.495210
3688.000000	98.484337
3687.000000	98.473912
3686.000000	98.467363
3685.000000	98.461588
3684.000000	98.453570
3683.000000	98.444145
3682.000000	98.436544
3681.000000	98.432030
3680.000000	98.428293
3679.000000	98.421537
3678.000000	98.409838
3677.000000	98.395505
3676.000000	98.384396
3675.000000	98.380285
3674.000000	98.380144
3673.000000	98.379035
3672.000000	98.375740
3671.000000	98.374384
3670.000000	98.378306
3669.000000	98.383701
3668.000000	98.385184
3667.000000	98.382482
3666.000000	98.377751
3665.000000	98.373060
3664.000000	98.369753
3663.000000	98.367911
3662.000000	98.365647
3661.000000	98.360135
3660.000000	98.350316
3659.000000	98.337892
3658.000000	98.325752
3657.000000	98.316395
3656.000000	98.311666
3655.000000	98.312231
3654.000000	98.315665
3653.000000	98.317155
3652.000000	98.312845
3651.000000	98.301703
3650.000000	98.286049
3649.000000	98.272086
3648.000000	98.265300
3647.000000	98.263959
3646.000000	98.262461
3645.000000	98.258060
3644.000000	98.252246
3643.000000	98.248233
3642.000000	98.247261
3641.000000	98.247112
3640.000000	98.244912
3639.000000	98.239988
3638.000000	98.232882
3637.000000	98.223823
3636.000000	98.213474
3635.000000	98.203621
3634.000000	98.195177
3633.000000	98.186218
3632.000000	98.173947
3631.000000	98.158513
3630.000000	98.143623
3629.000000	98.133120
3628.000000	98.127776
3627.000000	98.125432
3626.000000	98.122523
3625.000000	98.116230
3624.000000	98.107460
3623.000000	98.099434
3622.000000	98.093828
3621.000000	98.088860
3620.000000	98.080797
3619.000000	98.067457
3618.000000	98.050590
3617.000000	98.033831
3616.000000	98.019613
3615.000000	98.008208
3614.000000	97.997428
3613.000000	97.984359
3612.000000	97.969597
3611.000000	97.957552
3610.000000	97.950636
3609.000000	97.946851
3608.000000	97.943423
3607.000000	97.940330
3606.000000	97.938920
3605.000000	97.938796
3604.000000	97.938828
3603.000000	97.938270
3602.000000	97.936097
3601.000000	97.930671
3600.000000	97.921271
3599.000000	97.909144
3598.000000	97.895713
3597.000000	97.881262
3596.000000	97.865824
3595.000000	97.850443
3594.000000	97.835683
3593.000000	97.821108
3592.000000	97.806354
3591.000000	97.792190
3590.000000	97.779100
3589.000000	97.766225
3588.000000	97.752098
3587.000000	97.737144
3586.000000	97.723256
3585.000000	97.711048
3584.000000	97.699907
3583.000000	97.689062
3582.000000	97.677611
3581.000000	97.664933
3580.000000	97.652003
3579.000000	97.641465
3578.000000	97.634468
3577.000000	97.628877
3576.000000	97.621155
3575.000000	97.609450
3574.000000	97.593625
3573.000000	97.574180
3572.000000	97.552640
3571.000000	97.532155
3570.000000	97.516068
3569.000000	97.505822
3568.000000	97.500139
3567.000000	97.496135
3566.000000	97.491237
3565.000000	97.484166
3564.000000	97.475105
3563.000000	97.464664
3562.000000	97.452855
3561.000000	97.439593
3560.000000	97.425767
3559.000000	97.412360
3558.000000	97.398446
3557.000000	97.381646
3556.000000	97.361307
3555.000000	97.339702
3554.000000	97.319474
3553.000000	97.300936
3552.000000	97.283285
3551.000000	97.267135
3550.000000	97.253996
3549.000000	97.244041
3548.000000	97.235633
3547.000000	97.226713
3546.000000	97.216389
3545.000000	97.205793
3544.000000	97.196862
3543.000000	97.189576
3542.000000	97.180828
3541.000000	97.167550
3540.000000	97.150770
3539.000000	97.135030
3538.000000	97.123253
3537.000000	97.113360
3536.000000	97.100801
3535.000000	97.083266
3534.000000	97.061774
3533.000000	97.039291
3532.000000	97.019717
3531.000000	97.006564
3530.000000	97.000390
3529.000000	96.998163
3528.000000	96.996440
3527.000000	96.993985
3526.000000	96.990084
3525.000000	96.982425
3524.000000	96.968883
3523.000000	96.950434
3522.000000	96.930514
3521.000000	96.911976
3520.000000	96.895775
3519.000000	96.881518
3518.000000	96.867820
3517.000000	96.853000
3516.000000	96.836631
3515.000000	96.820025
3514.000000	96.804489
3513.000000	96.790116
3512.000000	96.776793
3511.000000	96.765202
3510.000000	96.755775
3509.000000	96.747794
3508.000000	96.740735
3507.000000	96.735359
3506.000000	96.732046
3505.000000	96.728674
3504.000000	96.721413
3503.000000	96.707915
3502.000000	96.689379
3501.000000	96.669517
3500.000000	96.651862
3499.000000	96.637745
3498.000000	96.625986
3497.000000	96.614450
3496.000000	96.601892
3495.000000	96.588008
3494.000000	96.572557
3493.000000	96.556140
3492.000000	96.541633
3491.000000	96.532644
3490.000000	96.529615
3489.000000	96.528544
3488.000000	96.524192
3487.000000	96.513633
3486.000000	96.496789
3485.000000	96.475407
3484.000000	96.452591
3483.000000	96.432074
3482.000000	96.416484
3481.000000	96.406501
3480.000000	96.401704
3479.000000	96.400817
3478.000000	96.400902
3477.000000	96.397990
3476.000000	96.389553
3475.000000	96.375936
3474.000000	96.359372
3473.000000	96.342636
3472.000000	96.328433
3471.000000	96.318179
3470.000000	96.310689
3469.000000	96.303288
3468.000000	96.294513
3467.000000	96.284652
3466.000000	96.274114
3465.000000	96.263191
3464.000000	96.253283
3463.000000	96.245958
3462.000000	96.240122
3461.000000	96.232322
3460.000000	96.220803
3459.000000	96.207449
3458.000000	96.194945
3457.000000	96.183798
3456.000000	96.172972
3455.000000	96.161803
3454.000000	96.150197
3453.000000	96.138562
3452.000000	96.128377
3451.000000	96.121660
3450.000000	96.118780
3449.000000	96.117577
3448.000000	96.115001
3447.000000	96.108885
3446.000000	96.098229
3445.000000	96.083503
3444.000000	96.067262
3443.000000	96.053204
3442.000000	96.043785
3441.000000	96.039217
3440.000000	96.038603
3439.000000	96.040369
3438.000000	96.041398
3437.000000	96.037939
3436.000000	96.028573
3435.000000	96.015145
3434.000000	96.000394
3433.000000	95.986118
3432.000000	95.973633
3431.000000	95.964025
3430.000000	95.956935
3429.000000	95.950617
3428.000000	95.943864
3427.000000	95.936327
3426.000000	95.926917
3425.000000	95.914163
3424.000000	95.898960
3423.000000	95.884852
3422.000000	95.874169
3421.000000	95.865477
3420.000000	95.856094
3419.000000	95.845655
3418.000000	95.835645
3417.000000	95.826714
3416.000000	95.817944
3415.000000	95.808072
3414.000000	95.796676
3413.000000	95.784656
3412.000000	95.773606
3411.000000	95.763796
3410.000000	95.753329
3409.000000	95.740989
3408.000000	95.729504
3407.000000	95.723283
3406.000000	95.722527
3405.000000	95.721939
3404.000000	95.716123
3403.000000	95.704307
3402.000000	95.689078
3401.000000	95.673077
3400.000000	95.658097
3399.000000	95.645244
3398.000000	95.634257
3397.000000	95.623941
3396.000000	95.614182
3395.000000	95.606091
3394.000000	95.599496
3393.000000	95.592348
3392.000000	95.583596
3391.000000	95.574627
3390.000000	95.566639
3389.000000	95.558514
3388.000000	95.548697
3387.000000	95.537587
3386.000000	95.526742
3385.000000	95.516896
3384.000000	95.507810
3383.000000	95.498728
3382.000000	95.488043
3381.000000	95.474094
3380.000000	95.457443
3379.000000	95.441047
3378.000000	95.427136
3377.000000	95.415051
3376.000000	95.402717
3375.000000	95.388810
3374.000000	95.372933
3373.000000	95.355449
3372.000000	95.338196
3371.000000	95.323751
3370.000000	95.312724
3369.000000	95.302892
3368.000000	95.291769
3367.000000	95.278772
3366.000000	95.264239
3365.000000	95.248170
3364.000000	95.231171
3363.000000	95.214951
3362.000000	95.200346
3361.000000	95.185876
3360.000000	95.169511
3359.000000	95.151015
3358.000000	95.131640
3357.000000	95.112250
3356.000000	95.092673
3355.000000	95.072559
3354.000000	95.052379
3353.000000	95.033748
3352.000000	95.018289
3351.000000	95.005093
3350.000000	94.990077
3349.000000	94.969752
3348.000000	94.945500
3347.000000	94.922226
3346.000000	94.902664
3345.000000	94.885040
3344.000000	94.866613
3343.000000	94.847328
3342.000000	94.828965
3341.000000	94.812647
3340.000000	94.798258
3339.000000	94.784715
3338.000000	94.769938
3337.000000	94.752095
3336.000000	94.731857
3335.000000	94.712200
3334.000000	94.695210
3333.000000	94.680110
3332.000000	94.664875
3331.000000	94.648466
3330.000000	94.631140
3329.000000	94.613847
3328.000000	94.597533
3327.000000	94.581894
3326.000000	94.565008
3325.000000	94.545662
3324.000000	94.525739
3323.000000	94.508419
3322.000000	94.494261
3321.000000	94.481342
3320.000000	94.468767
3319.000000	94.457348
3318.000000	94.446657
3317.000000	94.434300
3316.000000	94.419087
3315.000000	94.402588
3314.000000	94.386520
3313.000000	94.370861
3312.000000	94.355358
3311.000000	94.340472
3310.000000	94.325844
3309.000000	94.309961
3308.000000	94.292691
3307.000000	94.276108
3306.000000	94.261662
3305.000000	94.248492
3304.000000	94.235544
3303.000000	94.223502
3302.000000	94.213435
3301.000000	94.205062
3300.000000	94.197422
3299.000000	94.189749
3298.000000	94.180977
3297.000000	94.170150
3296.000000	94.157975
3295.000000	94.146326
3294.000000	94.135691
3293.000000	94.125131
3292.000000	94.115139
3291.000000	94.108017
3290.000000	94.104585
3289.000000	94.102807
3288.000000	94.100833
3287.000000	94.099121
3286.000000	94.098357
3285.000000	94.097668
3284.000000	94.096198
3283.000000	94.094442
3282.000000	94.092805
3281.000000	94.090853
3280.000000	94.089577
3279.000000	94.091960
3278.000000	94.099612
3277.000000	94.110495
3276.000000	94.121720
3275.000000	94.133165
3274.000000	94.146331
3273.000000	94.161216
3272.000000	94.175944
3271.000000	94.188458
3270.000000	94.197387
3269.000000	94.202689
3268.000000	94.206758
3267.000000	94.213443
3266.000000	94.224503
3265.000000	94.238086
3264.000000	94.251881
3263.000000	94.266225
3262.000000	94.282846
3261.000000	94.301911
3260.000000	94.321735
3259.000000	94.340475
3258.000000	94.357188
3257.000000	94.372398
3256.000000	94.388369
3255.000000	94.407428
3254.000000	94.429149
3253.000000	94.450715
3252.000000	94.470668
3251.000000	94.490363
3250.000000	94.510848
3249.000000	94.530585
3248.000000	94.547850
3247.000000	94.563107
3246.000000	94.577171
3245.000000	94.588666
3244.000000	94.595813
3243.000000	94.599885
3242.000000	94.604587
3241.000000	94.612456
3240.000000	94.623384
3239.000000	94.636328
3238.000000	94.651055
3237.000000	94.668062
3236.000000	94.687368
3235.000000	94.707397
3234.000000	94.725243
3233.000000	94.738914
3232.000000	94.749196
3231.000000	94.758168
3230.000000	94.766021
3229.000000	94.771172
3228.000000	94.773736
3227.000000	94.776746
3226.000000	94.783008
3225.000000	94.792556
3224.000000	94.803960
3223.000000	94.816365
3222.000000	94.829321
3221.000000	94.842295
3220.000000	94.855390
3219.000000	94.868862
3218.000000	94.881090
3217.000000	94.889243
3216.000000	94.893295
3215.000000	94.897500
3214.000000	94.905728
3213.000000	94.916607
3212.000000	94.925218
3211.000000	94.928830
3210.000000	94.929498
3209.000000	94.931504
3208.000000	94.937880
3207.000000	94.948868
3206.000000	94.962489
3205.000000	94.976248
3204.000000	94.988648
3203.000000	94.999265
3202.000000	95.008063
3201.000000	95.015783
3200.000000	95.024651
3199.000000	95.036827
3198.000000	95.051610
3197.000000	95.065604
3196.000000	95.076152
3195.000000	95.083561
3194.000000	95.089923
3193.000000	95.097591
3192.000000	95.108836
3191.000000	95.124720
3190.000000	95.143435
3189.000000	95.161331
3188.000000	95.176363
3187.000000	95.189085
3186.000000	95.200464
3185.000000	95.210985
3184.000000	95.222323
3183.000000	95.236861
3182.000000	95.254152
3181.000000	95.270116
3180.000000	95.281402
3179.000000	95.288698
3178.000000	95.294777
3177.000000	95.301561
3176.000000	95.310924
3175.000000	95.325667
3174.000000	95.346699
3173.000000	95.370434
3172.000000	95.391465
3171.000000	95.407595
3170.000000	95.420520
3169.000000	95.432704
3168.000000	95.445470
3167.000000	95.459472
3166.000000	95.474887
3165.000000	95.491000
3164.000000	95.506960
3163.000000	95.522857
3162.000000	95.539243
3161.000000	95.556008
3160.000000	95.572557
3159.000000	95.588419
3158.000000	95.602837
3157.000000	95.614622
3156.000000	95.623609
3155.000000	95.631780
3154.000000	95.641925
3153.000000	95.655404
3152.000000	95.671445
3151.000000	95.687785
3150.000000	95.701656
3149.000000	95.711616
3148.000000	95.719327
3147.000000	95.728440
3146.000000	95.740636
3145.000000	95.753959
3144.000000	95.765948
3143.000000	95.777155
3142.000000	95.790032
3141.000000	95.805310
3140.000000	95.821074
3139.000000	95.834941
3138.000000	95.845755
3137.000000	95.853482
3136.000000	95.858470
3135.000000	95.861062
3134.000000	95.861606
3133.000000	95.861236
3132.000000	95.862541
3131.000000	95.868134
3130.000000	95.878003
3129.000000	95.889309
3128.000000	95.899418
3127.000000	95.908169
3126.000000	95.916746
3125.000000	95.925604
3124.000000	95.934576
3123.000000	95.943731
3122.000000	95.952754
3121.000000	95.960252
3120.000000	95.965054
3119.000000	95.967731
3118.000000	95.969742
3117.000000	95.971548
3116.000000	95.972509
3115.000000	95.972153
3114.000000	95.970605
3113.000000	95.968039
3112.000000	95.964597
3111.000000	95.960799
3110.000000	95.957456
3109.000000	95.955236
3108.000000	95.954323
3107.000000	95.954103
3106.000000	95.953150
3105.000000	95.950439
3104.000000	95.946949
3103.000000	95.945139
3102.000000	95.946058
3101.000000	95.947570
3100.000000	95.946266
3099.000000	95.940874
3098.000000	95.933359
3097.000000	95.927066
3096.000000	95.924093
3095.000000	95.923851
3094.000000	95.923761
3093.000000	95.921600
3092.000000	95.917202
3091.000000	95.911691
3090.000000	95.905640
3089.000000	95.898905
3088.000000	95.891800
3087.000000	95.885052
3086.000000	95.878513
3085.000000	95.871253
3084.000000	95.863355
3083.000000	95.856386
3082.000000	95.851684
3081.000000	95.849059
3080.000000	95.847485
3079.000000	95.846027
3078.000000	95.843883
3077.000000	95.840694
3076.000000	95.837195
3075.000000	95.834628
3074.000000	95.833210
3073.000000	95.832215
3072.000000	95.831633
3071.000000	95.832453
3070.000000	95.834952
3069.000000	95.837915
3068.000000	95.840210
3067.000000	95.842185
3066.000000	95.845041
3065.000000	95.849517
3064.000000	95.855226
3063.000000	95.860448
3062.000000	95.862861
3061.000000	95.861925
3060.000000	95.860621
3059.000000	95.863291
3058.000000	95.871422
3057.000000	95.882835
3056.000000	95.895002
3055.000000	95.907477
3054.000000	95.920556
3053.000000	95.933454
3052.000000	95.944776
3051.000000	95.953713
3050.000000	95.960318
3049.000000	95.965813
3048.000000	95.972814
3047.000000	95.983602
3046.000000	95.997682
3045.000000	96.012391
3044.000000	96.026166
3043.000000	96.039326
3042.000000	96.051329
3041.000000	96.059640
3040.000000	96.062931
3039.000000	96.063863
3038.000000	96.067151
3037.000000	96.075471
3036.000000	96.088074
3035.000000	96.102149
3034.000000	96.114548
3033.000000	96.123409
3032.000000	96.129370
3031.000000	96.134696
3030.000000	96.140555
3029.000000	96.146086
3028.000000	96.150612
3027.000000	96.155428
3026.000000	96.162433
3025.000000	96.171942
3024.000000	96.182553
3023.000000	96.192386
3022.000000	96.199889
3021.000000	96.204461
3020.000000	96.207081
3019.000000	96.209322
3018.000000	96.211201
3017.000000	96.210821
3016.000000	96.206691
3015.000000	96.199351
3014.000000	96.190197
3013.000000	96.179982
3012.000000	96.169091
3011.000000	96.157975
3010.000000	96.146452
3009.000000	96.133575
3008.000000	96.119055
3007.000000	96.103949
3006.000000	96.089340
3005.000000	96.075023
3004.000000	96.059717
3003.000000	96.041765
3002.000000	96.019674
3001.000000	95.993373
3000.000000	95.965206
2999.000000	95.938100
2998.000000	95.912022
2997.000000	95.883568
2996.000000	95.849640
2995.000000	95.810336
2994.000000	95.767729
2993.000000	95.723521
2992.000000	95.678659
2991.000000	95.633194
2990.000000	95.585058
2989.000000	95.530188
2988.000000	95.465829
2987.000000	95.393375
2986.000000	95.317062
2985.000000	95.240333
2984.000000	95.163812
2983.000000	95.085557
2982.000000	95.002292
2981.000000	94.911124
2980.000000	94.811557
2979.000000	94.705568
2978.000000	94.595329
2977.000000	94.481234
2976.000000	94.362028
2975.000000	94.236215
2974.000000	94.102922
2973.000000	93.962403
2972.000000	93.815971
2971.000000	93.664418
2970.000000	93.506800
2969.000000	93.342090
2968.000000	93.172492
2967.000000	93.003552
2966.000000	92.840269
2965.000000	92.684635
2964.000000	92.537594
2963.000000	92.402376
2962.000000	92.284208
2961.000000	92.187619
2960.000000	92.114824
2959.000000	92.066251
2958.000000	92.042337
2957.000000	92.044178
2956.000000	92.072771
2955.000000	92.126257
2954.000000	92.198227
2953.000000	92.279553
2952.000000	92.361658
2951.000000	92.437701
2950.000000	92.500376
2949.000000	92.541540
2948.000000	92.554908
2947.000000	92.538919
2946.000000	92.496092
2945.000000	92.430045
2944.000000	92.343540
2943.000000	92.237545
2942.000000	92.111763
2941.000000	91.966101
2940.000000	91.802614
2939.000000	91.625518
2938.000000	91.439302
2937.000000	91.248031
2936.000000	91.055883
2935.000000	90.867548
2934.000000	90.687452
2933.000000	90.519673
2932.000000	90.368172
2931.000000	90.235330
2930.000000	90.120160
2929.000000	90.019526
2928.000000	89.932616
2927.000000	89.863168
2926.000000	89.816566
2925.000000	89.795625
2924.000000	89.799414
2923.000000	89.825470
2922.000000	89.871849
2921.000000	89.937868
2920.000000	90.024026
2919.000000	90.131045
2918.000000	90.259054
2917.000000	90.407398
2916.000000	90.574961
2915.000000	90.759326
2914.000000	90.955030
2913.000000	91.153932
2912.000000	91.348127
2911.000000	91.532876
2910.000000	91.706662
2909.000000	91.869621
2908.000000	92.022672
2907.000000	92.167372
2906.000000	92.305879
2905.000000	92.440985
2904.000000	92.576086
2903.000000	92.713861
2902.000000	92.854420
2901.000000	92.995499
2900.000000	93.134521
2899.000000	93.270416
2898.000000	93.402848
2897.000000	93.530964
2896.000000	93.653579
2895.000000	93.769794
2894.000000	93.878938
2893.000000	93.980650
2892.000000	94.075240
2891.000000	94.163141
2890.000000	94.243413
2889.000000	94.313769
2888.000000	94.372577
2887.000000	94.419775
2886.000000	94.455381
2885.000000	94.478063
2884.000000	94.485994
2883.000000	94.478322
2882.000000	94.454996
2881.000000	94.416014
2880.000000	94.361505
2879.000000	94.292285
2878.000000	94.210074
2877.000000	94.118336
2876.000000	94.023341
2875.000000	93.933512
2874.000000	93.857141
2873.000000	93.800285
2872.000000	93.765953
2871.000000	93.752791
2870.000000	93.753539
2869.000000	93.756420
2868.000000	93.750310
2867.000000	93.729377
2866.000000	93.693153
2865.000000	93.643275
2864.000000	93.580411
2863.000000	93.503629
2862.000000	93.411927
2861.000000	93.307377
2860.000000	93.197022
2859.000000	93.090878
2858.000000	92.997292
2857.000000	92.920780
2856.000000	92.864183
2855.000000	92.830810
2854.000000	92.824499
2853.000000	92.848955
2852.000000	92.908386
2851.000000	93.007794
2850.000000	93.150839
2849.000000	93.337208
2848.000000	93.561451
2847.000000	93.812615
2846.000000	94.074458
2845.000000	94.329101
2844.000000	94.563097
2843.000000	94.771386
2842.000000	94.955060
2841.000000	95.116251
2840.000000	95.256425
2839.000000	95.377482
2838.000000	95.482073
2837.000000	95.572577
2836.000000	95.650805
2835.000000	95.718600
2834.000000	95.777988
2833.000000	95.830948
2832.000000	95.879693
2831.000000	95.926371
2830.000000	95.971528
2829.000000	96.013646
2828.000000	96.050898
2827.000000	96.082795
2826.000000	96.109623
2825.000000	96.131497
2824.000000	96.149325
2823.000000	96.165751
2822.000000	96.183574
2821.000000	96.203412
2820.000000	96.223813
2819.000000	96.243349
2818.000000	96.261752
2817.000000	96.279615
2816.000000	96.298012
2815.000000	96.317998
2814.000000	96.339530
2813.000000	96.361235
2812.000000	96.381952
2811.000000	96.402021
2810.000000	96.422421
2809.000000	96.443417
2808.000000	96.464966
2807.000000	96.487506
2806.000000	96.510786
2805.000000	96.532437
2804.000000	96.549293
2803.000000	96.560530
2802.000000	96.568616
2801.000000	96.577198
2800.000000	96.588560
2799.000000	96.602702
2798.000000	96.617791
2797.000000	96.631525
2796.000000	96.642879
2795.000000	96.652751
2794.000000	96.662537
2793.000000	96.672376
2792.000000	96.681340
2791.000000	96.689078
2790.000000	96.696706
2789.000000	96.706158
2788.000000	96.718923
2787.000000	96.734955
2786.000000	96.752280
2785.000000	96.767963
2784.000000	96.779987
2783.000000	96.788163
2782.000000	96.793366
2781.000000	96.796718
2780.000000	96.799767
2779.000000	96.804362
2778.000000	96.811348
2777.000000	96.819738
2776.000000	96.827791
2775.000000	96.834688
2774.000000	96.840853
2773.000000	96.847354
2772.000000	96.855374
2771.000000	96.865395
2770.000000	96.876197
2769.000000	96.885321
2768.000000	96.891272
2767.000000	96.894812
2766.000000	96.897664
2765.000000	96.900665
2764.000000	96.903826
2763.000000	96.907380
2762.000000	96.911737
2761.000000	96.916822
2760.000000	96.922323
2759.000000	96.928259
2758.000000	96.934590
2757.000000	96.940584
2756.000000	96.945321
2755.000000	96.948678
2754.000000	96.951292
2753.000000	96.953792
2752.000000	96.956465
2751.000000	96.959364
2750.000000	96.962263
2749.000000	96.964777
2748.000000	96.966919
2747.000000	96.969276
2746.000000	96.972403
2745.000000	96.976376
2744.000000	96.981031
2743.000000	96.986041
2742.000000	96.990609
2741.000000	96.993814
2740.000000	96.995588
2739.000000	96.996750
2738.000000	96.997986
2737.000000	96.999684
2736.000000	97.002815
2735.000000	97.008556
2734.000000	97.016308
2733.000000	97.023316
2732.000000	97.027405
2731.000000	97.029337
2730.000000	97.031701
2729.000000	97.036327
2728.000000	97.043681
2727.000000	97.053717
2726.000000	97.065658
2725.000000	97.077255
2724.000000	97.085778
2723.000000	97.090045
2722.000000	97.090917
2721.000000	97.090114
2720.000000	97.089384
2719.000000	97.090328
2718.000000	97.093838
2717.000000	97.099450
2716.000000	97.105775
2715.000000	97.111522
2714.000000	97.115737
2713.000000	97.117655
2712.000000	97.117374
2711.000000	97.116624
2710.000000	97.117887
2709.000000	97.122363
2708.000000	97.129107
2707.000000	97.136155
2706.000000	97.142111
2705.000000	97.146633
2704.000000	97.149871
2703.000000	97.151826
2702.000000	97.152449
2701.000000	97.152401
2700.000000	97.153227
2699.000000	97.156059
2698.000000	97.160219
2697.000000	97.163899
2696.000000	97.166351
2695.000000	97.168476
2694.000000	97.170899
2693.000000	97.172529
2692.000000	97.171863
2691.000000	97.169023
2690.000000	97.165614
2689.000000	97.163021
2688.000000	97.161719
2687.000000	97.161986
2686.000000	97.164249
2685.000000	97.168440
2684.000000	97.173466
2683.000000	97.177677
2682.000000	97.179979
2681.000000	97.180747
2680.000000	97.181653
2679.000000	97.184241
2678.000000	97.188543
2677.000000	97.193367
2676.000000	97.197799
2675.000000	97.201757
2674.000000	97.205117
2673.000000	97.207265
2672.000000	97.207889
2671.000000	97.207384
2670.000000	97.206066
2669.000000	97.203823
2668.000000	97.201097
2667.000000	97.199374
2666.000000	97.199803
2665.000000	97.201794
2664.000000	97.203800
2663.000000	97.205186
2662.000000	97.206525
2661.000000	97.208199
2660.000000	97.209482
2659.000000	97.209315
2658.000000	97.207757
2657.000000	97.206485
2656.000000	97.207821
2655.000000	97.213082
2654.000000	97.221766
2653.000000	97.232286
2652.000000	97.243031
2651.000000	97.252525
2650.000000	97.259391
2649.000000	97.263471
2648.000000	97.266880
2647.000000	97.272549
2646.000000	97.281178
2645.000000	97.290458
2644.000000	97.297666
2643.000000	97.302059
2642.000000	97.304510
2641.000000	97.306170
2640.000000	97.308457
2639.000000	97.313307
2638.000000	97.321824
2637.000000	97.332476
2636.000000	97.341390
2635.000000	97.345043
2634.000000	97.343324
2633.000000	97.340400
2632.000000	97.341980
2631.000000	97.350307
2630.000000	97.361792
2629.000000	97.370820
2628.000000	97.375973
2627.000000	97.380946
2626.000000	97.388954
2625.000000	97.398158
2624.000000	97.403972
2623.000000	97.404500
2622.000000	97.402065
2621.000000	97.400202
2620.000000	97.400808
2619.000000	97.404059
2618.000000	97.409527
2617.000000	97.416595
2616.000000	97.424135
2615.000000	97.430405
2614.000000	97.434043
2613.000000	97.435775
2612.000000	97.438443
2611.000000	97.443858
2610.000000	97.449742
2609.000000	97.451642
2608.000000	97.448434
2607.000000	97.444347
2606.000000	97.444402
2605.000000	97.449196
2604.000000	97.455308
2603.000000	97.459543
2602.000000	97.461302
2601.000000	97.461466
2600.000000	97.460786
2599.000000	97.459668
2598.000000	97.458790
2597.000000	97.459674
2596.000000	97.464451
2595.000000	97.474231
2594.000000	97.487161
2593.000000	97.498770
2592.000000	97.505245
2591.000000	97.506507
2590.000000	97.505928
2589.000000	97.507095
2588.000000	97.510494
2587.000000	97.512897
2586.000000	97.510488
2585.000000	97.503209
2584.000000	97.495655
2583.000000	97.492684
2582.000000	97.494770
2581.000000	97.498850
2580.000000	97.502681
2579.000000	97.506364
2578.000000	97.509973
2577.000000	97.512508
2576.000000	97.513739
2575.000000	97.515009
2574.000000	97.517287
2573.000000	97.520118
2572.000000	97.523351
2571.000000	97.528340
2570.000000	97.536504
2569.000000	97.547706
2568.000000	97.560257
2567.000000	97.571085
2566.000000	97.576053
2565.000000	97.572592
2564.000000	97.563198
2563.000000	97.554459
2562.000000	97.551239
2561.000000	97.552980
2560.000000	97.556290
2559.000000	97.559537
2558.000000	97.563506
2557.000000	97.568751
2556.000000	97.573883
2555.000000	97.576611
2554.000000	97.576205
2553.000000	97.574858
2552.000000	97.575760
2551.000000	97.579057
2550.000000	97.581014
2549.000000	97.579009
2548.000000	97.575852
2547.000000	97.576586
2546.000000	97.581896
2545.000000	97.588174
2544.000000	97.593522
2543.000000	97.599431
2542.000000	97.605563
2541.000000	97.607034
2540.000000	97.599415
2539.000000	97.584018
2538.000000	97.566572
2537.000000	97.552694
2536.000000	97.545749
2535.000000	97.546258
2534.000000	97.550988
2533.000000	97.554266
2532.000000	97.551844
2531.000000	97.542883
2530.000000	97.528207
2529.000000	97.509500
2528.000000	97.490821
2527.000000	97.477326
2526.000000	97.470084
2525.000000	97.464464
2524.000000	97.455937
2523.000000	97.445695
2522.000000	97.438826
2521.000000	97.438661
2520.000000	97.444532
2519.000000	97.453106
2518.000000	97.459717
2517.000000	97.460331
2516.000000	97.454888
2515.000000	97.447917
2514.000000	97.444171
2513.000000	97.444590
2512.000000	97.447718
2511.000000	97.453439
2510.000000	97.462969
2509.000000	97.476034
2508.000000	97.489976
2507.000000	97.501516
2506.000000	97.508786
2505.000000	97.512536
2504.000000	97.516417
2503.000000	97.524827
2502.000000	97.539243
2501.000000	97.557202
2500.000000	97.575008
2499.000000	97.590241
2498.000000	97.601825
2497.000000	97.610296
2496.000000	97.618683
2495.000000	97.630273
2494.000000	97.643874
2493.000000	97.654085
2492.000000	97.658507
2491.000000	97.661938
2490.000000	97.670490
2489.000000	97.683442
2488.000000	97.694750
2487.000000	97.701679
2486.000000	97.707820
2485.000000	97.717086
2484.000000	97.727853
2483.000000	97.735076
2482.000000	97.736709
2481.000000	97.736181
2480.000000	97.738703
2479.000000	97.745715
2478.000000	97.753300
2477.000000	97.756371
2476.000000	97.754149
2475.000000	97.750964
2474.000000	97.751533
2473.000000	97.756432
2472.000000	97.762670
2471.000000	97.767429
2470.000000	97.770047
2469.000000	97.770983
2468.000000	97.770567
2467.000000	97.769462
2466.000000	97.769635
2465.000000	97.773557
2464.000000	97.781537
2463.000000	97.790138
2462.000000	97.794667
2461.000000	97.793824
2460.000000	97.791016
2459.000000	97.790311
2458.000000	97.792281
2457.000000	97.794711
2456.000000	97.795677
2455.000000	97.794263
2454.000000	97.790032
2453.000000	97.784774
2452.000000	97.783623
2451.000000	97.790882
2450.000000	97.804157
2449.000000	97.815554
2448.000000	97.819576
2447.000000	97.817756
2446.000000	97.815198
2445.000000	97.815036
2444.000000	97.817046
2443.000000	97.819181
2442.000000	97.819359
2441.000000	97.817494
2440.000000	97.816502
2439.000000	97.819362
2438.000000	97.824556
2437.000000	97.826553
2436.000000	97.821972
2435.000000	97.813533
2434.000000	97.807003
2433.000000	97.805942
2432.000000	97.810096
2431.000000	97.816939
2430.000000	97.823358
2429.000000	97.827070
2428.000000	97.827806
2427.000000	97.826850
2426.000000	97.825402
2425.000000	97.824180
2424.000000	97.823937
2423.000000	97.824584
2422.000000	97.824218
2421.000000	97.821165
2420.000000	97.816940
2419.000000	97.814927
2418.000000	97.816144
2417.000000	97.818570
2416.000000	97.820756
2415.000000	97.823418
2414.000000	97.827012
2413.000000	97.830415
2412.000000	97.832975
2411.000000	97.835571
2410.000000	97.838846
2409.000000	97.842521
2408.000000	97.847152
2407.000000	97.854043
2406.000000	97.862266
2405.000000	97.867914
2404.000000	97.867747
2403.000000	97.862117
2402.000000	97.853649
2401.000000	97.845020
2400.000000	97.838823
2399.000000	97.837352
2398.000000	97.841015
2397.000000	97.848006
2396.000000	97.856161
2395.000000	97.864022
2394.000000	97.870049
2393.000000	97.872823
2392.000000	97.872598
2391.000000	97.871063
2390.000000	97.869176
2389.000000	97.867043
2388.000000	97.866359
2387.000000	97.869971
2386.000000	97.878586
2385.000000	97.889439
2384.000000	97.899338
2383.000000	97.908018
2382.000000	97.916738
2381.000000	97.925879
2380.000000	97.933601
2379.000000	97.935972
2378.000000	97.929446
2377.000000	97.915282
2376.000000	97.901325
2375.000000	97.895527
2374.000000	97.898000
2373.000000	97.902645
2372.000000	97.907323
2371.000000	97.917253
2370.000000	97.936591
2369.000000	97.960554
2368.000000	97.976717
2367.000000	97.974889
2366.000000	97.955138
2365.000000	97.927067
2364.000000	97.901224
2363.000000	97.880727
2362.000000	97.863748
2361.000000	97.852744
2360.000000	97.855760
2359.000000	97.874619
2358.000000	97.899329
2357.000000	97.917118
2356.000000	97.919560
2355.000000	97.908442
2354.000000	97.897963
2353.000000	97.899609
2352.000000	97.908037
2351.000000	97.909545
2350.000000	97.900179
2349.000000	97.883813
2348.000000	97.867676
2347.000000	97.860170
2346.000000	97.864001
2345.000000	97.870439
2344.000000	97.869974
2343.000000	97.866328
2342.000000	97.865217
2341.000000	97.866764
2340.000000	97.867805
2339.000000	97.866525
2338.000000	97.864266
2337.000000	97.862355
2336.000000	97.859346
2335.000000	97.854467
2334.000000	97.852318
2333.000000	97.857062
2332.000000	97.864284
2331.000000	97.865898
2330.000000	97.862599
2329.000000	97.859735
2328.000000	97.857137
2327.000000	97.847047
2326.000000	97.826270
2325.000000	97.803085
2324.000000	97.790846
2323.000000	97.796785
2322.000000	97.813602
2321.000000	97.827315
2320.000000	97.830888
2319.000000	97.829362
2318.000000	97.830955
2317.000000	97.837707
2316.000000	97.847146
2315.000000	97.857009
2314.000000	97.867340
2313.000000	97.878778
2312.000000	97.892788
2311.000000	97.909807
2310.000000	97.927091
2309.000000	97.938787
2308.000000	97.942920
2307.000000	97.943623
2306.000000	97.945043
2305.000000	97.945097
2304.000000	97.939720
2303.000000	97.929731
2302.000000	97.919752
2301.000000	97.911380
2300.000000	97.903474
2299.000000	97.897366
2298.000000	97.897728
2297.000000	97.906174
2296.000000	97.917392
2295.000000	97.923173
2294.000000	97.919852
2293.000000	97.911104
2292.000000	97.904370
2291.000000	97.904458
2290.000000	97.909230
2289.000000	97.911623
2288.000000	97.906366
2287.000000	97.894945
2286.000000	97.883442
2285.000000	97.877151
2284.000000	97.878091
2283.000000	97.885836
2282.000000	97.898404
2281.000000	97.912451
2280.000000	97.924175
2279.000000	97.930476
2278.000000	97.929673
2277.000000	97.922843
2276.000000	97.914618
2275.000000	97.910618
2274.000000	97.913185
2273.000000	97.920499
2272.000000	97.930452
2271.000000	97.943757
2270.000000	97.962418
2269.000000	97.986100
2268.000000	98.010510
2267.000000	98.028851
2266.000000	98.035537
2265.000000	98.029900
2264.000000	98.016265
2263.000000	97.999212
2262.000000	97.980563
2261.000000	97.962139
2260.000000	97.947867
2259.000000	97.940120
2258.000000	97.936836
2257.000000	97.936810
2256.000000	97.944396
2255.000000	97.962698
2254.000000	97.984160
2253.000000	97.995911
2252.000000	97.995126
2251.000000	97.991907
2250.000000	97.996367
2249.000000	98.009080
2248.000000	98.024181
2247.000000	98.035111
2246.000000	98.036380
2245.000000	98.028032
2244.000000	98.020266
2243.000000	98.026106
2242.000000	98.046771
2241.000000	98.070508
2240.000000	98.086832
2239.000000	98.094620
2238.000000	98.094941
2237.000000	98.086922
2236.000000	98.075443
2235.000000	98.073546
2234.000000	98.089574
2233.000000	98.117174
2232.000000	98.142404
2231.000000	98.155204
2230.000000	98.150656
2229.000000	98.128263
2228.000000	98.097347
2227.000000	98.075930
2226.000000	98.075927
2225.000000	98.092171
2224.000000	98.110907
2223.000000	98.124757
2222.000000	98.135163
2221.000000	98.145712
2220.000000	98.159247
2219.000000	98.177129
2218.000000	98.195868
2217.000000	98.208182
2216.000000	98.211991
2215.000000	98.214062
2214.000000	98.220231
2213.000000	98.226910
2212.000000	98.227146
2211.000000	98.221148
2210.000000	98.215216
2209.000000	98.213343
2208.000000	98.214858
2207.000000	98.218472
2206.000000	98.224413
2205.000000	98.232266
2204.000000	98.238026
2203.000000	98.233870
2202.000000	98.213942
2201.000000	98.183820
2200.000000	98.160466
2199.000000	98.156170
2198.000000	98.165704
2197.000000	98.176318
2196.000000	98.187016
2195.000000	98.207316
2194.000000	98.238622
2193.000000	98.268755
2192.000000	98.286430
2191.000000	98.290005
2190.000000	98.280504
2189.000000	98.260490
2188.000000	98.243386
2187.000000	98.248897
2186.000000	98.280514
2185.000000	98.317684
2184.000000	98.338737
2183.000000	98.344611
2182.000000	98.351852
2181.000000	98.368235
2180.000000	98.382763
2179.000000	98.376703
2178.000000	98.342174
2177.000000	98.295025
2176.000000	98.268432
2175.000000	98.283083
2174.000000	98.322079
2173.000000	98.344903
2172.000000	98.327954
2171.000000	98.282532
2170.000000	98.235791
2169.000000	98.207372
2168.000000	98.202966
2167.000000	98.217433
2166.000000	98.240616
2165.000000	98.267951
2164.000000	98.304908
2163.000000	98.351726
2162.000000	98.390551
2161.000000	98.406656
2160.000000	98.418164
2159.000000	98.456164
2158.000000	98.511474
2157.000000	98.541431
2156.000000	98.533485
2155.000000	98.517306
2154.000000	98.514844
2153.000000	98.515971
2152.000000	98.504993
2151.000000	98.482472
2150.000000	98.454388
2149.000000	98.421569
2148.000000	98.389590
2147.000000	98.369938
2146.000000	98.361230
2145.000000	98.344967
2144.000000	98.310435
2143.000000	98.269622
2142.000000	98.238581
2141.000000	98.218146
2140.000000	98.201966
2139.000000	98.191407
2138.000000	98.190964
2137.000000	98.197688
2136.000000	98.205378
2135.000000	98.213080
2134.000000	98.221034
2133.000000	98.224338
2132.000000	98.218276
2131.000000	98.204370
2130.000000	98.185608
2129.000000	98.162133
2128.000000	98.136953
2127.000000	98.119565
2126.000000	98.117517
2125.000000	98.127035
2124.000000	98.136443
2123.000000	98.136224
2122.000000	98.123516
2121.000000	98.101645
2120.000000	98.078965
2119.000000	98.063956
2118.000000	98.057697
2117.000000	98.054111
2116.000000	98.049317
2115.000000	98.045948
2114.000000	98.045871
2113.000000	98.045274
2112.000000	98.041416
2111.000000	98.038670
2110.000000	98.041568
2109.000000	98.046082
2108.000000	98.044351
2107.000000	98.035975
2106.000000	98.028642
2105.000000	98.028537
2104.000000	98.034499
2103.000000	98.040923
2102.000000	98.043171
2101.000000	98.040855
2100.000000	98.038242
2099.000000	98.040836
2098.000000	98.051775
2097.000000	98.071808
2096.000000	98.100169
2095.000000	98.130342
2094.000000	98.147902
2093.000000	98.141771
2092.000000	98.118695
2091.000000	98.097696
2090.000000	98.088468
2089.000000	98.082809
2088.000000	98.069742
2087.000000	98.051364
2086.000000	98.038118
2085.000000	98.035474
2084.000000	98.041197
2083.000000	98.051239
2082.000000	98.062361
2081.000000	98.071254
2080.000000	98.076133
2079.000000	98.077692
2078.000000	98.077110
2077.000000	98.075952
2076.000000	98.078869
2075.000000	98.090648
2074.000000	98.108376
2073.000000	98.123092
2072.000000	98.130759
2071.000000	98.135666
2070.000000	98.141085
2069.000000	98.144532
2068.000000	98.146132
2067.000000	98.152999
2066.000000	98.169624
2065.000000	98.189638
2064.000000	98.202769
2063.000000	98.206599
2062.000000	98.207876
2061.000000	98.216287
2060.000000	98.236664
2059.000000	98.260356
2058.000000	98.266940
2057.000000	98.246079
2056.000000	98.216968
2055.000000	98.210549
2054.000000	98.228619
2053.000000	98.238524
2052.000000	98.216526
2051.000000	98.180042
2050.000000	98.166513
2049.000000	98.191131
2048.000000	98.236338
2047.000000	98.277829
2046.000000	98.304183
2045.000000	98.311617
2044.000000	98.298949
2043.000000	98.272332
2042.000000	98.245733
2041.000000	98.234387
2040.000000	98.247329
2039.000000	98.280360
2038.000000	98.315686
2037.000000	98.337610
2036.000000	98.352917
2035.000000	98.383989
2034.000000	98.435983
2033.000000	98.487407
2032.000000	98.521863
2031.000000	98.547903
2030.000000	98.571528
2029.000000	98.573343
2028.000000	98.536025
2027.000000	98.481572
2026.000000	98.454604
2025.000000	98.472249
2024.000000	98.503664
2023.000000	98.502839
2022.000000	98.455003
2021.000000	98.390694
2020.000000	98.358419
2019.000000	98.380484
2018.000000	98.434307
2017.000000	98.475522
2016.000000	98.478059
2015.000000	98.447293
2014.000000	98.401523
2013.000000	98.360119
2012.000000	98.344210
2011.000000	98.366410
2010.000000	98.416685
2009.000000	98.471534
2008.000000	98.517830
2007.000000	98.556079
2006.000000	98.580916
2005.000000	98.580616
2004.000000	98.556500
2003.000000	98.522855
2002.000000	98.487305
2001.000000	98.445756
2000.000000	98.397998
1999.000000	98.349172
1998.000000	98.301910
1997.000000	98.263835
1996.000000	98.256501
1995.000000	98.296260
1994.000000	98.366567
1993.000000	98.426054
1992.000000	98.449826
1991.000000	98.448828
1990.000000	98.440197
1989.000000	98.422669
1988.000000	98.392413
1987.000000	98.360029
1986.000000	98.338904
1985.000000	98.332067
1984.000000	98.337190
1983.000000	98.348068
1982.000000	98.348167
1981.000000	98.323796
1980.000000	98.295651
1979.000000	98.310782
1978.000000	98.389154
1977.000000	98.493372
1976.000000	98.568472
1975.000000	98.592392
1974.000000	98.571491
1973.000000	98.522570
1972.000000	98.477528
1971.000000	98.471348
1970.000000	98.505059
1969.000000	98.540776
1968.000000	98.546159
1967.000000	98.527503
1966.000000	98.507138
1965.000000	98.491167
1964.000000	98.476444
1963.000000	98.468109
1962.000000	98.471339
1961.000000	98.480583
1960.000000	98.490426
1959.000000	98.503535
1958.000000	98.518063
1957.000000	98.522667
1956.000000	98.513233
1955.000000	98.499111
1954.000000	98.484644
1953.000000	98.462497
1952.000000	98.432083
1951.000000	98.411601
1950.000000	98.416662
1949.000000	98.439349
1948.000000	98.461189
1947.000000	98.473533
1946.000000	98.475290
1945.000000	98.464110
1944.000000	98.442559
1943.000000	98.424169
1942.000000	98.419885
1941.000000	98.426384
1940.000000	98.436559
1939.000000	98.449156
1938.000000	98.460928
1937.000000	98.461107
1936.000000	98.443517
1935.000000	98.417640
1934.000000	98.398723
1933.000000	98.392766
1932.000000	98.393791
1931.000000	98.394517
1930.000000	98.389344
1929.000000	98.375349
1928.000000	98.361022
1927.000000	98.359392
1926.000000	98.375769
1925.000000	98.399590
1924.000000	98.421130
1923.000000	98.443855
1922.000000	98.469155
1921.000000	98.484135
1920.000000	98.475858
1919.000000	98.450021
1918.000000	98.427533
1917.000000	98.418806
1916.000000	98.415875
1915.000000	98.407621
1914.000000	98.391803
1913.000000	98.375116
1912.000000	98.366353
1911.000000	98.371514
1910.000000	98.388608
1909.000000	98.407061
1908.000000	98.416597
1907.000000	98.411688
1906.000000	98.395737
1905.000000	98.375820
1904.000000	98.362704
1903.000000	98.365647
1902.000000	98.378849
1901.000000	98.386172
1900.000000	98.382850
1899.000000	98.379322
1898.000000	98.385810
1897.000000	98.398287
1896.000000	98.408840
1895.000000	98.420429
1894.000000	98.438269
1893.000000	98.455845
1892.000000	98.460742
1891.000000	98.450456
1890.000000	98.434701
1889.000000	98.423812
1888.000000	98.421417
1887.000000	98.425707
1886.000000	98.430414
1885.000000	98.428903
1884.000000	98.421759
1883.000000	98.417921
1882.000000	98.422540
1881.000000	98.430803
1880.000000	98.437395
1879.000000	98.442352
1878.000000	98.448001
1877.000000	98.452697
1876.000000	98.451835
1875.000000	98.448205
1874.000000	98.451115
1873.000000	98.464035
1872.000000	98.481861
1871.000000	98.500178
1870.000000	98.520760
1869.000000	98.543378
1868.000000	98.558107
1867.000000	98.555558
1866.000000	98.534714
1865.000000	98.500177
1864.000000	98.462615
1863.000000	98.435393
1862.000000	98.424006
1861.000000	98.423523
1860.000000	98.428268
1859.000000	98.437078
1858.000000	98.447931
1857.000000	98.454741
1856.000000	98.454042
1855.000000	98.449796
1854.000000	98.447421
1853.000000	98.445969
1852.000000	98.447114
1851.000000	98.450883
1850.000000	98.458141
1849.000000	98.473346
1848.000000	98.497664
1847.000000	98.521377
1846.000000	98.528713
1845.000000	98.517921
1844.000000	98.507174
1843.000000	98.512866
1842.000000	98.526177
1841.000000	98.524151
1840.000000	98.501744
1839.000000	98.476566
1838.000000	98.466201
1837.000000	98.465555
1836.000000	98.464412
1835.000000	98.468283
1834.000000	98.484009
1833.000000	98.502651
1832.000000	98.512307
1831.000000	98.513991
1830.000000	98.522036
1829.000000	98.537410
1828.000000	98.544518
1827.000000	98.535020
1826.000000	98.517598
1825.000000	98.508339
1824.000000	98.507931
1823.000000	98.503994
1822.000000	98.489794
1821.000000	98.471537
1820.000000	98.460280
1819.000000	98.458946
1818.000000	98.463683
1817.000000	98.468461
1816.000000	98.473561
1815.000000	98.484467
1814.000000	98.498956
1813.000000	98.509948
1812.000000	98.510515
1811.000000	98.502061
1810.000000	98.489750
1809.000000	98.471225
1808.000000	98.444197
1807.000000	98.414569
1806.000000	98.389407
1805.000000	98.367005
1804.000000	98.339686
1803.000000	98.305529
1802.000000	98.266137
1801.000000	98.228324
1800.000000	98.193673
1799.000000	98.161672
1798.000000	98.135519
1797.000000	98.120557
1796.000000	98.119204
1795.000000	98.127793
1794.000000	98.140937
1793.000000	98.166729
1792.000000	98.213529
1791.000000	98.272510
1790.000000	98.326670
1789.000000	98.363927
1788.000000	98.381276
1787.000000	98.387751
1786.000000	98.397530
1785.000000	98.417549
1784.000000	98.445582
1783.000000	98.476378
1782.000000	98.496095
1781.000000	98.502526
1780.000000	98.499752
1779.000000	98.494864
1778.000000	98.494739
1777.000000	98.503094
1776.000000	98.523400
1775.000000	98.546192
1774.000000	98.554744
1773.000000	98.548161
1772.000000	98.536417
1771.000000	98.514582
1770.000000	98.465123
1769.000000	98.374424
1768.000000	98.258958
1767.000000	98.165366
1766.000000	98.112277
1765.000000	98.065620
1764.000000	97.979657
1763.000000	97.844249
1762.000000	97.676744
1761.000000	97.495081
1760.000000	97.294375
1759.000000	97.051714
1758.000000	96.727604
1757.000000	96.302720
1756.000000	95.827166
1755.000000	95.372091
1754.000000	94.932894
1753.000000	94.439983
1752.000000	93.851882
1751.000000	93.212579
1750.000000	92.603454
1749.000000	92.035337
1748.000000	91.493377
1747.000000	91.004353
1746.000000	90.587042
1745.000000	90.230450
1744.000000	89.930624
1743.000000	89.708254
1742.000000	89.566319
1741.000000	89.480742
1740.000000	89.456625
1739.000000	89.529617
1738.000000	89.674406
1737.000000	89.822453
1736.000000	89.969702
1735.000000	90.234696
1734.000000	90.723356
1733.000000	91.282168
1732.000000	91.743914
1731.000000	92.139931
1730.000000	92.538229
1729.000000	92.954442
1728.000000	93.370191
1727.000000	93.768834
1726.000000	94.145888
1725.000000	94.510262
1724.000000	94.867315
1723.000000	95.213982
1722.000000	95.529278
1721.000000	95.788577
1720.000000	96.000418
1719.000000	96.216668
1718.000000	96.482303
1717.000000	96.742241
1716.000000	96.913698
1715.000000	97.002268
1714.000000	97.041280
1713.000000	97.048459
1712.000000	97.043411
1711.000000	97.045803
1710.000000	97.057405
1709.000000	97.067683
1708.000000	97.071021
1707.000000	97.062129
1706.000000	97.042097
1705.000000	97.019785
1704.000000	97.004176
1703.000000	96.970627
1702.000000	96.864973
1701.000000	96.683695
1700.000000	96.536498
1699.000000	96.510290
1698.000000	96.504223
1697.000000	96.378244
1696.000000	96.130049
1695.000000	95.895392
1694.000000	95.758672
1693.000000	95.664061
1692.000000	95.547045
1691.000000	95.413347
1690.000000	95.292286
1689.000000	95.194053
1688.000000	95.117355
1687.000000	95.042517
1686.000000	94.939577
1685.000000	94.787453
1684.000000	94.611173
1683.000000	94.462798
1682.000000	94.330578
1681.000000	94.168435
1680.000000	93.980915
1679.000000	93.814544
1678.000000	93.673902
1677.000000	93.515349
1676.000000	93.319153
1675.000000	93.135365
1674.000000	93.009502
1673.000000	92.914899
1672.000000	92.794397
1671.000000	92.632107
1670.000000	92.440364
1669.000000	92.228289
1668.000000	92.019914
1667.000000	91.843701
1666.000000	91.690727
1665.000000	91.526073
1664.000000	91.328101
1663.000000	91.116909
1662.000000	90.919000
1661.000000	90.737635
1660.000000	90.563626
1659.000000	90.398978
1658.000000	90.261115
1657.000000	90.155926
1656.000000	90.057973
1655.000000	89.925481
1654.000000	89.757184
1653.000000	89.586343
1652.000000	89.470768
1651.000000	89.448967
1650.000000	89.455400
1649.000000	89.422868
1648.000000	89.364935
1647.000000	89.322056
1646.000000	89.299803
1645.000000	89.274618
1644.000000	89.251334
1643.000000	89.240753
1642.000000	89.241090
1641.000000	89.257753
1640.000000	89.300655
1639.000000	89.363645
1638.000000	89.429679
1637.000000	89.489289
1636.000000	89.558130
1635.000000	89.625728
1634.000000	89.673256
1633.000000	89.701640
1632.000000	89.716336
1631.000000	89.737892
1630.000000	89.791768
1629.000000	89.889094
1628.000000	90.020403
1627.000000	90.163252
1626.000000	90.296106
1625.000000	90.421009
1624.000000	90.562082
1623.000000	90.735609
1622.000000	90.914218
1621.000000	91.066436
1620.000000	91.189746
1619.000000	91.296097
1618.000000	91.415651
1617.000000	91.584857
1616.000000	91.791383
1615.000000	91.975753
1614.000000	92.109389
1613.000000	92.205511
1612.000000	92.298792
1611.000000	92.417313
1610.000000	92.555278
1609.000000	92.692722
1608.000000	92.822388
1607.000000	92.945015
1606.000000	93.051736
1605.000000	93.142320
1604.000000	93.227659
1603.000000	93.309652
1602.000000	93.379247
1601.000000	93.431902
1600.000000	93.475443
1599.000000	93.517427
1598.000000	93.558147
1597.000000	93.599295
1596.000000	93.644744
1595.000000	93.689856
1594.000000	93.720762
1593.000000	93.732803
1592.000000	93.736575
1591.000000	93.741106
1590.000000	93.742633
1589.000000	93.735392
1588.000000	93.720674
1587.000000	93.699957
1586.000000	93.670496
1585.000000	93.632120
1584.000000	93.595823
1583.000000	93.560121
1582.000000	93.517787
1581.000000	93.478153
1580.000000	93.456899
1579.000000	93.442640
1578.000000	93.408360
1577.000000	93.348886
1576.000000	93.289008
1575.000000	93.248735
1574.000000	93.216222
1573.000000	93.170177
1572.000000	93.102469
1571.000000	93.024916
1570.000000	92.951216
1569.000000	92.877147
1568.000000	92.801773
1567.000000	92.718098
1566.000000	92.615037
1565.000000	92.500119
1564.000000	92.407392
1563.000000	92.344506
1562.000000	92.280476
1561.000000	92.187177
1560.000000	92.080805
1559.000000	91.972699
1558.000000	91.813666
1557.000000	91.627423
1556.000000	91.442225
1555.000000	91.236508
1554.000000	91.025921
1553.000000	90.848449
1552.000000	90.704948
1551.000000	90.562611
1550.000000	90.411519
1549.000000	90.263852
1548.000000	90.135032
1547.000000	90.020166
1546.000000	89.913124
1545.000000	89.827339
1544.000000	89.777561
1543.000000	89.750688
1542.000000	89.722606
1541.000000	89.677095
1540.000000	89.613595
1539.000000	89.535234
1538.000000	89.469479
1537.000000	89.430578
1536.000000	89.396593
1535.000000	89.368972
1534.000000	89.371666
1533.000000	89.403054
1532.000000	89.422843
1531.000000	89.419396
1530.000000	89.410247
1529.000000	89.408440
1528.000000	89.422664
1527.000000	89.457067
1526.000000	89.503276
1525.000000	89.547704
1524.000000	89.578305
1523.000000	89.590863
1522.000000	89.596127
1521.000000	89.598767
1520.000000	89.596710
1519.000000	89.589902
1518.000000	89.566851
1517.000000	89.526663
1516.000000	89.485924
1515.000000	89.458733
1514.000000	89.440233
1513.000000	89.430852
1512.000000	89.450790
1511.000000	89.519184
1510.000000	89.616136
1509.000000	89.707853
1508.000000	89.790578
1507.000000	89.878079
1506.000000	89.903284
1505.000000	89.856666
1504.000000	89.816904
1503.000000	89.790344
1502.000000	89.762839
1501.000000	89.738151
1500.000000	89.728974
1499.000000	89.736239
1498.000000	89.738966
1497.000000	89.711945
1496.000000	89.661925
1495.000000	89.628136
1494.000000	89.615718
1493.000000	89.596414
1492.000000	89.560007
1491.000000	89.529164
1490.000000	89.509366
1489.000000	89.460943
1488.000000	89.360708
1487.000000	89.233043
1486.000000	89.098097
1485.000000	88.954114
1484.000000	88.808183
1483.000000	88.662593
1482.000000	88.510299
1481.000000	88.341797
1480.000000	88.162676
1479.000000	87.980959
1478.000000	87.789873
1477.000000	87.583106
1476.000000	87.371863
1475.000000	87.165357
1474.000000	86.925427
1473.000000	86.603432
1472.000000	86.222733
1471.000000	85.866011
1470.000000	85.556652
1469.000000	85.268406
1468.000000	84.994315
1467.000000	84.749853
1466.000000	84.534412
1465.000000	84.337848
1464.000000	84.167725
1463.000000	84.032739
1462.000000	83.921847
1461.000000	83.815035
1460.000000	83.705956
1459.000000	83.582577
1458.000000	83.406855
1457.000000	83.151817
1456.000000	82.901531
1455.000000	82.737533
1454.000000	82.613144
1453.000000	82.477747
1452.000000	82.345810
1451.000000	82.245798
1450.000000	82.166979
1449.000000	82.080615
1448.000000	81.986261
1447.000000	81.903052
1446.000000	81.820495
1445.000000	81.726089
1444.000000	81.623633
1443.000000	81.520883
1442.000000	81.418443
1441.000000	81.313739
1440.000000	81.206845
1439.000000	81.085797
1438.000000	80.931256
1437.000000	80.745251
1436.000000	80.581177
1435.000000	80.480659
1434.000000	80.411912
1433.000000	80.333505
1432.000000	80.247404
1431.000000	80.166546
1430.000000	80.071606
1429.000000	79.934138
1428.000000	79.768242
1427.000000	79.610237
1426.000000	79.465205
1425.000000	79.336762
1424.000000	79.250398
1423.000000	79.211473
1422.000000	79.178326
1421.000000	79.115485
1420.000000	79.045942
1419.000000	79.017181
1418.000000	79.018577
1417.000000	79.010164
1416.000000	78.997922
1415.000000	79.006575
1414.000000	79.042780
1413.000000	79.105238
1412.000000	79.201627
1411.000000	79.335386
1410.000000	79.489945
1409.000000	79.648343
1408.000000	79.814427
1407.000000	79.998866
1406.000000	80.193338
1405.000000	80.385889
1404.000000	80.572006
1403.000000	80.739497
1402.000000	80.871918
1401.000000	80.973523
1400.000000	81.076576
1399.000000	81.202048
1398.000000	81.328394
1397.000000	81.431363
1396.000000	81.522721
1395.000000	81.623860
1394.000000	81.729668
1393.000000	81.833375
1392.000000	81.944359
1391.000000	82.065907
1390.000000	82.191309
1389.000000	82.325803
1388.000000	82.488637
1387.000000	82.678699
1386.000000	82.859102
1385.000000	83.007725
1384.000000	83.139886
1383.000000	83.274941
1382.000000	83.417773
1381.000000	83.568260
1380.000000	83.736131
1379.000000	83.929615
1378.000000	84.143131
1377.000000	84.370619
1376.000000	84.618767
1375.000000	84.888908
1374.000000	85.153260
1373.000000	85.379046
1372.000000	85.564911
1371.000000	85.728057
1370.000000	85.878970
1369.000000	86.027858
1368.000000	86.182125
1367.000000	86.335159
1366.000000	86.476514
1365.000000	86.611463
1364.000000	86.755119
1363.000000	86.904442
1362.000000	87.033729
1361.000000	87.130832
1360.000000	87.209391
1359.000000	87.280770
1358.000000	87.345728
1357.000000	87.409261
1356.000000	87.480308
1355.000000	87.558807
1354.000000	87.638412
1353.000000	87.720141
1352.000000	87.807854
1351.000000	87.897059
1350.000000	87.976239
1349.000000	88.043497
1348.000000	88.101479
1347.000000	88.144075
1346.000000	88.163069
1345.000000	88.163965
1344.000000	88.159713
1343.000000	88.151794
1342.000000	88.131909
1341.000000	88.097880
1340.000000	88.053660
1339.000000	87.997634
1338.000000	87.928593
1337.000000	87.860752
1336.000000	87.814507
1335.000000	87.798437
1334.000000	87.811256
1333.000000	87.854205
1332.000000	87.928087
1331.000000	88.022627
1330.000000	88.122237
1329.000000	88.221752
1328.000000	88.324451
1327.000000	88.428082
1326.000000	88.524993
1325.000000	88.614130
1324.000000	88.698832
1323.000000	88.777211
1322.000000	88.847031
1321.000000	88.914864
1320.000000	88.988372
1319.000000	89.064032
1318.000000	89.135176
1317.000000	89.206898
1316.000000	89.289114
1315.000000	89.380900
1314.000000	89.474148
1313.000000	89.566152
1312.000000	89.656857
1311.000000	89.741620
1310.000000	89.819075
1309.000000	89.899124
1308.000000	89.989932
1307.000000	90.084985
1306.000000	90.173778
1305.000000	90.258808
1304.000000	90.347949
1303.000000	90.439255
1302.000000	90.526853
1301.000000	90.613887
1300.000000	90.706051
1299.000000	90.799419
1298.000000	90.887787
1297.000000	90.973461
1296.000000	91.058320
1295.000000	91.132230
1294.000000	91.185150
1293.000000	91.222174
1292.000000	91.253806
1291.000000	91.280245
1290.000000	91.297028
1289.000000	91.307881
1288.000000	91.318609
1287.000000	91.326931
1286.000000	91.330889
1285.000000	91.338046
1284.000000	91.354013
1283.000000	91.371454
1282.000000	91.382046
1281.000000	91.389501
1280.000000	91.397652
1279.000000	91.396081
1278.000000	91.371939
1277.000000	91.326470
1276.000000	91.267279
1275.000000	91.192138
1274.000000	91.094849
1273.000000	90.978313
1272.000000	90.848012
1271.000000	90.700670
1270.000000	90.530829
1269.000000	90.342745
1268.000000	90.144588
1267.000000	89.937155
1266.000000	89.719333
1265.000000	89.496486
1264.000000	89.273962
1263.000000	89.049877
1262.000000	88.824190
1261.000000	88.607189
1260.000000	88.408105
1259.000000	88.222763
1258.000000	88.044375
1257.000000	87.881457
1256.000000	87.751704
1255.000000	87.663267
1254.000000	87.610817
1253.000000	87.584086
1252.000000	87.571292
1251.000000	87.557016
1250.000000	87.529513
1249.000000	87.489180
1248.000000	87.442106
1247.000000	87.389732
1246.000000	87.332457
1245.000000	87.277248
1244.000000	87.231693
1243.000000	87.194981
1242.000000	87.164508
1241.000000	87.146202
1240.000000	87.148464
1239.000000	87.171338
1238.000000	87.210986
1237.000000	87.271546
1236.000000	87.359994
1235.000000	87.472789
1234.000000	87.599094
1233.000000	87.733590
1232.000000	87.877888
1231.000000	88.032961
1230.000000	88.201258
1229.000000	88.392806
1228.000000	88.616049
1227.000000	88.866696
1226.000000	89.133629
1225.000000	89.410043
1224.000000	89.688968
1223.000000	89.955157
1222.000000	90.195395
1221.000000	90.410754
1220.000000	90.607496
1219.000000	90.782424
1218.000000	90.930432
1217.000000	91.057087
1216.000000	91.170599
1215.000000	91.269707
1214.000000	91.350414
1213.000000	91.418198
1212.000000	91.479567
1211.000000	91.529240
1210.000000	91.558685
1209.000000	91.569066
1208.000000	91.566110
1207.000000	91.550247
1206.000000	91.522548
1205.000000	91.491758
1204.000000	91.463390
1203.000000	91.431364
1202.000000	91.390599
1201.000000	91.348468
1200.000000	91.313164
1199.000000	91.280069
1198.000000	91.241309
1197.000000	91.199338
1196.000000	91.159295
1195.000000	91.117162
1194.000000	91.067266
1193.000000	91.013081
1192.000000	90.959080
1191.000000	90.900073
1190.000000	90.830301
1189.000000	90.754228
1188.000000	90.677031
1187.000000	90.592767
1186.000000	90.492747
1185.000000	90.378419
1184.000000	90.254587
1183.000000	90.118613
1182.000000	89.967560
1181.000000	89.807259
1180.000000	89.643777
1179.000000	89.473101
1178.000000	89.291110
1177.000000	89.105812
1176.000000	88.928081
1175.000000	88.757938
1174.000000	88.589925
1173.000000	88.425267
1172.000000	88.268091
1171.000000	88.116562
1170.000000	87.968018
1169.000000	87.827613
1168.000000	87.702348
1167.000000	87.591146
1166.000000	87.490963
1165.000000	87.406370
1164.000000	87.344360
1163.000000	87.306179
1162.000000	87.291733
1161.000000	87.307605
1160.000000	87.359620
1159.000000	87.443858
1158.000000	87.555980
1157.000000	87.700455
1156.000000	87.882425
1155.000000	88.095835
1154.000000	88.331130
1153.000000	88.588949
1152.000000	88.872325
1151.000000	89.174648
1150.000000	89.486791
1149.000000	89.808478
1148.000000	90.140389
1147.000000	90.473286
1146.000000	90.799492
1145.000000	91.124940
1144.000000	91.455285
1143.000000	91.779400
1142.000000	92.081956
1141.000000	92.362310
1140.000000	92.626105
1139.000000	92.869780
1138.000000	93.087194
1137.000000	93.282522
1136.000000	93.460791
1135.000000	93.615574
1134.000000	93.740997
1133.000000	93.843128
1132.000000	93.928691
1131.000000	93.993299
1130.000000	94.033023
1129.000000	94.056229
1128.000000	94.070616
1127.000000	94.072746
1126.000000	94.060706
1125.000000	94.042318
1124.000000	94.020817
1123.000000	93.986687
1122.000000	93.935414
1121.000000	93.876403
1120.000000	93.811037
1119.000000	93.720618
1118.000000	93.588078
1117.000000	93.416956
1116.000000	93.216358
1115.000000	92.984677
1114.000000	92.724313
1113.000000	92.455894
1112.000000	92.204433
1111.000000	91.983830
1110.000000	91.805664
1109.000000	91.685403
1108.000000	91.626661
1107.000000	91.611816
1106.000000	91.620094
1105.000000	91.644829
1104.000000	91.680886
1103.000000	91.712488
1102.000000	91.726121
1101.000000	91.720943
1100.000000	91.695807
1099.000000	91.641029
1098.000000	91.557475
1097.000000	91.464901
1096.000000	91.379869
1095.000000	91.302121
1094.000000	91.233919
1093.000000	91.192865
1092.000000	91.191756
1091.000000	91.223340
1090.000000	91.280355
1089.000000	91.370798
1088.000000	91.498017
1087.000000	91.646041
1086.000000	91.800827
1085.000000	91.969919
1084.000000	92.161324
1083.000000	92.360805
1082.000000	92.549455
1081.000000	92.726485
1080.000000	92.896842
1079.000000	93.053440
1078.000000	93.191565
1077.000000	93.322275
1076.000000	93.453448
1075.000000	93.574242
1074.000000	93.675478
1073.000000	93.765762
1072.000000	93.848894
1071.000000	93.908080
1070.000000	93.931211
1069.000000	93.932635
1068.000000	93.930648
1067.000000	93.923204
1066.000000	93.904930
1065.000000	93.887229
1064.000000	93.880980
1063.000000	93.878601
1062.000000	93.872080
1061.000000	93.870470
1060.000000	93.881037
1059.000000	93.893143
1058.000000	93.899559
1057.000000	93.913904
1056.000000	93.947416
1055.000000	93.988076
1054.000000	94.023473
1053.000000	94.063990
1052.000000	94.122143
1051.000000	94.186781
1050.000000	94.241581
1049.000000	94.290820
1048.000000	94.343918
1047.000000	94.393346
1046.000000	94.429099
1045.000000	94.455952
1044.000000	94.476138
1043.000000	94.475896
1042.000000	94.447456
1041.000000	94.406057
1040.000000	94.365638
1039.000000	94.316098
1038.000000	94.243682
1037.000000	94.154988
1036.000000	94.062734
1035.000000	93.967113
1034.000000	93.869627
1033.000000	93.785921
1032.000000	93.725391
1031.000000	93.675821
1030.000000	93.626669
1029.000000	93.589695
1028.000000	93.578134
1027.000000	93.583827
1026.000000	93.594152
1025.000000	93.612446
1024.000000	93.643651
1023.000000	93.677522
1022.000000	93.706348
1021.000000	93.741375
1020.000000	93.791805
1019.000000	93.845923
1018.000000	93.891464
1017.000000	93.937434
1016.000000	93.996301
1015.000000	94.062837
1014.000000	94.128981
1013.000000	94.201834
1012.000000	94.288111
1011.000000	94.379135
1010.000000	94.468344
1009.000000	94.565804
1008.000000	94.677621
1007.000000	94.789925
1006.000000	94.890489
1005.000000	94.986142
1004.000000	95.081987
1003.000000	95.163996
1002.000000	95.222141
1001.000000	95.269686
1000.000000	95.321084
999.000000	95.369211
998.000000	95.403772
997.000000	95.432331
996.000000	95.463084
995.000000	95.486789
994.000000	95.495351
993.000000	95.500684
992.000000	95.515385
991.000000	95.532417
990.000000	95.541407
989.000000	95.547415
988.000000	95.555457
987.000000	95.555842
986.000000	95.542420
985.000000	95.527365
984.000000	95.519688
983.000000	95.507962
982.000000	95.482194
981.000000	95.453202
980.000000	95.432437
979.000000	95.410840
978.000000	95.376431
977.000000	95.334117
976.000000	95.290869
975.000000	95.239950
974.000000	95.178445
973.000000	95.121527
972.000000	95.081436
971.000000	95.049730
970.000000	95.017118
969.000000	94.992322
968.000000	94.984866
967.000000	94.988487
966.000000	94.998688
965.000000	95.026927
964.000000	95.078216
963.000000	95.135003
962.000000	95.181358
961.000000	95.226290
960.000000	95.284159
959.000000	95.350858
958.000000	95.418235
957.000000	95.493040
956.000000	95.582920
955.000000	95.680517
954.000000	95.779190
953.000000	95.886158
952.000000	96.003183
951.000000	96.112755
950.000000	96.201702
949.000000	96.279604
948.000000	96.358254
947.000000	96.432494
946.000000	96.497330
945.000000	96.561829
944.000000	96.629641
943.000000	96.687614
942.000000	96.730700
941.000000	96.775205
940.000000	96.829634
939.000000	96.877745
938.000000	96.908381
937.000000	96.938549
936.000000	96.985402
935.000000	97.039674
934.000000	97.087276
933.000000	97.134512
932.000000	97.190027
931.000000	97.243469
930.000000	97.284026
929.000000	97.319479
928.000000	97.357911
927.000000	97.391431
926.000000	97.417187
925.000000	97.450965
924.000000	97.501264
923.000000	97.552011
922.000000	97.591023
921.000000	97.631228
920.000000	97.684048
919.000000	97.736344
918.000000	97.775500
917.000000	97.813762
916.000000	97.864944
915.000000	97.920508
914.000000	97.969104
913.000000	98.017369
912.000000	98.069740
911.000000	98.112684
910.000000	98.140131
909.000000	98.170547
908.000000	98.215805
907.000000	98.258836
906.000000	98.284999
905.000000	98.309201
904.000000	98.347265
903.000000	98.385308
902.000000	98.405278
901.000000	98.417194
900.000000	98.440429
899.000000	98.472610
898.000000	98.502133
897.000000	98.529744
896.000000	98.555934
895.000000	98.568055
894.000000	98.562065
893.000000	98.555360
892.000000	98.556439
891.000000	98.543431
890.000000	98.485671
889.000000	98.356656
888.000000	98.109209
887.000000	97.677050
886.000000	97.041993
885.000000	96.277105
884.000000	95.490088
883.000000	94.738324
882.000000	94.006066
881.000000	93.237584
880.000000	92.373200
879.000000	91.389971
878.000000	90.342358
877.000000	89.354183
876.000000	88.551206
875.000000	88.014101
874.000000	87.801454
873.000000	87.967122
872.000000	88.524977
871.000000	89.404175
870.000000	90.470324
869.000000	91.585442
868.000000	92.633761
867.000000	93.532192
866.000000	94.255288
865.000000	94.838699
864.000000	95.327673
863.000000	95.738203
862.000000	96.077526
861.000000	96.369029
860.000000	96.628538
859.000000	96.844475
858.000000	97.011001
857.000000	97.151023
856.000000	97.281588
855.000000	97.388593
854.000000	97.461602
853.000000	97.518554
852.000000	97.562962
851.000000	97.555295
850.000000	97.472147
849.000000	97.366408
848.000000	97.325937
847.000000	97.386028
846.000000	97.514166
845.000000	97.660731
844.000000	97.789571
843.000000	97.878649
842.000000	97.928795
841.000000	97.964224
840.000000	98.000933
839.000000	98.027675
838.000000	98.033793
837.000000	98.032281
836.000000	98.034346
835.000000	98.028945
834.000000	98.010585
833.000000	98.000619
832.000000	98.015083
831.000000	98.038773
830.000000	98.057187
829.000000	98.086393
828.000000	98.141995
827.000000	98.205541
826.000000	98.254049
825.000000	98.295629
824.000000	98.344058
823.000000	98.386174
822.000000	98.408469
821.000000	98.426246
820.000000	98.454839
819.000000	98.480781
818.000000	98.490282
817.000000	98.497541
816.000000	98.517045
815.000000	98.535384
814.000000	98.537265
813.000000	98.534006
812.000000	98.539991
811.000000	98.546571
810.000000	98.543230
809.000000	98.538113
808.000000	98.534549
807.000000	98.516596
806.000000	98.481163
805.000000	98.453670
804.000000	98.446912
803.000000	98.436622
802.000000	98.403706
801.000000	98.367195
800.000000	98.347556
799.000000	98.330137
798.000000	98.295753
797.000000	98.256711
796.000000	98.231788
795.000000	98.213519
794.000000	98.188641
793.000000	98.163728
792.000000	98.144750
791.000000	98.118813
790.000000	98.080081
789.000000	98.045656
788.000000	98.023846
787.000000	97.996962
786.000000	97.957406
785.000000	97.928685
784.000000	97.926753
783.000000	97.931768
782.000000	97.921913
781.000000	97.904384
780.000000	97.889319
779.000000	97.865033
778.000000	97.824575
777.000000	97.786214
776.000000	97.762013
775.000000	97.735697
774.000000	97.695751
773.000000	97.660394
772.000000	97.645161
771.000000	97.636021
770.000000	97.618632
769.000000	97.603957
768.000000	97.600512
767.000000	97.591677
766.000000	97.565188
765.000000	97.534838
764.000000	97.509610
763.000000	97.472617
762.000000	97.414630
761.000000	97.355637
760.000000	97.309547
759.000000	97.260808
758.000000	97.200409
757.000000	97.149283
756.000000	97.119479
755.000000	97.087694
754.000000	97.036656
753.000000	96.989340
752.000000	96.971399
751.000000	96.971828
750.000000	96.969866
749.000000	96.970166
748.000000	96.980975
747.000000	96.988083
746.000000	96.980150
745.000000	96.972097
744.000000	96.975224
743.000000	96.972775
742.000000	96.951210
741.000000	96.925360
740.000000	96.906950
739.000000	96.878915
738.000000	96.827693
737.000000	96.769349
736.000000	96.718614
735.000000	96.662362
734.000000	96.588822
733.000000	96.510613
732.000000	96.436597
731.000000	96.355497
730.000000	96.270450
729.000000	96.210196
728.000000	96.181913
727.000000	96.152025
726.000000	96.097852
725.000000	96.041922
724.000000	96.006432
723.000000	95.972870
722.000000	95.913882
721.000000	95.827118
720.000000	95.706630
719.000000	95.517154
718.000000	95.225768
717.000000	94.821068
716.000000	94.285050
715.000000	93.609822
714.000000	92.888214
713.000000	92.331935
712.000000	92.130823
711.000000	92.299151
710.000000	92.690285
709.000000	93.126192
708.000000	93.482180
707.000000	93.702499
706.000000	93.800276
705.000000	93.836977
704.000000	93.862191
703.000000	93.876155
702.000000	93.866410
701.000000	93.847281
700.000000	93.831095
699.000000	93.801016
698.000000	93.745420
697.000000	93.691279
696.000000	93.668298
695.000000	93.666026
694.000000	93.662895
693.000000	93.664404
692.000000	93.677708
691.000000	93.686164
690.000000	93.680461
689.000000	93.681680
688.000000	93.700477
687.000000	93.707936
686.000000	93.688417
685.000000	93.672469
684.000000	93.679391
683.000000	93.677508
682.000000	93.642960
681.000000	93.608726
680.000000	93.610670
679.000000	93.630790
678.000000	93.638565
677.000000	93.640991
676.000000	93.656239
675.000000	93.675081
674.000000	93.693510
673.000000	93.740165
672.000000	93.828689
671.000000	93.929222
670.000000	94.022463
669.000000	94.136329
668.000000	94.254601
667.000000	94.307839
666.000000	94.330621
665.000000	94.345875
664.000000	94.358107
663.000000	94.361898
662.000000	94.355011
661.000000	94.357775
660.000000	94.383640
659.000000	94.411272
658.000000	94.417302
657.000000	94.405882
656.000000	94.387729
655.000000	94.350195
654.000000	94.279681
653.000000	94.189473
652.000000	94.096654
651.000000	93.995696
650.000000	93.884401
649.000000	93.786519
648.000000	93.717559
647.000000	93.653890
646.000000	93.563815
645.000000	93.451158
644.000000	93.336431
643.000000	93.219841
642.000000	93.094541
641.000000	92.968367
640.000000	92.848565
639.000000	92.732501
638.000000	92.633281
637.000000	92.582866
636.000000	92.587059
635.000000	92.606219
634.000000	92.611709
633.000000	92.626166
632.000000	92.674032
631.000000	92.728465
630.000000	92.747060
629.000000	92.730904
628.000000	92.709930
627.000000	92.697574
626.000000	92.690814
625.000000	92.691038
624.000000	92.687610
623.000000	92.650699
622.000000	92.574873
621.000000	92.500105
620.000000	92.455977
619.000000	92.418477
618.000000	92.353799
617.000000	92.272578
616.000000	92.203787
615.000000	92.147744
614.000000	92.093942
613.000000	92.050823
612.000000	92.024328
611.000000	92.000984
610.000000	91.984376
609.000000	92.007641
608.000000	92.078014
607.000000	92.151701
606.000000	92.202503
605.000000	92.274619
604.000000	92.421832
603.000000	92.634163
602.000000	92.867701
601.000000	93.102525
600.000000	93.327775
599.000000	93.521499
598.000000	93.689354
597.000000	93.873055
596.000000	94.076903
595.000000	94.242302
594.000000	94.335764
593.000000	94.407267
592.000000	94.508261
591.000000	94.610849
590.000000	94.670484
589.000000	94.706731
588.000000	94.756173
587.000000	94.802611
586.000000	94.817953
585.000000	94.823258
584.000000	94.851355
583.000000	94.890075
582.000000	94.916425
581.000000	94.940679
580.000000	94.969026
579.000000	94.974862
578.000000	94.957110
577.000000	94.969185
576.000000	95.039041
575.000000	95.115696
574.000000	95.150700
573.000000	95.170314
572.000000	95.206622
571.000000	95.231932
570.000000	95.219102
569.000000	95.207187
568.000000	95.237975
567.000000	95.283668
566.000000	95.301456
565.000000	95.302014
564.000000	95.304078
563.000000	95.285644
562.000000	95.241316
561.000000	95.223252
560.000000	95.262132
559.000000	95.306504
558.000000	95.304452
557.000000	95.285194
556.000000	95.298990
555.000000	95.334273
554.000000	95.357157
553.000000	95.374329
552.000000	95.395165
551.000000	95.394213
550.000000	95.370248
549.000000	95.377685
548.000000	95.436870
547.000000	95.484023
546.000000	95.472414
545.000000	95.454519
544.000000	95.489753
543.000000	95.545839
542.000000	95.562355
541.000000	95.543646
540.000000	95.524061
539.000000	95.505763
538.000000	95.491128
537.000000	95.510054
536.000000	95.554887
535.000000	95.558370
534.000000	95.498773
533.000000	95.447425
532.000000	95.450705
531.000000	95.448797
530.000000	95.384195
529.000000	95.306312
528.000000	95.292533
527.000000	95.340499
526.000000	95.403861
525.000000	95.472780
524.000000	95.543861
523.000000	95.577559
522.000000	95.560106
521.000000	95.544994
520.000000	95.572232
519.000000	95.604323
518.000000	95.604177
517.000000	95.611216
516.000000	95.661611
515.000000	95.717341
514.000000	95.747070
513.000000	95.782700
512.000000	95.840356
511.000000	95.870851
510.000000	95.850931
509.000000	95.840275
508.000000	95.883441
507.000000	95.938066
506.000000	95.965725
505.000000	96.002337
504.000000	96.069503
503.000000	96.114836
502.000000	96.109308
501.000000	96.110938
500.000000	96.148499
499.000000	96.160803
498.000000	96.121879
497.000000	96.104352
496.000000	96.152824
495.000000	96.200095
494.000000	96.187451
493.000000	96.166805
492.000000	96.197270
491.000000	96.245698
490.000000	96.276827
489.000000	96.327560
488.000000	96.405540
487.000000	96.436152
486.000000	96.397140
485.000000	96.397160
484.000000	96.514617
483.000000	96.661910
482.000000	96.732764
481.000000	96.755974
480.000000	96.794212
479.000000	96.820361
478.000000	96.799207
477.000000	96.782329
476.000000	96.815790
475.000000	96.857928
474.000000	96.885027
473.000000	96.968235
472.000000	97.129289
471.000000	97.246308
470.000000	97.252495
469.000000	97.246750
468.000000	97.311958
467.000000	97.389952
466.000000	97.417514
465.000000	97.450265
464.000000	97.536832
463.000000	97.618870
462.000000	97.663707
461.000000	97.754203
460.000000	97.930446
459.000000	98.080742
458.000000	98.108231
457.000000	98.107514
456.000000	98.181057
455.000000	98.256856
454.000000	98.282188
453.000000	98.337718
452.000000	98.464656
451.000000	98.552813
450.000000	98.551409
