PE IR       SUBTECH     SPECTRUM    ASCII       PEDS        4.00        
   -1
3C-XXX-F006_1.ASC
23/09/07
10:41:15.00
23/09/07
11:30:09.00
uco
Sample 006 By uco Date Thursday, September 07 2023
450.000000
#HDR
-1
-1
#GR
cm-1
%T
1.0
0.0
4000.000000
-1.000000
3551
8
98.755542
88.884903
#DATA
4000.000000	98.698628
3999.000000	98.697783
3998.000000	98.695835
3997.000000	98.693883
3996.000000	98.693074
3995.000000	98.693996
3994.000000	98.695894
3993.000000	98.696860
3992.000000	98.694965
3991.000000	98.689431
3990.000000	98.681096
3989.000000	98.672029
3988.000000	98.664668
3987.000000	98.660723
3986.000000	98.660440
3985.000000	98.662839
3984.000000	98.666746
3983.000000	98.671594
3982.000000	98.677046
3981.000000	98.682162
3980.000000	98.685420
3979.000000	98.685726
3978.000000	98.683190
3977.000000	98.678839
3976.000000	98.673858
3975.000000	98.669296
3974.000000	98.666256
3973.000000	98.665714
3972.000000	98.667760
3971.000000	98.671101
3970.000000	98.673720
3969.000000	98.674229
3968.000000	98.672806
3967.000000	98.670929
3966.000000	98.670120
3965.000000	98.670858
3964.000000	98.672376
3963.000000	98.673340
3962.000000	98.672831
3961.000000	98.670673
3960.000000	98.667167
3959.000000	98.662769
3958.000000	98.658046
3957.000000	98.653709
3956.000000	98.650309
3955.000000	98.648003
3954.000000	98.646660
3953.000000	98.646281
3952.000000	98.647244
3951.000000	98.649993
3950.000000	98.654361
3949.000000	98.659164
3948.000000	98.662696
3947.000000	98.663665
3946.000000	98.661711
3945.000000	98.657216
3944.000000	98.651585
3943.000000	98.647736
3942.000000	98.648459
3941.000000	98.653669
3940.000000	98.660190
3939.000000	98.664122
3938.000000	98.663373
3937.000000	98.658655
3936.000000	98.652561
3935.000000	98.647967
3934.000000	98.646785
3933.000000	98.649608
3932.000000	98.655633
3931.000000	98.662667
3930.000000	98.668304
3929.000000	98.671527
3928.000000	98.672954
3927.000000	98.673392
3926.000000	98.672889
3925.000000	98.671400
3924.000000	98.669073
3923.000000	98.665832
3922.000000	98.661668
3921.000000	98.656858
3920.000000	98.651397
3919.000000	98.644741
3918.000000	98.637291
3917.000000	98.631875
3916.000000	98.631812
3915.000000	98.636898
3914.000000	98.642912
3913.000000	98.645240
3912.000000	98.642275
3911.000000	98.635925
3910.000000	98.629517
3909.000000	98.625301
3908.000000	98.623310
3907.000000	98.621794
3906.000000	98.618743
3905.000000	98.615097
3904.000000	98.615855
3903.000000	98.624817
3902.000000	98.638833
3901.000000	98.650049
3900.000000	98.653851
3899.000000	98.652458
3898.000000	98.650715
3897.000000	98.650703
3896.000000	98.651647
3895.000000	98.652273
3894.000000	98.651593
3893.000000	98.648847
3892.000000	98.645478
3891.000000	98.645012
3890.000000	98.648329
3889.000000	98.652788
3888.000000	98.654557
3887.000000	98.651022
3886.000000	98.644945
3885.000000	98.642763
3884.000000	98.646083
3883.000000	98.649735
3882.000000	98.647361
3881.000000	98.638178
3880.000000	98.628476
3879.000000	98.624262
3878.000000	98.625963
3877.000000	98.630464
3876.000000	98.633975
3875.000000	98.635337
3874.000000	98.637206
3873.000000	98.641198
3872.000000	98.643425
3871.000000	98.639141
3870.000000	98.632270
3869.000000	98.632046
3868.000000	98.640573
3867.000000	98.651631
3866.000000	98.658614
3865.000000	98.660270
3864.000000	98.659642
3863.000000	98.658478
3862.000000	98.655889
3861.000000	98.650920
3860.000000	98.643374
3859.000000	98.633332
3858.000000	98.621928
3857.000000	98.612550
3856.000000	98.608515
3855.000000	98.606143
3854.000000	98.601820
3853.000000	98.602054
3852.000000	98.608908
3851.000000	98.616384
3850.000000	98.621748
3849.000000	98.627015
3848.000000	98.634617
3847.000000	98.643489
3846.000000	98.649549
3845.000000	98.648955
3844.000000	98.641715
3843.000000	98.632553
3842.000000	98.626851
3841.000000	98.625719
3840.000000	98.626403
3839.000000	98.626638
3838.000000	98.626887
3837.000000	98.628561
3836.000000	98.631795
3835.000000	98.635296
3834.000000	98.637052
3833.000000	98.635745
3832.000000	98.632370
3831.000000	98.629257
3830.000000	98.627578
3829.000000	98.626307
3828.000000	98.623618
3827.000000	98.619710
3826.000000	98.617129
3825.000000	98.617719
3824.000000	98.620638
3823.000000	98.621759
3822.000000	98.618592
3821.000000	98.617375
3820.000000	98.622465
3819.000000	98.628385
3818.000000	98.628357
3817.000000	98.621556
3816.000000	98.615891
3815.000000	98.618621
3814.000000	98.626343
3813.000000	98.631361
3812.000000	98.631190
3811.000000	98.629600
3810.000000	98.631416
3809.000000	98.636220
3808.000000	98.638660
3807.000000	98.636239
3806.000000	98.632353
3805.000000	98.631330
3804.000000	98.633870
3803.000000	98.636475
3802.000000	98.638341
3801.000000	98.642991
3800.000000	98.648649
3799.000000	98.649543
3798.000000	98.643274
3797.000000	98.633212
3796.000000	98.625826
3795.000000	98.624043
3794.000000	98.625430
3793.000000	98.626820
3792.000000	98.627802
3791.000000	98.629689
3790.000000	98.633469
3789.000000	98.638967
3788.000000	98.644974
3787.000000	98.649401
3786.000000	98.650399
3785.000000	98.648331
3784.000000	98.645843
3783.000000	98.644944
3782.000000	98.644787
3781.000000	98.642610
3780.000000	98.637650
3779.000000	98.633124
3778.000000	98.632172
3777.000000	98.634291
3776.000000	98.637039
3775.000000	98.639084
3774.000000	98.640500
3773.000000	98.640775
3772.000000	98.638069
3771.000000	98.632582
3770.000000	98.629351
3769.000000	98.633129
3768.000000	98.641982
3767.000000	98.649454
3766.000000	98.651378
3765.000000	98.649017
3764.000000	98.646227
3763.000000	98.644923
3762.000000	98.644133
3761.000000	98.642289
3760.000000	98.639696
3759.000000	98.638435
3758.000000	98.640139
3757.000000	98.644653
3756.000000	98.650212
3755.000000	98.654414
3754.000000	98.655214
3753.000000	98.651955
3752.000000	98.646165
3751.000000	98.641118
3750.000000	98.637399
3749.000000	98.632304
3748.000000	98.625712
3747.000000	98.620808
3746.000000	98.620204
3745.000000	98.629198
3744.000000	98.652494
3743.000000	98.679850
3742.000000	98.695509
3741.000000	98.694797
3740.000000	98.684837
3739.000000	98.677703
3738.000000	98.680725
3737.000000	98.691595
3736.000000	98.702650
3735.000000	98.707964
3734.000000	98.706266
3733.000000	98.700438
3732.000000	98.694990
3731.000000	98.692840
3730.000000	98.694223
3729.000000	98.697589
3728.000000	98.700778
3727.000000	98.702603
3726.000000	98.703111
3725.000000	98.702173
3724.000000	98.699655
3723.000000	98.696605
3722.000000	98.694627
3721.000000	98.694252
3720.000000	98.694743
3719.000000	98.694919
3718.000000	98.694310
3717.000000	98.693653
3716.000000	98.694081
3715.000000	98.695758
3714.000000	98.696492
3713.000000	98.692661
3712.000000	98.684815
3711.000000	98.680365
3710.000000	98.684994
3709.000000	98.695749
3708.000000	98.704986
3707.000000	98.707270
3706.000000	98.702381
3705.000000	98.693969
3704.000000	98.686390
3703.000000	98.682375
3702.000000	98.683302
3701.000000	98.688985
3700.000000	98.696856
3699.000000	98.702609
3698.000000	98.702604
3697.000000	98.696444
3696.000000	98.687213
3695.000000	98.678423
3694.000000	98.671766
3693.000000	98.667760
3692.000000	98.666359
3691.000000	98.666938
3690.000000	98.669585
3689.000000	98.676007
3688.000000	98.685260
3687.000000	98.692927
3686.000000	98.695614
3685.000000	98.693105
3684.000000	98.687910
3683.000000	98.682632
3682.000000	98.676849
3681.000000	98.667871
3680.000000	98.655912
3679.000000	98.645197
3678.000000	98.637828
3677.000000	98.628736
3676.000000	98.617631
3675.000000	98.615401
3674.000000	98.625120
3673.000000	98.637792
3672.000000	98.643460
3671.000000	98.636827
3670.000000	98.623371
3669.000000	98.613897
3668.000000	98.610850
3667.000000	98.609590
3666.000000	98.606566
3665.000000	98.601749
3664.000000	98.596900
3663.000000	98.593205
3662.000000	98.590659
3661.000000	98.589399
3660.000000	98.590185
3659.000000	98.592622
3658.000000	98.593178
3657.000000	98.588338
3656.000000	98.580532
3655.000000	98.575870
3654.000000	98.577382
3653.000000	98.583322
3652.000000	98.588115
3651.000000	98.583501
3650.000000	98.565891
3649.000000	98.543046
3648.000000	98.525651
3647.000000	98.515917
3646.000000	98.509687
3645.000000	98.503322
3644.000000	98.496284
3643.000000	98.490758
3642.000000	98.489641
3641.000000	98.493824
3640.000000	98.500907
3639.000000	98.507196
3638.000000	98.510276
3637.000000	98.509050
3636.000000	98.502449
3635.000000	98.490176
3634.000000	98.475281
3633.000000	98.463780
3632.000000	98.460876
3631.000000	98.465811
3630.000000	98.470358
3629.000000	98.468786
3628.000000	98.462892
3627.000000	98.454951
3626.000000	98.445144
3625.000000	98.433686
3624.000000	98.422298
3623.000000	98.413297
3622.000000	98.406793
3621.000000	98.399451
3620.000000	98.387618
3619.000000	98.372422
3618.000000	98.358865
3617.000000	98.350194
3616.000000	98.345464
3615.000000	98.340910
3614.000000	98.333195
3613.000000	98.322272
3612.000000	98.311054
3611.000000	98.302084
3610.000000	98.294801
3609.000000	98.287286
3608.000000	98.280030
3607.000000	98.275176
3606.000000	98.272733
3605.000000	98.270337
3604.000000	98.265997
3603.000000	98.259621
3602.000000	98.252689
3601.000000	98.246914
3600.000000	98.242402
3599.000000	98.236806
3598.000000	98.227028
3597.000000	98.211776
3596.000000	98.192648
3595.000000	98.173741
3594.000000	98.158935
3593.000000	98.148458
3592.000000	98.139353
3591.000000	98.129017
3590.000000	98.116205
3589.000000	98.100237
3588.000000	98.082594
3587.000000	98.067224
3586.000000	98.056075
3585.000000	98.048051
3584.000000	98.041655
3583.000000	98.035482
3582.000000	98.027917
3581.000000	98.017926
3580.000000	98.006386
3579.000000	97.995626
3578.000000	97.987324
3577.000000	97.980938
3576.000000	97.973798
3575.000000	97.962667
3574.000000	97.945935
3573.000000	97.925590
3572.000000	97.907154
3571.000000	97.896761
3570.000000	97.896276
3569.000000	97.900026
3568.000000	97.897822
3567.000000	97.884466
3566.000000	97.864116
3565.000000	97.843915
3564.000000	97.827090
3563.000000	97.812771
3562.000000	97.799119
3561.000000	97.785564
3560.000000	97.772873
3559.000000	97.761626
3558.000000	97.751073
3557.000000	97.739695
3556.000000	97.726292
3555.000000	97.710208
3554.000000	97.691469
3553.000000	97.671839
3552.000000	97.654918
3551.000000	97.643539
3550.000000	97.637302
3549.000000	97.633159
3548.000000	97.627654
3547.000000	97.618752
3546.000000	97.606640
3545.000000	97.593235
3544.000000	97.580455
3543.000000	97.568415
3542.000000	97.555327
3541.000000	97.539625
3540.000000	97.522071
3539.000000	97.505415
3538.000000	97.491667
3537.000000	97.479980
3536.000000	97.467313
3535.000000	97.451203
3534.000000	97.431953
3533.000000	97.412523
3532.000000	97.396589
3531.000000	97.386116
3530.000000	97.380145
3529.000000	97.375963
3528.000000	97.371686
3527.000000	97.367178
3526.000000	97.362535
3525.000000	97.356530
3524.000000	97.346924
3523.000000	97.332095
3522.000000	97.312270
3521.000000	97.289753
3520.000000	97.268144
3519.000000	97.250691
3518.000000	97.238410
3517.000000	97.229248
3516.000000	97.219534
3515.000000	97.206755
3514.000000	97.191325
3513.000000	97.175858
3512.000000	97.162845
3511.000000	97.152924
3510.000000	97.145160
3509.000000	97.138751
3508.000000	97.133994
3507.000000	97.131248
3506.000000	97.129200
3505.000000	97.124750
3504.000000	97.115319
3503.000000	97.101488
3502.000000	97.086734
3501.000000	97.074117
3500.000000	97.063429
3499.000000	97.051721
3498.000000	97.036598
3497.000000	97.019156
3496.000000	97.003258
3495.000000	96.991439
3494.000000	96.982261
3493.000000	96.972425
3492.000000	96.960663
3491.000000	96.948481
3490.000000	96.937631
3489.000000	96.928246
3488.000000	96.919726
3487.000000	96.912069
3486.000000	96.905160
3485.000000	96.897342
3484.000000	96.886064
3483.000000	96.870503
3482.000000	96.853223
3481.000000	96.838487
3480.000000	96.828809
3479.000000	96.823540
3478.000000	96.820438
3477.000000	96.817589
3476.000000	96.813724
3475.000000	96.807784
3474.000000	96.799143
3473.000000	96.788031
3472.000000	96.774957
3471.000000	96.759868
3470.000000	96.742759
3469.000000	96.725164
3468.000000	96.709932
3467.000000	96.698766
3466.000000	96.690644
3465.000000	96.683493
3464.000000	96.676928
3463.000000	96.672355
3462.000000	96.670291
3461.000000	96.668332
3460.000000	96.662272
3459.000000	96.649346
3458.000000	96.630616
3457.000000	96.610549
3456.000000	96.594136
3455.000000	96.583683
3454.000000	96.577976
3453.000000	96.574283
3452.000000	96.570745
3451.000000	96.566933
3450.000000	96.563045
3449.000000	96.559232
3448.000000	96.555257
3447.000000	96.550034
3446.000000	96.541795
3445.000000	96.529764
3444.000000	96.515449
3443.000000	96.501640
3442.000000	96.490236
3441.000000	96.481295
3440.000000	96.473711
3439.000000	96.466135
3438.000000	96.457544
3437.000000	96.447959
3436.000000	96.438801
3435.000000	96.431729
3434.000000	96.426763
3433.000000	96.421922
3432.000000	96.414902
3431.000000	96.404835
3430.000000	96.392678
3429.000000	96.380431
3428.000000	96.369749
3427.000000	96.360682
3426.000000	96.351887
3425.000000	96.342573
3424.000000	96.333814
3423.000000	96.326989
3422.000000	96.321083
3421.000000	96.312765
3420.000000	96.299801
3419.000000	96.283806
3418.000000	96.269002
3417.000000	96.258513
3416.000000	96.251921
3415.000000	96.245821
3414.000000	96.236696
3413.000000	96.223821
3412.000000	96.209561
3411.000000	96.196928
3410.000000	96.187307
3409.000000	96.180635
3408.000000	96.176598
3407.000000	96.174398
3406.000000	96.171795
3405.000000	96.165902
3404.000000	96.155514
3403.000000	96.142195
3402.000000	96.128966
3401.000000	96.118208
3400.000000	96.110330
3399.000000	96.103442
3398.000000	96.094379
3397.000000	96.081096
3396.000000	96.064496
3395.000000	96.047512
3394.000000	96.032520
3393.000000	96.020195
3392.000000	96.010454
3391.000000	96.003248
3390.000000	95.998032
3389.000000	95.993364
3388.000000	95.987668
3387.000000	95.980151
3386.000000	95.970887
3385.000000	95.960423
3384.000000	95.949531
3383.000000	95.938867
3382.000000	95.928626
3381.000000	95.918737
3380.000000	95.909307
3379.000000	95.900248
3378.000000	95.890475
3377.000000	95.878231
3376.000000	95.862686
3375.000000	95.844977
3374.000000	95.827401
3373.000000	95.811813
3372.000000	95.798772
3371.000000	95.787625
3370.000000	95.776936
3369.000000	95.765182
3368.000000	95.751714
3367.000000	95.737267
3366.000000	95.723330
3365.000000	95.710901
3364.000000	95.699764
3363.000000	95.688788
3362.000000	95.676774
3361.000000	95.663087
3360.000000	95.647584
3359.000000	95.630054
3358.000000	95.610056
3357.000000	95.587580
3356.000000	95.563819
3355.000000	95.540984
3354.000000	95.521003
3353.000000	95.504126
3352.000000	95.488550
3351.000000	95.471632
3350.000000	95.452098
3349.000000	95.431328
3348.000000	95.412004
3347.000000	95.395105
3346.000000	95.378606
3345.000000	95.359559
3344.000000	95.337256
3343.000000	95.313931
3342.000000	95.292541
3341.000000	95.274293
3340.000000	95.258200
3339.000000	95.242490
3338.000000	95.226259
3337.000000	95.209932
3336.000000	95.194260
3335.000000	95.179099
3334.000000	95.163510
3333.000000	95.146962
3332.000000	95.129851
3331.000000	95.112729
3330.000000	95.095598
3329.000000	95.078077
3328.000000	95.059649
3327.000000	95.039682
3326.000000	95.018084
3325.000000	94.996328
3324.000000	94.976986
3323.000000	94.961562
3322.000000	94.949400
3321.000000	94.939129
3320.000000	94.930029
3319.000000	94.921229
3318.000000	94.910746
3317.000000	94.896866
3316.000000	94.880203
3315.000000	94.863106
3314.000000	94.847086
3313.000000	94.831965
3312.000000	94.817328
3311.000000	94.803527
3310.000000	94.791040
3309.000000	94.779697
3308.000000	94.768846
3307.000000	94.757633
3306.000000	94.745096
3305.000000	94.730756
3304.000000	94.715320
3303.000000	94.700212
3302.000000	94.686296
3301.000000	94.673541
3300.000000	94.661877
3299.000000	94.651582
3298.000000	94.642680
3297.000000	94.634544
3296.000000	94.626348
3295.000000	94.617671
3294.000000	94.608712
3293.000000	94.600291
3292.000000	94.593457
3291.000000	94.588597
3290.000000	94.585093
3289.000000	94.582179
3288.000000	94.579770
3287.000000	94.577902
3286.000000	94.575951
3285.000000	94.573322
3284.000000	94.570387
3283.000000	94.567697
3282.000000	94.564588
3281.000000	94.560083
3280.000000	94.555479
3279.000000	94.554420
3278.000000	94.559548
3277.000000	94.569637
3276.000000	94.580783
3275.000000	94.590143
3274.000000	94.597818
3273.000000	94.605561
3272.000000	94.614409
3271.000000	94.623531
3270.000000	94.630955
3269.000000	94.635226
3268.000000	94.636557
3267.000000	94.636584
3266.000000	94.637256
3265.000000	94.640093
3264.000000	94.646135
3263.000000	94.655904
3262.000000	94.668989
3261.000000	94.683886
3260.000000	94.698584
3259.000000	94.711659
3258.000000	94.723135
3257.000000	94.734470
3256.000000	94.747450
3255.000000	94.762697
3254.000000	94.779181
3253.000000	94.795225
3252.000000	94.809808
3251.000000	94.822916
3250.000000	94.835196
3249.000000	94.847690
3248.000000	94.861391
3247.000000	94.876140
3246.000000	94.889834
3245.000000	94.899395
3244.000000	94.903257
3243.000000	94.903060
3242.000000	94.902785
3241.000000	94.906072
3240.000000	94.914029
3239.000000	94.925492
3238.000000	94.939156
3237.000000	94.954839
3236.000000	94.972238
3235.000000	94.989351
3234.000000	95.003684
3233.000000	95.015051
3232.000000	95.025724
3231.000000	95.037073
3230.000000	95.047310
3229.000000	95.053552
3228.000000	95.055255
3227.000000	95.054649
3226.000000	95.054513
3225.000000	95.056722
3224.000000	95.062259
3223.000000	95.071045
3222.000000	95.081692
3221.000000	95.092478
3220.000000	95.102705
3219.000000	95.112351
3218.000000	95.120629
3217.000000	95.126206
3216.000000	95.129167
3215.000000	95.131844
3214.000000	95.136981
3213.000000	95.145318
3212.000000	95.155150
3211.000000	95.163913
3210.000000	95.170156
3209.000000	95.174445
3208.000000	95.178724
3207.000000	95.184791
3206.000000	95.193313
3205.000000	95.203912
3204.000000	95.215380
3203.000000	95.225811
3202.000000	95.233726
3201.000000	95.239761
3200.000000	95.246386
3199.000000	95.255039
3198.000000	95.264305
3197.000000	95.271904
3196.000000	95.277681
3195.000000	95.283486
3194.000000	95.291017
3193.000000	95.301384
3192.000000	95.315797
3191.000000	95.334255
3190.000000	95.353517
3189.000000	95.368823
3188.000000	95.378770
3187.000000	95.387032
3186.000000	95.398407
3185.000000	95.414124
3184.000000	95.431675
3183.000000	95.447922
3182.000000	95.461393
3181.000000	95.472598
3180.000000	95.483222
3179.000000	95.494503
3178.000000	95.505810
3177.000000	95.515624
3176.000000	95.524477
3175.000000	95.535499
3174.000000	95.550853
3173.000000	95.568549
3172.000000	95.584106
3171.000000	95.595072
3170.000000	95.602910
3169.000000	95.611031
3168.000000	95.622124
3167.000000	95.636872
3166.000000	95.653634
3165.000000	95.669163
3164.000000	95.681071
3163.000000	95.690260
3162.000000	95.700252
3161.000000	95.713735
3160.000000	95.730351
3159.000000	95.747857
3158.000000	95.764437
3157.000000	95.779306
3156.000000	95.792094
3155.000000	95.802938
3154.000000	95.813112
3153.000000	95.824450
3152.000000	95.837547
3151.000000	95.850906
3150.000000	95.862469
3149.000000	95.872030
3148.000000	95.881667
3147.000000	95.893564
3146.000000	95.907729
3145.000000	95.922334
3144.000000	95.936165
3143.000000	95.950026
3142.000000	95.965273
3141.000000	95.981403
3140.000000	95.995895
3139.000000	96.006602
3138.000000	96.013852
3137.000000	96.019901
3136.000000	96.026515
3135.000000	96.033494
3134.000000	96.039558
3133.000000	96.044256
3132.000000	96.048659
3131.000000	96.054192
3130.000000	96.061298
3129.000000	96.069467
3128.000000	96.078204
3127.000000	96.087391
3126.000000	96.096650
3125.000000	96.104894
3124.000000	96.110941
3123.000000	96.114471
3122.000000	96.116237
3121.000000	96.117441
3120.000000	96.119047
3119.000000	96.121496
3118.000000	96.124601
3117.000000	96.127561
3116.000000	96.129377
3115.000000	96.129740
3114.000000	96.129555
3113.000000	96.130192
3112.000000	96.132006
3111.000000	96.133797
3110.000000	96.134012
3109.000000	96.132214
3108.000000	96.128869
3107.000000	96.123960
3106.000000	96.116814
3105.000000	96.107847
3104.000000	96.099738
3103.000000	96.095691
3102.000000	96.096180
3101.000000	96.098006
3100.000000	96.097110
3099.000000	96.092442
3098.000000	96.086804
3097.000000	96.083723
3096.000000	96.083597
3095.000000	96.083126
3094.000000	96.078817
3093.000000	96.070768
3092.000000	96.062574
3091.000000	96.057817
3090.000000	96.057133
3089.000000	96.058302
3088.000000	96.058067
3087.000000	96.053777
3086.000000	96.044561
3085.000000	96.031947
3084.000000	96.019091
3083.000000	96.008722
3082.000000	96.001819
3081.000000	95.998052
3080.000000	95.996514
3079.000000	95.995612
3078.000000	95.993318
3077.000000	95.988612
3076.000000	95.982316
3075.000000	95.975909
3074.000000	95.970060
3073.000000	95.965034
3072.000000	95.961893
3071.000000	95.962113
3070.000000	95.966132
3069.000000	95.972950
3068.000000	95.980905
3067.000000	95.988225
3066.000000	95.993316
3065.000000	95.995768
3064.000000	95.997058
3063.000000	95.999514
3062.000000	96.004593
3061.000000	96.012505
3060.000000	96.022770
3059.000000	96.034038
3058.000000	96.043848
3057.000000	96.050029
3056.000000	96.052784
3055.000000	96.054676
3054.000000	96.058502
3053.000000	96.065662
3052.000000	96.076086
3051.000000	96.088482
3050.000000	96.100775
3049.000000	96.111653
3048.000000	96.121953
3047.000000	96.133664
3046.000000	96.147402
3045.000000	96.161841
3044.000000	96.175733
3043.000000	96.189363
3042.000000	96.203605
3041.000000	96.218358
3040.000000	96.232425
3039.000000	96.244347
3038.000000	96.253130
3037.000000	96.259018
3036.000000	96.264170
3035.000000	96.271822
3034.000000	96.283765
3033.000000	96.298612
3032.000000	96.312892
3031.000000	96.323885
3030.000000	96.331498
3029.000000	96.337874
3028.000000	96.345532
3027.000000	96.355472
3026.000000	96.366614
3025.000000	96.377015
3024.000000	96.385585
3023.000000	96.392627
3022.000000	96.399213
3021.000000	96.406683
3020.000000	96.416281
3019.000000	96.428058
3018.000000	96.439975
3017.000000	96.449064
3016.000000	96.454019
3015.000000	96.456123
3014.000000	96.457388
3013.000000	96.458430
3012.000000	96.458388
3011.000000	96.456107
3010.000000	96.450937
3009.000000	96.443069
3008.000000	96.433936
3007.000000	96.426048
3006.000000	96.421707
3005.000000	96.421333
3004.000000	96.422696
3003.000000	96.421744
3002.000000	96.414793
3001.000000	96.400965
3000.000000	96.382881
2999.000000	96.364692
2998.000000	96.349178
2997.000000	96.336692
2996.000000	96.326122
2995.000000	96.315850
2994.000000	96.303858
2993.000000	96.288295
2992.000000	96.268739
2991.000000	96.246288
2990.000000	96.222002
2989.000000	96.195664
2988.000000	96.166524
2987.000000	96.134714
2986.000000	96.101353
2985.000000	96.067593
2984.000000	96.033805
2983.000000	95.999313
2982.000000	95.962455
2981.000000	95.921256
2980.000000	95.874941
2979.000000	95.824912
2978.000000	95.773876
2977.000000	95.723711
2976.000000	95.674095
2975.000000	95.623286
2974.000000	95.569954
2973.000000	95.513976
2972.000000	95.455373
2971.000000	95.393091
2970.000000	95.325881
2969.000000	95.254463
2968.000000	95.181850
2967.000000	95.110875
2966.000000	95.042257
2965.000000	94.976086
2964.000000	94.914428
2963.000000	94.861004
2962.000000	94.818063
2961.000000	94.784697
2960.000000	94.758483
2959.000000	94.738101
2958.000000	94.724425
2957.000000	94.719817
2956.000000	94.726644
2955.000000	94.745205
2954.000000	94.772489
2953.000000	94.803494
2952.000000	94.834145
2951.000000	94.862646
2950.000000	94.887521
2949.000000	94.905448
2948.000000	94.912012
2947.000000	94.904712
2946.000000	94.884566
2945.000000	94.854482
2944.000000	94.816537
2943.000000	94.770800
2942.000000	94.716614
2941.000000	94.654376
2940.000000	94.585993
2939.000000	94.513801
2938.000000	94.439445
2937.000000	94.364000
2936.000000	94.288539
2935.000000	94.214458
2934.000000	94.143594
2933.000000	94.078534
2932.000000	94.022271
2931.000000	93.976482
2930.000000	93.939918
2929.000000	93.908904
2928.000000	93.880105
2927.000000	93.853134
2926.000000	93.830761
2925.000000	93.816813
2924.000000	93.813499
2923.000000	93.820499
2922.000000	93.836363
2921.000000	93.860587
2920.000000	93.893928
2919.000000	93.936854
2918.000000	93.989017
2917.000000	94.050755
2916.000000	94.123991
2915.000000	94.209989
2914.000000	94.305988
2913.000000	94.405270
2912.000000	94.501082
2911.000000	94.590300
2910.000000	94.673344
2909.000000	94.751640
2908.000000	94.825885
2907.000000	94.896002
2906.000000	94.961820
2905.000000	95.023680
2904.000000	95.082863
2903.000000	95.141447
2902.000000	95.201254
2901.000000	95.262705
2900.000000	95.324635
2899.000000	95.384972
2898.000000	95.441647
2897.000000	95.493399
2896.000000	95.540306
2895.000000	95.583577
2894.000000	95.624539
2893.000000	95.663684
2892.000000	95.700717
2891.000000	95.735373
2890.000000	95.767776
2889.000000	95.797722
2888.000000	95.823730
2887.000000	95.843230
2886.000000	95.854215
2885.000000	95.856791
2884.000000	95.853031
2883.000000	95.845270
2882.000000	95.834603
2881.000000	95.820711
2880.000000	95.802511
2879.000000	95.778968
2878.000000	95.749892
2877.000000	95.716601
2876.000000	95.681707
2875.000000	95.648304
2874.000000	95.619638
2873.000000	95.598944
2872.000000	95.588419
2871.000000	95.587744
2870.000000	95.594105
2869.000000	95.603851
2868.000000	95.613450
2867.000000	95.618961
2866.000000	95.616328
2865.000000	95.603680
2864.000000	95.582685
2863.000000	95.556641
2862.000000	95.527710
2861.000000	95.496850
2860.000000	95.465498
2859.000000	95.435565
2858.000000	95.407942
2857.000000	95.382652
2856.000000	95.360681
2855.000000	95.344422
2854.000000	95.336468
2853.000000	95.339081
2852.000000	95.355150
2851.000000	95.388518
2850.000000	95.442415
2849.000000	95.517630
2848.000000	95.611644
2847.000000	95.718455
2846.000000	95.829531
2845.000000	95.936871
2844.000000	96.036165
2843.000000	96.126940
2842.000000	96.209603
2841.000000	96.283154
2840.000000	96.346346
2839.000000	96.399735
2838.000000	96.445603
2837.000000	96.486223
2836.000000	96.522572
2835.000000	96.554298
2834.000000	96.580424
2833.000000	96.600521
2832.000000	96.615834
2831.000000	96.629219
2830.000000	96.643572
2829.000000	96.660309
2828.000000	96.679018
2827.000000	96.698070
2826.000000	96.715667
2825.000000	96.730888
2824.000000	96.744000
2823.000000	96.755611
2822.000000	96.765858
2821.000000	96.774985
2820.000000	96.784177
2819.000000	96.794720
2818.000000	96.806394
2817.000000	96.817750
2816.000000	96.828043
2815.000000	96.837855
2814.000000	96.847706
2813.000000	96.857260
2812.000000	96.866283
2811.000000	96.875257
2810.000000	96.884575
2809.000000	96.894164
2808.000000	96.904470
2807.000000	96.916598
2806.000000	96.930423
2805.000000	96.943451
2804.000000	96.952716
2803.000000	96.957591
2802.000000	96.960032
2801.000000	96.962587
2800.000000	96.966886
2799.000000	96.973431
2798.000000	96.981679
2797.000000	96.990246
2796.000000	96.997776
2795.000000	97.003812
2794.000000	97.008670
2793.000000	97.012840
2792.000000	97.016909
2791.000000	97.021559
2790.000000	97.027048
2789.000000	97.033062
2788.000000	97.039756
2787.000000	97.048434
2786.000000	97.060142
2785.000000	97.073549
2784.000000	97.085211
2783.000000	97.092425
2782.000000	97.095488
2781.000000	97.097030
2780.000000	97.099551
2779.000000	97.103855
2778.000000	97.109294
2777.000000	97.114800
2776.000000	97.119597
2775.000000	97.123410
2774.000000	97.126486
2773.000000	97.129573
2772.000000	97.133647
2771.000000	97.139363
2770.000000	97.146635
2769.000000	97.154712
2768.000000	97.162634
2767.000000	97.169764
2766.000000	97.176132
2765.000000	97.182215
2764.000000	97.188101
2763.000000	97.192878
2762.000000	97.195378
2761.000000	97.195734
2760.000000	97.195690
2759.000000	97.196988
2758.000000	97.199929
2757.000000	97.203848
2756.000000	97.208407
2755.000000	97.213726
2754.000000	97.219642
2753.000000	97.225577
2752.000000	97.230997
2751.000000	97.235460
2750.000000	97.238537
2749.000000	97.240263
2748.000000	97.241418
2747.000000	97.242774
2746.000000	97.244522
2745.000000	97.247065
2744.000000	97.251649
2743.000000	97.258989
2742.000000	97.267602
2741.000000	97.274758
2740.000000	97.279147
2739.000000	97.281548
2738.000000	97.283043
2737.000000	97.283982
2736.000000	97.284915
2735.000000	97.287063
2734.000000	97.290998
2733.000000	97.295751
2732.000000	97.299983
2731.000000	97.303495
2730.000000	97.307187
2729.000000	97.312118
2728.000000	97.318853
2727.000000	97.327009
2726.000000	97.335096
2725.000000	97.341551
2724.000000	97.346277
2723.000000	97.350367
2722.000000	97.354017
2721.000000	97.355887
2720.000000	97.355389
2719.000000	97.354635
2718.000000	97.356769
2717.000000	97.362597
2716.000000	97.369762
2715.000000	97.375187
2714.000000	97.377642
2713.000000	97.378106
2712.000000	97.378574
2711.000000	97.380763
2710.000000	97.385230
2709.000000	97.390960
2708.000000	97.395869
2707.000000	97.398319
2706.000000	97.398641
2705.000000	97.399078
2704.000000	97.401643
2703.000000	97.405868
2702.000000	97.409233
2701.000000	97.410196
2700.000000	97.410175
2699.000000	97.411775
2698.000000	97.415552
2697.000000	97.419580
2696.000000	97.422119
2695.000000	97.423622
2694.000000	97.425799
2693.000000	97.429514
2692.000000	97.433911
2691.000000	97.436966
2690.000000	97.436781
2689.000000	97.433175
2688.000000	97.428504
2687.000000	97.426260
2686.000000	97.428153
2685.000000	97.432640
2684.000000	97.436532
2683.000000	97.437843
2682.000000	97.437120
2681.000000	97.436545
2680.000000	97.438027
2679.000000	97.441735
2678.000000	97.446113
2677.000000	97.449327
2676.000000	97.450722
2675.000000	97.450861
2674.000000	97.450551
2673.000000	97.450355
2672.000000	97.450761
2671.000000	97.452004
2670.000000	97.453658
2669.000000	97.455027
2668.000000	97.456067
2667.000000	97.457357
2666.000000	97.459075
2665.000000	97.460556
2664.000000	97.461003
2663.000000	97.460150
2662.000000	97.458226
2661.000000	97.455840
2660.000000	97.453938
2659.000000	97.453178
2658.000000	97.453117
2657.000000	97.452629
2656.000000	97.451538
2655.000000	97.451466
2654.000000	97.454714
2653.000000	97.462349
2652.000000	97.473192
2651.000000	97.484408
2650.000000	97.493336
2649.000000	97.499416
2648.000000	97.504474
2647.000000	97.510729
2646.000000	97.518469
2645.000000	97.525955
2644.000000	97.531280
2643.000000	97.533892
2642.000000	97.534749
2641.000000	97.535786
2640.000000	97.539041
2639.000000	97.545535
2638.000000	97.554825
2637.000000	97.565724
2636.000000	97.576801
2635.000000	97.585908
2634.000000	97.590669
2633.000000	97.590895
2632.000000	97.589753
2631.000000	97.590958
2630.000000	97.595255
2629.000000	97.601083
2628.000000	97.607776
2627.000000	97.615969
2626.000000	97.625263
2625.000000	97.633895
2624.000000	97.640975
2623.000000	97.646886
2622.000000	97.651219
2621.000000	97.652673
2620.000000	97.651730
2619.000000	97.651264
2618.000000	97.653418
2617.000000	97.657485
2616.000000	97.661622
2615.000000	97.664888
2614.000000	97.667065
2613.000000	97.668653
2612.000000	97.671890
2611.000000	97.679261
2610.000000	97.689403
2609.000000	97.696790
2608.000000	97.697627
2607.000000	97.694622
2606.000000	97.693767
2605.000000	97.697738
2604.000000	97.704595
2603.000000	97.711669
2602.000000	97.717941
2601.000000	97.722771
2600.000000	97.725176
2599.000000	97.725495
2598.000000	97.726258
2597.000000	97.730050
2596.000000	97.736803
2595.000000	97.743858
2594.000000	97.748649
2593.000000	97.751070
2592.000000	97.753156
2591.000000	97.756664
2590.000000	97.761367
2589.000000	97.765688
2588.000000	97.768259
2587.000000	97.768447
2586.000000	97.766365
2585.000000	97.763299
2584.000000	97.761235
2583.000000	97.760654
2582.000000	97.759646
2581.000000	97.756945
2580.000000	97.755135
2579.000000	97.758505
2578.000000	97.767453
2577.000000	97.777139
2576.000000	97.782329
2575.000000	97.782415
2574.000000	97.781343
2573.000000	97.783744
2572.000000	97.791183
2571.000000	97.800927
2570.000000	97.808641
2569.000000	97.813484
2568.000000	97.819606
2567.000000	97.830482
2566.000000	97.842774
2565.000000	97.848957
2564.000000	97.846335
2563.000000	97.840316
2562.000000	97.837751
2561.000000	97.839829
2560.000000	97.842739
2559.000000	97.843106
2558.000000	97.841055
2557.000000	97.839404
2556.000000	97.841160
2555.000000	97.846763
2554.000000	97.853261
2553.000000	97.857324
2552.000000	97.859029
2551.000000	97.860952
2550.000000	97.863765
2549.000000	97.865197
2548.000000	97.863545
2547.000000	97.859402
2546.000000	97.853510
2545.000000	97.846093
2544.000000	97.839426
2543.000000	97.837642
2542.000000	97.841688
2541.000000	97.846765
2540.000000	97.847212
2539.000000	97.842599
2538.000000	97.837345
2537.000000	97.835997
2536.000000	97.840422
2535.000000	97.849713
2534.000000	97.860462
2533.000000	97.867979
2532.000000	97.869308
2531.000000	97.865189
2530.000000	97.858556
2529.000000	97.852094
2528.000000	97.847507
2527.000000	97.845160
2526.000000	97.843086
2525.000000	97.837941
2524.000000	97.828511
2523.000000	97.817561
2522.000000	97.809308
2521.000000	97.806127
2520.000000	97.808245
2519.000000	97.814849
2518.000000	97.823900
2517.000000	97.832174
2516.000000	97.837372
2515.000000	97.839846
2514.000000	97.841413
2513.000000	97.843123
2512.000000	97.844983
2511.000000	97.847112
2510.000000	97.850125
2509.000000	97.854628
2508.000000	97.860609
2507.000000	97.866950
2506.000000	97.871865
2505.000000	97.874892
2504.000000	97.878412
2503.000000	97.885850
2502.000000	97.898232
2501.000000	97.913592
2500.000000	97.929154
2499.000000	97.942368
2498.000000	97.950404
2497.000000	97.951492
2496.000000	97.947504
2495.000000	97.942935
2494.000000	97.940327
2493.000000	97.938528
2492.000000	97.936136
2491.000000	97.934384
2490.000000	97.935460
2489.000000	97.939939
2488.000000	97.947261
2487.000000	97.957131
2486.000000	97.968887
2485.000000	97.980447
2484.000000	97.989059
2483.000000	97.992703
2482.000000	97.990855
2481.000000	97.985294
2480.000000	97.980191
2479.000000	97.979136
2478.000000	97.981228
2477.000000	97.981973
2476.000000	97.978677
2475.000000	97.973306
2474.000000	97.969348
2473.000000	97.968191
2472.000000	97.969920
2471.000000	97.975485
2470.000000	97.985736
2469.000000	97.998976
2468.000000	98.011053
2467.000000	98.017855
2466.000000	98.017638
2465.000000	98.012210
2464.000000	98.006324
2463.000000	98.004512
2462.000000	98.007540
2461.000000	98.012651
2460.000000	98.017365
2459.000000	98.021430
2458.000000	98.024657
2457.000000	98.025068
2456.000000	98.020822
2455.000000	98.013171
2454.000000	98.006465
2453.000000	98.005564
2452.000000	98.012809
2451.000000	98.025839
2450.000000	98.038030
2449.000000	98.042931
2448.000000	98.039577
2447.000000	98.032914
2446.000000	98.028869
2445.000000	98.030015
2444.000000	98.035323
2443.000000	98.041476
2442.000000	98.044150
2441.000000	98.040709
2440.000000	98.033101
2439.000000	98.026390
2438.000000	98.023614
2437.000000	98.023878
2436.000000	98.026003
2435.000000	98.030944
2434.000000	98.038531
2433.000000	98.044503
2432.000000	98.044357
2431.000000	98.039692
2430.000000	98.037545
2429.000000	98.042528
2428.000000	98.051529
2427.000000	98.057571
2426.000000	98.058101
2425.000000	98.057529
2424.000000	98.060971
2423.000000	98.067038
2422.000000	98.069101
2421.000000	98.063901
2420.000000	98.056216
2419.000000	98.053208
2418.000000	98.056037
2417.000000	98.059601
2416.000000	98.059598
2415.000000	98.056906
2414.000000	98.055178
2413.000000	98.056879
2412.000000	98.062202
2411.000000	98.069601
2410.000000	98.076372
2409.000000	98.080230
2408.000000	98.081134
2407.000000	98.080672
2406.000000	98.079654
2405.000000	98.077606
2404.000000	98.074457
2403.000000	98.071206
2402.000000	98.068996
2401.000000	98.068946
2400.000000	98.072475
2399.000000	98.079797
2398.000000	98.088115
2397.000000	98.093269
2396.000000	98.093630
2395.000000	98.091158
2394.000000	98.088753
2393.000000	98.088042
2392.000000	98.089348
2391.000000	98.091856
2390.000000	98.093807
2389.000000	98.094420
2388.000000	98.095658
2387.000000	98.099991
2386.000000	98.106743
2385.000000	98.112718
2384.000000	98.116784
2383.000000	98.121729
2382.000000	98.130315
2381.000000	98.141616
2380.000000	98.151696
2379.000000	98.156626
2378.000000	98.154628
2377.000000	98.146936
2376.000000	98.137529
2375.000000	98.130334
2374.000000	98.126105
2373.000000	98.123234
2372.000000	98.121735
2371.000000	98.123933
2370.000000	98.130456
2369.000000	98.137602
2368.000000	98.139415
2367.000000	98.133182
2366.000000	98.122901
2365.000000	98.116533
2364.000000	98.118053
2363.000000	98.122569
2362.000000	98.121764
2361.000000	98.114823
2360.000000	98.111049
2359.000000	98.117144
2358.000000	98.128915
2357.000000	98.137057
2356.000000	98.134126
2355.000000	98.121807
2354.000000	98.109608
2353.000000	98.105181
2352.000000	98.106353
2351.000000	98.106996
2350.000000	98.105314
2349.000000	98.101443
2348.000000	98.097330
2347.000000	98.095032
2346.000000	98.092745
2345.000000	98.086818
2344.000000	98.080923
2343.000000	98.084850
2342.000000	98.096533
2341.000000	98.105408
2340.000000	98.105443
2339.000000	98.098095
2338.000000	98.086740
2337.000000	98.073559
2336.000000	98.061861
2335.000000	98.055759
2334.000000	98.057234
2333.000000	98.062058
2332.000000	98.063776
2331.000000	98.060059
2330.000000	98.056699
2329.000000	98.055311
2328.000000	98.049628
2327.000000	98.028866
2326.000000	97.992484
2325.000000	97.953755
2324.000000	97.931137
2323.000000	97.933918
2322.000000	97.954000
2321.000000	97.975896
2320.000000	97.991785
2319.000000	98.003910
2318.000000	98.016170
2317.000000	98.027453
2316.000000	98.036822
2315.000000	98.044338
2314.000000	98.050878
2313.000000	98.056406
2312.000000	98.064464
2311.000000	98.078623
2310.000000	98.097460
2309.000000	98.112595
2308.000000	98.118591
2307.000000	98.117269
2306.000000	98.113436
2305.000000	98.107974
2304.000000	98.100222
2303.000000	98.091801
2302.000000	98.085993
2301.000000	98.083195
2300.000000	98.081776
2299.000000	98.079442
2298.000000	98.074734
2297.000000	98.067035
2296.000000	98.059457
2295.000000	98.057085
2294.000000	98.062151
2293.000000	98.070743
2292.000000	98.077613
2291.000000	98.081636
2290.000000	98.084855
2289.000000	98.087426
2288.000000	98.086261
2287.000000	98.078764
2286.000000	98.065888
2285.000000	98.052164
2284.000000	98.043160
2283.000000	98.042774
2282.000000	98.051513
2281.000000	98.066760
2280.000000	98.082956
2279.000000	98.092112
2278.000000	98.088103
2277.000000	98.074379
2276.000000	98.064378
2275.000000	98.068614
2274.000000	98.083130
2273.000000	98.095876
2272.000000	98.103791
2271.000000	98.116195
2270.000000	98.140374
2269.000000	98.170579
2268.000000	98.194358
2267.000000	98.204690
2266.000000	98.202606
2265.000000	98.192277
2264.000000	98.178036
2263.000000	98.164242
2262.000000	98.154923
2261.000000	98.152267
2260.000000	98.154002
2259.000000	98.152801
2258.000000	98.142628
2257.000000	98.129213
2256.000000	98.128651
2255.000000	98.149061
2254.000000	98.177719
2253.000000	98.194613
2252.000000	98.195740
2251.000000	98.193166
2250.000000	98.195416
2249.000000	98.199324
2248.000000	98.200693
2247.000000	98.200368
2246.000000	98.197875
2245.000000	98.190713
2244.000000	98.183799
2243.000000	98.188878
2242.000000	98.208786
2241.000000	98.230541
2240.000000	98.239238
2239.000000	98.232591
2238.000000	98.218233
2237.000000	98.204920
2236.000000	98.200358
2235.000000	98.209492
2234.000000	98.228972
2233.000000	98.248633
2232.000000	98.262406
2231.000000	98.272341
2230.000000	98.279240
2229.000000	98.277084
2228.000000	98.261562
2227.000000	98.237988
2226.000000	98.216745
2225.000000	98.205469
2224.000000	98.207233
2223.000000	98.220058
2222.000000	98.236157
2221.000000	98.247256
2220.000000	98.252419
2219.000000	98.255358
2218.000000	98.255366
2217.000000	98.249674
2216.000000	98.243934
2215.000000	98.248922
2214.000000	98.264716
2213.000000	98.279066
2212.000000	98.284742
2211.000000	98.288300
2210.000000	98.296793
2209.000000	98.305988
2208.000000	98.308175
2207.000000	98.303996
2206.000000	98.299909
2205.000000	98.298508
2204.000000	98.296214
2203.000000	98.288053
2202.000000	98.273778
2201.000000	98.261665
2200.000000	98.263214
2199.000000	98.279135
2198.000000	98.295764
2197.000000	98.303072
2196.000000	98.310374
2195.000000	98.332173
2194.000000	98.363834
2193.000000	98.386007
2192.000000	98.390923
2191.000000	98.388208
2190.000000	98.385261
2189.000000	98.379918
2188.000000	98.373159
2187.000000	98.371309
2186.000000	98.372957
2185.000000	98.371472
2184.000000	98.374549
2183.000000	98.402045
2182.000000	98.455070
2181.000000	98.502820
2180.000000	98.511080
2179.000000	98.474491
2178.000000	98.416314
2177.000000	98.369861
2176.000000	98.360899
2175.000000	98.390905
2174.000000	98.432350
2173.000000	98.451902
2172.000000	98.440953
2171.000000	98.415319
2170.000000	98.391544
2169.000000	98.377679
2168.000000	98.379523
2167.000000	98.395709
2166.000000	98.409088
2165.000000	98.403700
2164.000000	98.390414
2163.000000	98.393626
2162.000000	98.414493
2161.000000	98.435490
2160.000000	98.460077
2159.000000	98.511641
2158.000000	98.581466
2157.000000	98.624048
2156.000000	98.620338
2155.000000	98.598775
2154.000000	98.588256
2153.000000	98.587912
2152.000000	98.584872
2151.000000	98.574249
2150.000000	98.557404
2149.000000	98.539393
2148.000000	98.531071
2147.000000	98.536636
2146.000000	98.538873
2145.000000	98.514310
2144.000000	98.463624
2143.000000	98.409368
2142.000000	98.366135
2141.000000	98.333083
2140.000000	98.313338
2139.000000	98.318500
2138.000000	98.349184
2137.000000	98.388785
2136.000000	98.422037
2135.000000	98.446406
2134.000000	98.461261
2133.000000	98.461854
2132.000000	98.449334
2131.000000	98.433296
2130.000000	98.419842
2129.000000	98.407181
2128.000000	98.394474
2127.000000	98.384963
2126.000000	98.378625
2125.000000	98.370385
2124.000000	98.357351
2123.000000	98.340452
2122.000000	98.319614
2121.000000	98.295530
2120.000000	98.274968
2119.000000	98.264493
2118.000000	98.259718
2117.000000	98.250652
2116.000000	98.236946
2115.000000	98.226754
2114.000000	98.221032
2113.000000	98.212010
2112.000000	98.198739
2111.000000	98.190499
2110.000000	98.190361
2109.000000	98.188670
2108.000000	98.179016
2107.000000	98.170159
2106.000000	98.174761
2105.000000	98.194529
2104.000000	98.221965
2103.000000	98.248779
2102.000000	98.267974
2101.000000	98.275067
2100.000000	98.272382
2099.000000	98.266930
2098.000000	98.263377
2097.000000	98.265258
2096.000000	98.279434
2095.000000	98.306686
2094.000000	98.330065
2093.000000	98.328408
2092.000000	98.303466
2091.000000	98.278434
2090.000000	98.267887
2089.000000	98.263675
2088.000000	98.253994
2087.000000	98.241997
2086.000000	98.237475
2085.000000	98.242839
2084.000000	98.255482
2083.000000	98.274396
2082.000000	98.296394
2081.000000	98.313238
2080.000000	98.319025
2079.000000	98.314203
2078.000000	98.299452
2077.000000	98.275264
2076.000000	98.250369
2075.000000	98.238983
2074.000000	98.245244
2073.000000	98.260138
2072.000000	98.276799
2071.000000	98.296321
2070.000000	98.315349
2069.000000	98.323332
2068.000000	98.319721
2067.000000	98.320054
2066.000000	98.336647
2065.000000	98.363437
2064.000000	98.386087
2063.000000	98.397151
2062.000000	98.396030
2061.000000	98.386759
2060.000000	98.380442
2059.000000	98.386495
2058.000000	98.398771
2057.000000	98.404637
2056.000000	98.407773
2055.000000	98.422711
2054.000000	98.444050
2053.000000	98.445594
2052.000000	98.419586
2051.000000	98.393269
2050.000000	98.394739
2049.000000	98.420192
2048.000000	98.448202
2047.000000	98.468890
2046.000000	98.478722
2045.000000	98.465728
2044.000000	98.426284
2043.000000	98.382450
2042.000000	98.362102
2041.000000	98.372212
2040.000000	98.403402
2039.000000	98.447022
2038.000000	98.494970
2037.000000	98.538780
2036.000000	98.581645
2035.000000	98.632996
2034.000000	98.679764
2033.000000	98.689078
2032.000000	98.655091
2031.000000	98.612303
2030.000000	98.584852
2029.000000	98.556657
2028.000000	98.510783
2027.000000	98.469233
2026.000000	98.469675
2025.000000	98.520288
2024.000000	98.594131
2023.000000	98.653331
2022.000000	98.668897
2021.000000	98.638493
2020.000000	98.597053
2019.000000	98.587050
2018.000000	98.609672
2017.000000	98.625696
2016.000000	98.611044
2015.000000	98.582379
2014.000000	98.559670
2013.000000	98.542538
2012.000000	98.533921
2011.000000	98.551957
2010.000000	98.600996
2009.000000	98.655732
2008.000000	98.689407
2007.000000	98.696990
2006.000000	98.680002
2005.000000	98.638599
2004.000000	98.591296
2003.000000	98.570158
2002.000000	98.583379
2001.000000	98.604599
2000.000000	98.606322
1999.000000	98.585464
1998.000000	98.550468
1997.000000	98.509851
1996.000000	98.481853
1995.000000	98.487513
1994.000000	98.520229
1993.000000	98.542522
1992.000000	98.530654
1991.000000	98.505704
1990.000000	98.497983
1989.000000	98.505067
1988.000000	98.506523
1987.000000	98.497402
1986.000000	98.487417
1985.000000	98.481612
1984.000000	98.477816
1983.000000	98.472323
1982.000000	98.458570
1981.000000	98.435866
1980.000000	98.428088
1979.000000	98.473363
1978.000000	98.576406
1977.000000	98.686065
1976.000000	98.743653
1975.000000	98.738114
1974.000000	98.694892
1973.000000	98.642835
1972.000000	98.607925
1971.000000	98.607905
1970.000000	98.635562
1969.000000	98.663192
1968.000000	98.672005
1967.000000	98.664710
1966.000000	98.648637
1965.000000	98.629330
1964.000000	98.621688
1963.000000	98.641028
1962.000000	98.679227
1961.000000	98.710584
1960.000000	98.724915
1959.000000	98.732298
1958.000000	98.734154
1957.000000	98.718859
1956.000000	98.688113
1955.000000	98.659380
1954.000000	98.638374
1953.000000	98.613583
1952.000000	98.583418
1951.000000	98.564674
1950.000000	98.567803
1949.000000	98.584311
1948.000000	98.603768
1947.000000	98.623818
1946.000000	98.638057
1945.000000	98.634259
1944.000000	98.611977
1943.000000	98.585934
1942.000000	98.566495
1941.000000	98.554075
1940.000000	98.554120
1939.000000	98.572985
1938.000000	98.597443
1937.000000	98.600350
1936.000000	98.574677
1935.000000	98.543681
1934.000000	98.529595
1933.000000	98.531040
1932.000000	98.537740
1931.000000	98.546234
1930.000000	98.552573
1929.000000	98.548091
1928.000000	98.533412
1927.000000	98.523044
1926.000000	98.525224
1925.000000	98.532005
1924.000000	98.535139
1923.000000	98.538767
1922.000000	98.548276
1921.000000	98.559129
1920.000000	98.564062
1919.000000	98.561680
1918.000000	98.553214
1917.000000	98.540993
1916.000000	98.533121
1915.000000	98.536571
1914.000000	98.544875
1913.000000	98.544477
1912.000000	98.534649
1911.000000	98.528992
1910.000000	98.534179
1909.000000	98.540524
1908.000000	98.539858
1907.000000	98.538513
1906.000000	98.542937
1905.000000	98.549817
1904.000000	98.555429
1903.000000	98.561029
1902.000000	98.564743
1901.000000	98.561465
1900.000000	98.555658
1899.000000	98.560855
1898.000000	98.579235
1897.000000	98.595741
1896.000000	98.598805
1895.000000	98.595035
1894.000000	98.594743
1893.000000	98.595728
1892.000000	98.590562
1891.000000	98.579479
1890.000000	98.568602
1889.000000	98.562078
1888.000000	98.562641
1887.000000	98.572434
1886.000000	98.586861
1885.000000	98.596034
1884.000000	98.596838
1883.000000	98.595509
1882.000000	98.595980
1881.000000	98.595791
1880.000000	98.595982
1879.000000	98.603546
1878.000000	98.618784
1877.000000	98.630849
1876.000000	98.632558
1875.000000	98.629776
1874.000000	98.631013
1873.000000	98.637895
1872.000000	98.648932
1871.000000	98.662350
1870.000000	98.671982
1869.000000	98.669385
1868.000000	98.655416
1867.000000	98.640416
1866.000000	98.626755
1865.000000	98.608337
1864.000000	98.587498
1863.000000	98.576806
1862.000000	98.581851
1861.000000	98.593805
1860.000000	98.603758
1859.000000	98.613210
1858.000000	98.624423
1857.000000	98.632589
1856.000000	98.634960
1855.000000	98.635723
1854.000000	98.635915
1853.000000	98.630654
1852.000000	98.619974
1851.000000	98.614429
1850.000000	98.622537
1849.000000	98.641485
1848.000000	98.663978
1847.000000	98.685703
1846.000000	98.699303
1845.000000	98.694066
1844.000000	98.672468
1843.000000	98.653180
1842.000000	98.647119
1841.000000	98.648383
1840.000000	98.650189
1839.000000	98.652650
1838.000000	98.653332
1837.000000	98.645382
1836.000000	98.631024
1835.000000	98.624642
1834.000000	98.634530
1833.000000	98.651715
1832.000000	98.661738
1831.000000	98.663330
1830.000000	98.666138
1829.000000	98.670193
1828.000000	98.668330
1827.000000	98.660511
1826.000000	98.649606
1825.000000	98.635967
1824.000000	98.622072
1823.000000	98.615076
1822.000000	98.617690
1821.000000	98.624258
1820.000000	98.630240
1819.000000	98.638758
1818.000000	98.651632
1817.000000	98.663179
1816.000000	98.668956
1815.000000	98.672361
1814.000000	98.675992
1813.000000	98.673922
1812.000000	98.661517
1811.000000	98.644629
1810.000000	98.630597
1809.000000	98.618726
1808.000000	98.607213
1807.000000	98.599286
1806.000000	98.596108
1805.000000	98.592668
1804.000000	98.585779
1803.000000	98.578155
1802.000000	98.571640
1801.000000	98.560756
1800.000000	98.543066
1799.000000	98.526621
1798.000000	98.519599
1797.000000	98.521993
1796.000000	98.531006
1795.000000	98.544922
1794.000000	98.558426
1793.000000	98.564026
1792.000000	98.564076
1791.000000	98.569172
1790.000000	98.582134
1789.000000	98.594678
1788.000000	98.601384
1787.000000	98.607402
1786.000000	98.620373
1785.000000	98.638622
1784.000000	98.652743
1783.000000	98.656081
1782.000000	98.649213
1781.000000	98.635443
1780.000000	98.623346
1779.000000	98.624782
1778.000000	98.644233
1777.000000	98.675241
1776.000000	98.708370
1775.000000	98.737776
1774.000000	98.755542
1773.000000	98.750426
1772.000000	98.723183
1771.000000	98.689229
1770.000000	98.655711
1769.000000	98.618266
1768.000000	98.580833
1767.000000	98.558086
1766.000000	98.553803
1765.000000	98.550484
1764.000000	98.527135
1763.000000	98.476721
1762.000000	98.407729
1761.000000	98.329093
1760.000000	98.243642
1759.000000	98.147062
1758.000000	98.026199
1757.000000	97.869430
1756.000000	97.688915
1755.000000	97.513438
1754.000000	97.347291
1753.000000	97.163450
1752.000000	96.937064
1751.000000	96.679863
1750.000000	96.424592
1749.000000	96.183846
1748.000000	95.963165
1747.000000	95.781531
1746.000000	95.644685
1745.000000	95.536412
1744.000000	95.451619
1743.000000	95.404130
1742.000000	95.394010
1741.000000	95.400132
1740.000000	95.422354
1739.000000	95.485907
1738.000000	95.588801
1737.000000	95.701785
1736.000000	95.810343
1735.000000	95.936295
1734.000000	96.110649
1733.000000	96.296034
1732.000000	96.454601
1731.000000	96.607234
1730.000000	96.774628
1729.000000	96.950471
1728.000000	97.119806
1727.000000	97.279567
1726.000000	97.431350
1725.000000	97.570488
1724.000000	97.698798
1723.000000	97.826744
1722.000000	97.952476
1721.000000	98.057572
1720.000000	98.129370
1719.000000	98.179085
1718.000000	98.230497
1717.000000	98.275214
1716.000000	98.289185
1715.000000	98.281992
1714.000000	98.266642
1713.000000	98.242190
1712.000000	98.211985
1711.000000	98.187190
1710.000000	98.172071
1709.000000	98.154732
1708.000000	98.116464
1707.000000	98.048442
1706.000000	97.957345
1705.000000	97.863103
1704.000000	97.789201
1703.000000	97.742112
1702.000000	97.685105
1701.000000	97.551464
1700.000000	97.351931
1699.000000	97.179678
1698.000000	97.044579
1697.000000	96.883395
1696.000000	96.677019
1695.000000	96.485882
1694.000000	96.353392
1693.000000	96.246760
1692.000000	96.130042
1691.000000	95.999437
1690.000000	95.865216
1689.000000	95.736665
1688.000000	95.621829
1687.000000	95.526431
1686.000000	95.422548
1685.000000	95.252641
1684.000000	95.023858
1683.000000	94.820446
1682.000000	94.662548
1681.000000	94.513490
1680.000000	94.365539
1679.000000	94.234139
1678.000000	94.116664
1677.000000	93.979539
1676.000000	93.796098
1675.000000	93.593050
1674.000000	93.419312
1673.000000	93.273239
1672.000000	93.121737
1671.000000	92.941275
1670.000000	92.726773
1669.000000	92.491844
1668.000000	92.268064
1667.000000	92.082943
1666.000000	91.930004
1665.000000	91.774277
1664.000000	91.585797
1663.000000	91.371397
1662.000000	91.163680
1661.000000	90.974084
1660.000000	90.797753
1659.000000	90.641538
1658.000000	90.513491
1657.000000	90.402276
1656.000000	90.287161
1655.000000	90.141237
1654.000000	89.943847
1653.000000	89.748665
1652.000000	89.623264
1651.000000	89.556767
1650.000000	89.502567
1649.000000	89.423952
1648.000000	89.313075
1647.000000	89.205409
1646.000000	89.136057
1645.000000	89.088424
1644.000000	89.041427
1643.000000	88.998899
1642.000000	88.971942
1641.000000	88.962011
1640.000000	88.959274
1639.000000	88.956694
1638.000000	88.952482
1637.000000	88.944908
1636.000000	88.938905
1635.000000	88.936830
1634.000000	88.926130
1633.000000	88.904661
1632.000000	88.885612
1631.000000	88.884903
1630.000000	88.910796
1629.000000	88.962013
1628.000000	89.034393
1627.000000	89.120598
1626.000000	89.212189
1625.000000	89.308090
1624.000000	89.423664
1623.000000	89.574807
1622.000000	89.740315
1621.000000	89.882879
1620.000000	89.996577
1619.000000	90.104214
1618.000000	90.242195
1617.000000	90.442802
1616.000000	90.681013
1615.000000	90.887390
1614.000000	91.040317
1613.000000	91.169088
1612.000000	91.307119
1611.000000	91.466420
1610.000000	91.636510
1609.000000	91.804645
1608.000000	91.968258
1607.000000	92.124714
1606.000000	92.268028
1605.000000	92.398993
1604.000000	92.524897
1603.000000	92.647019
1602.000000	92.758067
1601.000000	92.855838
1600.000000	92.946679
1599.000000	93.032731
1598.000000	93.108350
1597.000000	93.172020
1596.000000	93.230648
1595.000000	93.287002
1594.000000	93.334788
1593.000000	93.371204
1592.000000	93.402640
1591.000000	93.432797
1590.000000	93.456415
1589.000000	93.469162
1588.000000	93.473351
1587.000000	93.470163
1586.000000	93.457133
1585.000000	93.437535
1584.000000	93.417537
1583.000000	93.396331
1582.000000	93.368906
1581.000000	93.337411
1580.000000	93.306665
1579.000000	93.271727
1578.000000	93.217753
1577.000000	93.138544
1576.000000	93.056918
1575.000000	92.994725
1574.000000	92.943884
1573.000000	92.892686
1572.000000	92.836333
1571.000000	92.761777
1570.000000	92.657441
1569.000000	92.539002
1568.000000	92.431640
1567.000000	92.334969
1566.000000	92.230854
1565.000000	92.116668
1564.000000	92.011485
1563.000000	91.932510
1562.000000	91.879921
1561.000000	91.824388
1560.000000	91.698883
1559.000000	91.509331
1558.000000	91.322006
1557.000000	91.154038
1556.000000	90.996715
1555.000000	90.845785
1554.000000	90.703512
1553.000000	90.571618
1552.000000	90.447648
1551.000000	90.331506
1550.000000	90.225249
1549.000000	90.129985
1548.000000	90.045206
1547.000000	89.969636
1546.000000	89.902191
1545.000000	89.846349
1544.000000	89.805838
1543.000000	89.774464
1542.000000	89.732126
1541.000000	89.673321
1540.000000	89.635199
1539.000000	89.632275
1538.000000	89.634646
1537.000000	89.627977
1536.000000	89.616068
1535.000000	89.608755
1534.000000	89.623008
1533.000000	89.659538
1532.000000	89.692216
1531.000000	89.712096
1530.000000	89.729267
1529.000000	89.748540
1528.000000	89.776769
1527.000000	89.827241
1526.000000	89.899493
1525.000000	89.966290
1524.000000	90.003611
1523.000000	90.020597
1522.000000	90.056663
1521.000000	90.127534
1520.000000	90.192577
1519.000000	90.226103
1518.000000	90.245351
1517.000000	90.279323
1516.000000	90.334857
1515.000000	90.393196
1514.000000	90.448210
1513.000000	90.511104
1512.000000	90.593365
1511.000000	90.693226
1510.000000	90.798390
1509.000000	90.900595
1508.000000	91.016767
1507.000000	91.185042
1506.000000	91.358520
1505.000000	91.463955
1504.000000	91.525409
1503.000000	91.585412
1502.000000	91.662797
1501.000000	91.757421
1500.000000	91.852746
1499.000000	91.937563
1498.000000	92.017610
1497.000000	92.104611
1496.000000	92.200952
1495.000000	92.300733
1494.000000	92.395957
1493.000000	92.478517
1492.000000	92.546984
1491.000000	92.612703
1490.000000	92.684613
1489.000000	92.743165
1488.000000	92.770091
1487.000000	92.778450
1486.000000	92.781182
1485.000000	92.774356
1484.000000	92.752926
1483.000000	92.722063
1482.000000	92.687588
1481.000000	92.646189
1480.000000	92.594017
1479.000000	92.533991
1478.000000	92.465686
1477.000000	92.382610
1476.000000	92.287304
1475.000000	92.187501
1474.000000	92.070132
1473.000000	91.906172
1472.000000	91.704478
1471.000000	91.514187
1470.000000	91.356225
1469.000000	91.217922
1468.000000	91.091250
1467.000000	90.974504
1466.000000	90.858753
1465.000000	90.733954
1464.000000	90.610781
1463.000000	90.512967
1462.000000	90.443871
1461.000000	90.385408
1460.000000	90.316423
1459.000000	90.218511
1458.000000	90.072848
1457.000000	89.887245
1456.000000	89.720974
1455.000000	89.612188
1454.000000	89.535980
1453.000000	89.466081
1452.000000	89.404711
1451.000000	89.360554
1450.000000	89.327067
1449.000000	89.290871
1448.000000	89.254659
1447.000000	89.229460
1446.000000	89.215042
1445.000000	89.202921
1444.000000	89.191112
1443.000000	89.184985
1442.000000	89.186513
1441.000000	89.191822
1440.000000	89.196699
1439.000000	89.198006
1438.000000	89.188774
1437.000000	89.169030
1436.000000	89.156205
1435.000000	89.162896
1434.000000	89.182989
1433.000000	89.207754
1432.000000	89.233584
1431.000000	89.255304
1430.000000	89.262843
1429.000000	89.250278
1428.000000	89.225021
1427.000000	89.197177
1426.000000	89.169728
1425.000000	89.145168
1424.000000	89.130771
1423.000000	89.127677
1422.000000	89.124572
1421.000000	89.108571
1420.000000	89.078145
1419.000000	89.049736
1418.000000	89.033930
1417.000000	89.024361
1416.000000	89.020123
1415.000000	89.025541
1414.000000	89.038079
1413.000000	89.052214
1412.000000	89.069252
1411.000000	89.094682
1410.000000	89.127170
1409.000000	89.160473
1408.000000	89.194097
1407.000000	89.231045
1406.000000	89.270868
1405.000000	89.311374
1404.000000	89.351943
1403.000000	89.391001
1402.000000	89.423963
1401.000000	89.448607
1400.000000	89.471380
1399.000000	89.500482
1398.000000	89.531723
1397.000000	89.556974
1396.000000	89.580747
1395.000000	89.613295
1394.000000	89.654827
1393.000000	89.699321
1392.000000	89.747257
1391.000000	89.800842
1390.000000	89.856820
1389.000000	89.913288
1388.000000	89.978275
1387.000000	90.058653
1386.000000	90.143564
1385.000000	90.218597
1384.000000	90.284714
1383.000000	90.350721
1382.000000	90.419626
1381.000000	90.490816
1380.000000	90.569258
1379.000000	90.661176
1378.000000	90.763279
1377.000000	90.867645
1376.000000	90.975106
1375.000000	91.093205
1374.000000	91.219097
1373.000000	91.336719
1372.000000	91.438016
1371.000000	91.528986
1370.000000	91.617353
1369.000000	91.707589
1368.000000	91.801098
1367.000000	91.895361
1366.000000	91.985391
1365.000000	92.069104
1364.000000	92.150348
1363.000000	92.233092
1362.000000	92.312169
1361.000000	92.378816
1360.000000	92.432448
1359.000000	92.477164
1358.000000	92.514748
1357.000000	92.546061
1356.000000	92.573634
1355.000000	92.599646
1354.000000	92.623025
1353.000000	92.640558
1352.000000	92.650906
1351.000000	92.654475
1350.000000	92.652132
1349.000000	92.644823
1348.000000	92.632409
1347.000000	92.613039
1346.000000	92.584922
1345.000000	92.549046
1344.000000	92.508170
1343.000000	92.462957
1342.000000	92.411812
1341.000000	92.355996
1340.000000	92.302437
1339.000000	92.258444
1338.000000	92.225789
1337.000000	92.202898
1336.000000	92.189830
1335.000000	92.188620
1334.000000	92.201275
1333.000000	92.229134
1332.000000	92.271676
1331.000000	92.324472
1330.000000	92.380747
1329.000000	92.436598
1328.000000	92.493028
1327.000000	92.550736
1326.000000	92.606127
1325.000000	92.654083
1324.000000	92.692532
1323.000000	92.723268
1322.000000	92.749788
1321.000000	92.775452
1320.000000	92.802243
1319.000000	92.830044
1318.000000	92.857488
1317.000000	92.884539
1316.000000	92.913774
1315.000000	92.948944
1314.000000	92.992391
1313.000000	93.042682
1312.000000	93.094439
1311.000000	93.142237
1310.000000	93.185786
1309.000000	93.229576
1308.000000	93.277080
1307.000000	93.326970
1306.000000	93.376416
1305.000000	93.425432
1304.000000	93.475164
1303.000000	93.524422
1302.000000	93.571412
1301.000000	93.617435
1300.000000	93.665235
1299.000000	93.714723
1298.000000	93.763145
1297.000000	93.808264
1296.000000	93.848013
1295.000000	93.878096
1294.000000	93.894522
1293.000000	93.898199
1292.000000	93.894022
1291.000000	93.885587
1290.000000	93.872749
1289.000000	93.854696
1288.000000	93.832775
1287.000000	93.809729
1286.000000	93.787788
1285.000000	93.767634
1284.000000	93.748794
1283.000000	93.731417
1282.000000	93.717895
1281.000000	93.711219
1280.000000	93.710081
1279.000000	93.707369
1278.000000	93.696079
1277.000000	93.676087
1276.000000	93.652489
1275.000000	93.627646
1274.000000	93.598206
1273.000000	93.559996
1272.000000	93.512603
1271.000000	93.458053
1270.000000	93.396758
1269.000000	93.327256
1268.000000	93.249041
1267.000000	93.163711
1266.000000	93.073699
1265.000000	92.980718
1264.000000	92.886000
1263.000000	92.791248
1262.000000	92.698537
1261.000000	92.609479
1260.000000	92.524187
1259.000000	92.440770
1258.000000	92.356823
1257.000000	92.272948
1256.000000	92.194129
1255.000000	92.126242
1254.000000	92.070950
1253.000000	92.024671
1252.000000	91.981826
1251.000000	91.937130
1250.000000	91.886216
1249.000000	91.827287
1248.000000	91.762473
1247.000000	91.695915
1246.000000	91.630421
1245.000000	91.567326
1244.000000	91.508621
1243.000000	91.456536
1242.000000	91.411626
1241.000000	91.373588
1240.000000	91.343773
1239.000000	91.324656
1238.000000	91.317166
1237.000000	91.321994
1236.000000	91.341781
1235.000000	91.378452
1234.000000	91.429445
1233.000000	91.489482
1232.000000	91.556682
1231.000000	91.633438
1230.000000	91.722679
1229.000000	91.827100
1228.000000	91.949468
1227.000000	92.089962
1226.000000	92.242879
1225.000000	92.399224
1224.000000	92.552826
1223.000000	92.701640
1222.000000	92.845058
1221.000000	92.982503
1220.000000	93.113399
1219.000000	93.235939
1218.000000	93.347075
1217.000000	93.444733
1216.000000	93.529149
1215.000000	93.601592
1214.000000	93.662375
1213.000000	93.711437
1212.000000	93.748470
1211.000000	93.771662
1210.000000	93.778704
1209.000000	93.769647
1208.000000	93.748831
1207.000000	93.722926
1206.000000	93.697451
1205.000000	93.675449
1204.000000	93.657836
1203.000000	93.644453
1202.000000	93.635572
1201.000000	93.633094
1200.000000	93.638953
1199.000000	93.652071
1198.000000	93.668664
1197.000000	93.686770
1196.000000	93.708605
1195.000000	93.736275
1194.000000	93.767142
1193.000000	93.795575
1192.000000	93.818320
1191.000000	93.836470
1190.000000	93.853123
1189.000000	93.870407
1188.000000	93.887530
1187.000000	93.899966
1186.000000	93.901363
1185.000000	93.888715
1184.000000	93.864897
1183.000000	93.835167
1182.000000	93.802119
1181.000000	93.764751
1180.000000	93.721837
1179.000000	93.673458
1178.000000	93.619605
1177.000000	93.560003
1176.000000	93.495819
1175.000000	93.430155
1174.000000	93.366036
1173.000000	93.305018
1172.000000	93.247755
1171.000000	93.194359
1170.000000	93.143961
1169.000000	93.095584
1168.000000	93.049812
1167.000000	93.008005
1166.000000	92.970759
1165.000000	92.938832
1164.000000	92.915249
1163.000000	92.904168
1162.000000	92.907156
1161.000000	92.923864
1160.000000	92.955201
1159.000000	93.002793
1158.000000	93.066097
1157.000000	93.142613
1156.000000	93.232064
1155.000000	93.336457
1154.000000	93.456003
1153.000000	93.588450
1152.000000	93.731235
1151.000000	93.881674
1150.000000	94.034807
1149.000000	94.184707
1148.000000	94.329163
1147.000000	94.470820
1146.000000	94.613203
1145.000000	94.756532
1144.000000	94.897203
1143.000000	95.029763
1142.000000	95.150242
1141.000000	95.258670
1140.000000	95.358427
1139.000000	95.452871
1138.000000	95.542062
1137.000000	95.623610
1136.000000	95.695425
1135.000000	95.756521
1134.000000	95.805879
1133.000000	95.841424
1132.000000	95.862306
1131.000000	95.871610
1130.000000	95.875066
1129.000000	95.876956
1128.000000	95.878009
1127.000000	95.878017
1126.000000	95.877814
1125.000000	95.876942
1124.000000	95.872037
1123.000000	95.860108
1122.000000	95.842775
1121.000000	95.824089
1120.000000	95.803882
1119.000000	95.776284
1118.000000	95.734991
1117.000000	95.678460
1116.000000	95.609393
1115.000000	95.531073
1114.000000	95.446004
1113.000000	95.357349
1112.000000	95.270980
1111.000000	95.195088
1110.000000	95.136709
1109.000000	95.097895
1108.000000	95.076061
1107.000000	95.067367
1106.000000	95.068367
1105.000000	95.075604
1104.000000	95.085187
1103.000000	95.093578
1102.000000	95.097435
1101.000000	95.092403
1100.000000	95.074239
1099.000000	95.042618
1098.000000	95.002241
1097.000000	94.958463
1096.000000	94.913326
1095.000000	94.867139
1094.000000	94.822196
1093.000000	94.782547
1092.000000	94.751318
1091.000000	94.730025
1090.000000	94.719281
1089.000000	94.717417
1088.000000	94.719363
1087.000000	94.720395
1086.000000	94.721255
1085.000000	94.727950
1084.000000	94.745448
1083.000000	94.773712
1082.000000	94.810824
1081.000000	94.856819
1080.000000	94.913085
1079.000000	94.979411
1078.000000	95.053658
1077.000000	95.133036
1076.000000	95.213451
1075.000000	95.289479
1074.000000	95.357494
1073.000000	95.417518
1072.000000	95.469591
1071.000000	95.510597
1070.000000	95.537503
1069.000000	95.552304
1068.000000	95.560637
1067.000000	95.566036
1066.000000	95.568774
1065.000000	95.569280
1064.000000	95.569507
1063.000000	95.570718
1062.000000	95.572306
1061.000000	95.573798
1060.000000	95.576577
1059.000000	95.583135
1058.000000	95.595459
1057.000000	95.614179
1056.000000	95.638058
1055.000000	95.664355
1054.000000	95.690777
1053.000000	95.716945
1052.000000	95.743104
1051.000000	95.767784
1050.000000	95.788251
1049.000000	95.803129
1048.000000	95.813740
1047.000000	95.822960
1046.000000	95.833024
1045.000000	95.843337
1044.000000	95.849762
1043.000000	95.847733
1042.000000	95.836581
1041.000000	95.819360
1040.000000	95.797490
1039.000000	95.767335
1038.000000	95.724003
1037.000000	95.666969
1036.000000	95.601374
1035.000000	95.535738
1034.000000	95.479088
1033.000000	95.436924
1032.000000	95.407302
1031.000000	95.383262
1030.000000	95.362265
1029.000000	95.352390
1028.000000	95.365026
1027.000000	95.401669
1026.000000	95.451356
1025.000000	95.501044
1024.000000	95.545410
1023.000000	95.586228
1022.000000	95.627038
1021.000000	95.670034
1020.000000	95.714476
1019.000000	95.756403
1018.000000	95.792531
1017.000000	95.825711
1016.000000	95.863517
1015.000000	95.910062
1014.000000	95.962085
1013.000000	96.014543
1012.000000	96.067211
1011.000000	96.123695
1010.000000	96.186255
1009.000000	96.253564
1008.000000	96.321664
1007.000000	96.385923
1006.000000	96.444088
1005.000000	96.498577
1004.000000	96.553791
1003.000000	96.610366
1002.000000	96.664494
1001.000000	96.713228
1000.000000	96.757636
999.000000	96.799341
998.000000	96.837118
997.000000	96.869148
996.000000	96.896097
995.000000	96.920172
994.000000	96.942973
993.000000	96.965991
992.000000	96.991154
991.000000	97.018426
990.000000	97.044495
989.000000	97.065980
988.000000	97.082752
987.000000	97.096452
986.000000	97.107246
985.000000	97.114133
984.000000	97.116703
983.000000	97.114042
982.000000	97.103780
981.000000	97.085381
980.000000	97.063809
979.000000	97.045969
978.000000	97.032837
977.000000	97.018394
976.000000	96.997224
975.000000	96.970860
974.000000	96.945691
973.000000	96.927568
972.000000	96.919812
971.000000	96.923579
970.000000	96.937220
969.000000	96.956517
968.000000	96.977742
967.000000	96.999772
966.000000	97.023180
965.000000	97.048891
964.000000	97.078302
963.000000	97.112475
962.000000	97.149719
961.000000	97.186417
960.000000	97.221752
959.000000	97.259034
958.000000	97.300651
957.000000	97.344291
956.000000	97.386984
955.000000	97.430216
954.000000	97.477017
953.000000	97.525766
952.000000	97.571224
951.000000	97.611192
950.000000	97.647726
949.000000	97.681993
948.000000	97.712724
947.000000	97.740611
946.000000	97.768795
945.000000	97.796608
944.000000	97.818010
943.000000	97.829889
942.000000	97.838111
941.000000	97.850188
940.000000	97.864800
939.000000	97.874207
938.000000	97.876065
937.000000	97.878189
936.000000	97.890755
935.000000	97.917157
934.000000	97.952508
933.000000	97.988124
932.000000	98.017479
931.000000	98.040371
930.000000	98.061879
929.000000	98.085545
928.000000	98.108188
927.000000	98.124133
926.000000	98.133693
925.000000	98.143793
924.000000	98.160099
923.000000	98.181755
922.000000	98.204674
921.000000	98.226703
920.000000	98.247842
919.000000	98.268037
918.000000	98.287271
917.000000	98.307066
916.000000	98.330326
915.000000	98.359614
914.000000	98.395072
913.000000	98.433050
912.000000	98.467436
911.000000	98.493934
910.000000	98.513124
909.000000	98.528409
908.000000	98.542024
907.000000	98.554993
906.000000	98.569391
905.000000	98.587102
904.000000	98.606389
903.000000	98.622476
902.000000	98.632062
901.000000	98.635968
900.000000	98.638369
899.000000	98.645422
898.000000	98.662346
897.000000	98.687770
896.000000	98.712038
895.000000	98.725315
894.000000	98.727666
893.000000	98.727433
892.000000	98.730086
891.000000	98.732689
890.000000	98.726624
889.000000	98.698237
888.000000	98.626412
887.000000	98.488741
886.000000	98.279874
885.000000	98.021907
884.000000	97.751240
883.000000	97.493531
882.000000	97.247984
881.000000	96.992690
880.000000	96.705224
879.000000	96.382801
878.000000	96.046809
877.000000	95.731987
876.000000	95.472644
875.000000	95.297710
874.000000	95.231571
873.000000	95.289288
872.000000	95.468725
871.000000	95.745707
870.000000	96.080032
869.000000	96.429260
868.000000	96.758201
867.000000	97.043438
866.000000	97.276660
865.000000	97.464551
864.000000	97.619518
863.000000	97.748821
862.000000	97.853759
861.000000	97.937538
860.000000	98.008829
859.000000	98.075779
858.000000	98.140101
857.000000	98.197174
856.000000	98.240713
855.000000	98.268109
854.000000	98.283418
853.000000	98.294713
852.000000	98.305318
851.000000	98.309525
850.000000	98.302094
849.000000	98.291550
848.000000	98.297756
847.000000	98.332256
846.000000	98.384732
845.000000	98.433535
844.000000	98.466938
843.000000	98.490070
842.000000	98.513476
841.000000	98.540915
840.000000	98.569164
839.000000	98.594001
838.000000	98.612724
837.000000	98.623257
836.000000	98.624883
835.000000	98.620612
834.000000	98.616979
833.000000	98.620234
832.000000	98.632282
831.000000	98.649598
830.000000	98.665782
829.000000	98.676537
828.000000	98.683417
827.000000	98.691716
826.000000	98.703678
825.000000	98.714922
824.000000	98.719032
823.000000	98.715043
822.000000	98.708131
821.000000	98.703271
820.000000	98.700694
819.000000	98.697909
818.000000	98.694221
817.000000	98.691584
816.000000	98.691634
815.000000	98.693569
814.000000	98.695740
813.000000	98.698898
812.000000	98.705934
811.000000	98.716784
810.000000	98.724991
809.000000	98.722661
808.000000	98.709970
807.000000	98.696965
806.000000	98.693548
805.000000	98.699173
804.000000	98.704802
803.000000	98.704116
802.000000	98.699984
801.000000	98.699523
800.000000	98.704617
799.000000	98.708170
798.000000	98.699787
797.000000	98.676151
796.000000	98.646348
795.000000	98.625188
794.000000	98.619373
793.000000	98.621548
792.000000	98.619677
791.000000	98.610182
790.000000	98.599174
789.000000	98.592097
788.000000	98.586384
787.000000	98.575558
786.000000	98.557993
785.000000	98.539847
784.000000	98.529681
783.000000	98.530606
782.000000	98.537452
781.000000	98.541941
780.000000	98.540576
779.000000	98.536194
778.000000	98.531989
777.000000	98.526913
776.000000	98.518716
775.000000	98.508912
774.000000	98.501758
773.000000	98.499508
772.000000	98.501050
771.000000	98.504160
770.000000	98.506761
769.000000	98.507141
768.000000	98.505460
767.000000	98.503663
766.000000	98.501399
765.000000	98.494056
764.000000	98.478500
763.000000	98.459259
762.000000	98.444202
761.000000	98.433910
760.000000	98.419986
759.000000	98.395570
758.000000	98.363687
757.000000	98.332674
756.000000	98.306665
755.000000	98.284567
754.000000	98.267225
753.000000	98.260145
752.000000	98.265518
751.000000	98.273686
750.000000	98.268012
749.000000	98.241593
748.000000	98.206050
747.000000	98.179545
746.000000	98.168141
745.000000	98.163946
744.000000	98.159948
743.000000	98.158115
742.000000	98.160518
741.000000	98.160939
740.000000	98.151356
739.000000	98.131398
738.000000	98.105224
737.000000	98.073839
736.000000	98.037459
735.000000	98.001747
734.000000	97.973146
733.000000	97.949409
732.000000	97.922517
731.000000	97.890581
730.000000	97.858975
729.000000	97.829017
728.000000	97.795544
727.000000	97.757996
726.000000	97.724843
725.000000	97.703293
724.000000	97.689759
723.000000	97.673566
722.000000	97.645554
721.000000	97.600762
720.000000	97.537810
719.000000	97.458164
718.000000	97.360763
717.000000	97.234441
716.000000	97.062066
715.000000	96.841605
714.000000	96.606116
713.000000	96.417465
712.000000	96.331323
711.000000	96.359318
710.000000	96.461351
709.000000	96.575043
708.000000	96.656759
707.000000	96.700269
706.000000	96.720350
705.000000	96.727485
704.000000	96.722950
703.000000	96.709168
702.000000	96.694564
701.000000	96.685347
700.000000	96.677628
699.000000	96.663655
698.000000	96.643238
697.000000	96.626437
696.000000	96.623712
695.000000	96.632518
694.000000	96.638208
693.000000	96.629602
692.000000	96.611612
691.000000	96.599835
690.000000	96.601238
689.000000	96.606110
688.000000	96.601570
687.000000	96.587018
686.000000	96.571298
685.000000	96.557111
684.000000	96.535984
683.000000	96.501443
682.000000	96.460542
681.000000	96.428336
680.000000	96.412326
679.000000	96.407430
678.000000	96.405208
677.000000	96.402900
676.000000	96.404259
675.000000	96.409159
674.000000	96.412016
673.000000	96.410247
672.000000	96.407713
671.000000	96.409936
670.000000	96.421149
669.000000	96.440958
668.000000	96.432657
667.000000	96.405036
666.000000	96.421190
665.000000	96.459701
664.000000	96.483184
663.000000	96.490920
662.000000	96.487286
661.000000	96.475090
660.000000	96.458555
659.000000	96.447866
658.000000	96.443465
657.000000	96.433622
656.000000	96.415421
655.000000	96.399763
654.000000	96.390746
653.000000	96.377915
652.000000	96.354287
651.000000	96.325082
650.000000	96.292755
649.000000	96.250548
648.000000	96.200374
647.000000	96.158405
646.000000	96.131303
645.000000	96.106131
644.000000	96.073566
643.000000	96.042783
642.000000	96.023284
641.000000	96.006153
640.000000	95.976762
639.000000	95.935212
638.000000	95.890609
637.000000	95.848186
636.000000	95.815037
635.000000	95.804481
634.000000	95.820297
633.000000	95.846590
632.000000	95.864505
631.000000	95.869825
630.000000	95.866338
629.000000	95.855017
628.000000	95.840809
627.000000	95.836967
626.000000	95.848220
625.000000	95.859992
624.000000	95.855992
623.000000	95.836357
622.000000	95.809551
621.000000	95.778394
620.000000	95.744907
619.000000	95.717036
618.000000	95.697438
617.000000	95.675418
616.000000	95.644056
615.000000	95.615351
614.000000	95.603728
613.000000	95.605204
612.000000	95.606762
611.000000	95.606962
610.000000	95.612562
609.000000	95.622588
608.000000	95.631889
607.000000	95.645114
606.000000	95.671187
605.000000	95.708901
604.000000	95.750653
603.000000	95.795033
602.000000	95.843671
601.000000	95.890437
600.000000	95.928182
599.000000	95.963707
598.000000	96.011767
597.000000	96.072539
596.000000	96.127747
595.000000	96.162162
594.000000	96.181357
593.000000	96.203961
592.000000	96.238463
591.000000	96.273629
590.000000	96.294403
589.000000	96.303118
588.000000	96.315455
587.000000	96.333923
586.000000	96.337723
585.000000	96.310899
584.000000	96.274412
583.000000	96.268785
582.000000	96.302832
581.000000	96.341707
580.000000	96.353575
579.000000	96.348508
578.000000	96.356055
577.000000	96.381560
576.000000	96.404259
575.000000	96.408483
574.000000	96.399422
573.000000	96.389266
572.000000	96.383245
571.000000	96.380566
570.000000	96.378074
569.000000	96.373327
568.000000	96.367837
567.000000	96.363085
566.000000	96.352343
565.000000	96.324557
564.000000	96.278936
563.000000	96.227613
562.000000	96.183031
561.000000	96.152576
560.000000	96.144231
559.000000	96.160033
558.000000	96.180646
557.000000	96.177197
556.000000	96.146312
555.000000	96.114640
554.000000	96.102629
553.000000	96.105871
552.000000	96.118883
551.000000	96.150478
550.000000	96.201263
549.000000	96.251724
548.000000	96.288954
547.000000	96.320097
546.000000	96.346541
545.000000	96.350841
544.000000	96.327113
543.000000	96.299548
542.000000	96.292174
541.000000	96.301672
540.000000	96.315942
539.000000	96.334401
538.000000	96.350093
537.000000	96.339570
536.000000	96.296369
535.000000	96.251722
534.000000	96.234847
533.000000	96.231432
532.000000	96.207064
531.000000	96.154540
530.000000	96.096264
529.000000	96.057757
528.000000	96.060227
527.000000	96.116787
526.000000	96.203648
525.000000	96.260404
524.000000	96.256442
523.000000	96.222909
522.000000	96.197429
521.000000	96.180336
520.000000	96.164898
519.000000	96.173120
518.000000	96.222238
517.000000	96.279537
516.000000	96.303490
515.000000	96.307033
514.000000	96.331849
513.000000	96.389519
512.000000	96.464990
511.000000	96.549743
510.000000	96.633848
509.000000	96.686531
508.000000	96.687093
507.000000	96.664256
506.000000	96.662052
505.000000	96.678374
504.000000	96.685508
503.000000	96.694013
502.000000	96.742431
501.000000	96.825457
500.000000	96.892734
499.000000	96.922698
498.000000	96.938482
497.000000	96.954209
496.000000	96.952764
495.000000	96.924424
494.000000	96.894876
493.000000	96.898039
492.000000	96.941184
491.000000	97.007964
490.000000	97.079229
489.000000	97.141308
488.000000	97.185722
487.000000	97.206514
486.000000	97.197466
485.000000	97.166564
484.000000	97.157435
483.000000	97.224012
482.000000	97.360520
481.000000	97.489545
480.000000	97.543261
479.000000	97.529260
478.000000	97.499444
477.000000	97.482579
476.000000	97.477753
475.000000	97.489357
474.000000	97.523311
473.000000	97.558608
472.000000	97.569396
471.000000	97.572374
470.000000	97.600957
469.000000	97.644568
468.000000	97.665708
467.000000	97.658051
466.000000	97.647659
465.000000	97.650746
464.000000	97.672964
463.000000	97.739098
462.000000	97.867296
461.000000	98.020234
460.000000	98.136066
459.000000	98.195243
458.000000	98.220543
457.000000	98.230614
456.000000	98.234508
455.000000	98.273171
454.000000	98.386822
453.000000	98.543203
452.000000	98.669439
451.000000	98.721513
450.000000	98.735033
