PE IR       SUBTECH     SPECTRUM    ASCII       PEDS        4.00        
   -1
3C-YYX-C002_1.ASC
23/09/07
11:10:46.00
23/09/07
11:30:09.00
uco
Sample 002 By uco Date Thursday, September 07 2023
450.000000
#HDR
-1
-1
#GR
cm-1
%T
1.0
0.0
4000.000000
-1.000000
3551
8
98.637771
81.254849
#DATA
4000.000000	98.575491
3999.000000	98.575646
3998.000000	98.577224
3997.000000	98.579566
3996.000000	98.580035
3995.000000	98.576530
3994.000000	98.569767
3993.000000	98.562697
3992.000000	98.557931
3991.000000	98.555934
3990.000000	98.555526
3989.000000	98.555773
3988.000000	98.556913
3987.000000	98.559439
3986.000000	98.562723
3985.000000	98.565227
3984.000000	98.566321
3983.000000	98.567346
3982.000000	98.570064
3981.000000	98.573935
3980.000000	98.575708
3979.000000	98.572135
3978.000000	98.563085
3977.000000	98.551957
3976.000000	98.543299
3975.000000	98.540034
3974.000000	98.542417
3973.000000	98.548717
3972.000000	98.556310
3971.000000	98.562306
3970.000000	98.564273
3969.000000	98.561359
3968.000000	98.555158
3967.000000	98.549042
3966.000000	98.545920
3965.000000	98.546513
3964.000000	98.549286
3963.000000	98.551633
3962.000000	98.551341
3961.000000	98.547631
3960.000000	98.541592
3959.000000	98.535755
3958.000000	98.532726
3957.000000	98.533659
3956.000000	98.537649
3955.000000	98.542379
3954.000000	98.545585
3953.000000	98.546403
3952.000000	98.545835
3951.000000	98.545959
3950.000000	98.548063
3949.000000	98.551370
3948.000000	98.553740
3947.000000	98.553532
3946.000000	98.550762
3945.000000	98.546831
3944.000000	98.543899
3943.000000	98.544155
3942.000000	98.548476
3941.000000	98.555750
3940.000000	98.563340
3939.000000	98.568009
3938.000000	98.567079
3937.000000	98.559666
3936.000000	98.547817
3935.000000	98.536249
3934.000000	98.530193
3933.000000	98.532527
3932.000000	98.541613
3931.000000	98.552086
3930.000000	98.558428
3929.000000	98.558166
3928.000000	98.552556
3927.000000	98.545077
3926.000000	98.539438
3925.000000	98.537810
3924.000000	98.539887
3923.000000	98.543529
3922.000000	98.546212
3921.000000	98.545892
3920.000000	98.541698
3919.000000	98.534690
3918.000000	98.528238
3917.000000	98.526542
3916.000000	98.531360
3915.000000	98.539979
3914.000000	98.546666
3913.000000	98.546782
3912.000000	98.539905
3911.000000	98.530045
3910.000000	98.522415
3909.000000	98.519353
3908.000000	98.519386
3907.000000	98.519190
3906.000000	98.516332
3905.000000	98.511126
3904.000000	98.506727
3903.000000	98.506939
3902.000000	98.513101
3901.000000	98.523077
3900.000000	98.533601
3899.000000	98.542266
3898.000000	98.547893
3897.000000	98.550242
3896.000000	98.549530
3895.000000	98.546631
3894.000000	98.543359
3893.000000	98.542101
3892.000000	98.544181
3891.000000	98.548256
3890.000000	98.551417
3889.000000	98.551696
3888.000000	98.548869
3887.000000	98.544841
3886.000000	98.542896
3885.000000	98.544591
3884.000000	98.548505
3883.000000	98.551688
3882.000000	98.551372
3881.000000	98.546513
3880.000000	98.538784
3879.000000	98.531836
3878.000000	98.528522
3877.000000	98.529172
3876.000000	98.533244
3875.000000	98.540159
3874.000000	98.547261
3873.000000	98.549891
3872.000000	98.545547
3871.000000	98.537177
3870.000000	98.531203
3869.000000	98.531766
3868.000000	98.537834
3867.000000	98.545096
3866.000000	98.549239
3865.000000	98.548305
3864.000000	98.543622
3863.000000	98.538748
3862.000000	98.535912
3861.000000	98.534571
3860.000000	98.533638
3859.000000	98.532746
3858.000000	98.531226
3857.000000	98.527047
3856.000000	98.518617
3855.000000	98.507320
3854.000000	98.497338
3853.000000	98.493201
3852.000000	98.497844
3851.000000	98.509790
3850.000000	98.523273
3849.000000	98.533436
3848.000000	98.539214
3847.000000	98.541756
3846.000000	98.541620
3845.000000	98.538127
3844.000000	98.531394
3843.000000	98.524161
3842.000000	98.520218
3841.000000	98.521703
3840.000000	98.528002
3839.000000	98.536049
3838.000000	98.542332
3837.000000	98.546231
3836.000000	98.550803
3835.000000	98.558439
3834.000000	98.567404
3833.000000	98.573639
3832.000000	98.574753
3831.000000	98.571687
3830.000000	98.566884
3829.000000	98.561398
3828.000000	98.554824
3827.000000	98.547206
3826.000000	98.539587
3825.000000	98.533163
3824.000000	98.528766
3823.000000	98.527688
3822.000000	98.530724
3821.000000	98.535273
3820.000000	98.537174
3819.000000	98.536112
3818.000000	98.534364
3817.000000	98.533517
3816.000000	98.534342
3815.000000	98.536398
3814.000000	98.538987
3813.000000	98.541322
3812.000000	98.542522
3811.000000	98.542748
3810.000000	98.542763
3809.000000	98.542949
3808.000000	98.543104
3807.000000	98.542430
3806.000000	98.540103
3805.000000	98.536661
3804.000000	98.533880
3803.000000	98.534792
3802.000000	98.541065
3801.000000	98.548430
3800.000000	98.551410
3799.000000	98.550834
3798.000000	98.549141
3797.000000	98.546336
3796.000000	98.541678
3795.000000	98.536166
3794.000000	98.532635
3793.000000	98.533290
3792.000000	98.538088
3791.000000	98.545075
3790.000000	98.551427
3789.000000	98.555185
3788.000000	98.556922
3787.000000	98.558801
3786.000000	98.561710
3785.000000	98.564081
3784.000000	98.564202
3783.000000	98.562887
3782.000000	98.562478
3781.000000	98.563760
3780.000000	98.564774
3779.000000	98.562799
3778.000000	98.557826
3777.000000	98.553311
3776.000000	98.552994
3775.000000	98.557588
3774.000000	98.563855
3773.000000	98.566766
3772.000000	98.563468
3771.000000	98.555881
3770.000000	98.549202
3769.000000	98.547426
3768.000000	98.551477
3767.000000	98.559997
3766.000000	98.569922
3765.000000	98.577042
3764.000000	98.578486
3763.000000	98.574608
3762.000000	98.567842
3761.000000	98.560878
3760.000000	98.555807
3759.000000	98.553604
3758.000000	98.553771
3757.000000	98.554921
3756.000000	98.556044
3755.000000	98.557055
3754.000000	98.558428
3753.000000	98.560002
3752.000000	98.559467
3751.000000	98.553071
3750.000000	98.540463
3749.000000	98.527634
3748.000000	98.520993
3747.000000	98.522166
3746.000000	98.530161
3745.000000	98.541772
3744.000000	98.550554
3743.000000	98.555092
3742.000000	98.559317
3741.000000	98.562781
3740.000000	98.562743
3739.000000	98.559320
3738.000000	98.555304
3737.000000	98.554017
3736.000000	98.557908
3735.000000	98.566171
3734.000000	98.573584
3733.000000	98.575240
3732.000000	98.571687
3731.000000	98.567236
3730.000000	98.564958
3729.000000	98.565098
3728.000000	98.567697
3727.000000	98.573173
3726.000000	98.579708
3725.000000	98.583484
3724.000000	98.583089
3723.000000	98.580809
3722.000000	98.578503
3721.000000	98.575857
3720.000000	98.572687
3719.000000	98.570315
3718.000000	98.569682
3717.000000	98.569810
3716.000000	98.569174
3715.000000	98.567233
3714.000000	98.563897
3713.000000	98.559431
3712.000000	98.555999
3711.000000	98.556959
3710.000000	98.562312
3709.000000	98.567885
3708.000000	98.571165
3707.000000	98.573340
3706.000000	98.576113
3705.000000	98.579495
3704.000000	98.582176
3703.000000	98.582618
3702.000000	98.579797
3701.000000	98.574508
3700.000000	98.570095
3699.000000	98.569591
3698.000000	98.572156
3697.000000	98.573587
3696.000000	98.570000
3695.000000	98.560869
3694.000000	98.548865
3693.000000	98.538228
3692.000000	98.533502
3691.000000	98.537571
3690.000000	98.547635
3689.000000	98.554974
3688.000000	98.554536
3687.000000	98.551125
3686.000000	98.550308
3685.000000	98.551212
3684.000000	98.549827
3683.000000	98.543524
3682.000000	98.532204
3681.000000	98.517795
3680.000000	98.503808
3679.000000	98.493465
3678.000000	98.487358
3677.000000	98.483838
3676.000000	98.480729
3675.000000	98.476025
3674.000000	98.469649
3673.000000	98.463402
3672.000000	98.459075
3671.000000	98.459586
3670.000000	98.465561
3669.000000	98.470758
3668.000000	98.469916
3667.000000	98.464665
3666.000000	98.458151
3665.000000	98.452205
3664.000000	98.448052
3663.000000	98.446326
3662.000000	98.445992
3661.000000	98.444710
3660.000000	98.441499
3659.000000	98.437609
3658.000000	98.434105
3657.000000	98.429646
3656.000000	98.422340
3655.000000	98.413617
3654.000000	98.406183
3653.000000	98.399545
3652.000000	98.391318
3651.000000	98.380773
3650.000000	98.369349
3649.000000	98.358883
3648.000000	98.350097
3647.000000	98.342326
3646.000000	98.334238
3645.000000	98.325243
3644.000000	98.316513
3643.000000	98.310314
3642.000000	98.307759
3641.000000	98.307508
3640.000000	98.307533
3639.000000	98.306879
3638.000000	98.304443
3637.000000	98.298046
3636.000000	98.286528
3635.000000	98.272083
3634.000000	98.258975
3633.000000	98.249595
3632.000000	98.242723
3631.000000	98.235351
3630.000000	98.224684
3629.000000	98.209843
3628.000000	98.194829
3627.000000	98.185771
3626.000000	98.182362
3625.000000	98.178339
3624.000000	98.169917
3623.000000	98.158863
3622.000000	98.149162
3621.000000	98.142815
3620.000000	98.138118
3619.000000	98.130845
3618.000000	98.118347
3617.000000	98.102336
3616.000000	98.086462
3615.000000	98.072617
3614.000000	98.059487
3613.000000	98.044366
3612.000000	98.027293
3611.000000	98.011659
3610.000000	97.999609
3609.000000	97.990144
3608.000000	97.981902
3607.000000	97.975355
3606.000000	97.971312
3605.000000	97.969121
3604.000000	97.967747
3603.000000	97.966152
3602.000000	97.962233
3601.000000	97.953770
3600.000000	97.941560
3599.000000	97.929500
3598.000000	97.919952
3597.000000	97.910764
3596.000000	97.898332
3595.000000	97.882165
3594.000000	97.864675
3593.000000	97.847830
3592.000000	97.831588
3591.000000	97.815258
3590.000000	97.798836
3589.000000	97.783652
3588.000000	97.771866
3587.000000	97.764487
3586.000000	97.759843
3585.000000	97.755538
3584.000000	97.750430
3583.000000	97.743659
3582.000000	97.733368
3581.000000	97.717936
3580.000000	97.698551
3579.000000	97.679397
3578.000000	97.664019
3577.000000	97.652743
3576.000000	97.643706
3575.000000	97.634690
3574.000000	97.623422
3573.000000	97.608245
3572.000000	97.589976
3571.000000	97.571506
3570.000000	97.554964
3569.000000	97.540075
3568.000000	97.525635
3567.000000	97.511411
3566.000000	97.497717
3565.000000	97.484511
3564.000000	97.472328
3563.000000	97.461975
3562.000000	97.453010
3561.000000	97.443800
3560.000000	97.433463
3559.000000	97.422425
3558.000000	97.410508
3557.000000	97.396170
3556.000000	97.378526
3555.000000	97.358524
3554.000000	97.337629
3553.000000	97.316876
3552.000000	97.298174
3551.000000	97.284079
3550.000000	97.274573
3549.000000	97.266124
3548.000000	97.255182
3547.000000	97.241719
3546.000000	97.228314
3545.000000	97.216585
3544.000000	97.205811
3543.000000	97.194228
3542.000000	97.179948
3541.000000	97.162021
3540.000000	97.142163
3539.000000	97.124439
3538.000000	97.111843
3537.000000	97.103312
3536.000000	97.094732
3535.000000	97.082500
3534.000000	97.065705
3533.000000	97.046516
3532.000000	97.029494
3531.000000	97.018860
3530.000000	97.014394
3529.000000	97.010796
3528.000000	97.002810
3527.000000	96.990113
3526.000000	96.975814
3525.000000	96.961796
3524.000000	96.947421
3523.000000	96.931439
3522.000000	96.913563
3521.000000	96.894850
3520.000000	96.877548
3519.000000	96.863799
3518.000000	96.853530
3517.000000	96.844314
3516.000000	96.833934
3515.000000	96.822061
3514.000000	96.808964
3513.000000	96.794453
3512.000000	96.779164
3511.000000	96.765406
3510.000000	96.755102
3509.000000	96.747587
3508.000000	96.740753
3507.000000	96.733489
3506.000000	96.725862
3505.000000	96.717895
3504.000000	96.709273
3503.000000	96.699353
3502.000000	96.686959
3501.000000	96.671333
3500.000000	96.653700
3499.000000	96.636803
3498.000000	96.622513
3497.000000	96.610637
3496.000000	96.599834
3495.000000	96.588434
3494.000000	96.574301
3493.000000	96.555992
3492.000000	96.535041
3491.000000	96.515542
3490.000000	96.500450
3489.000000	96.489193
3488.000000	96.479348
3487.000000	96.468998
3486.000000	96.456899
3485.000000	96.442272
3484.000000	96.425942
3483.000000	96.410663
3482.000000	96.398959
3481.000000	96.390985
3480.000000	96.385136
3479.000000	96.379511
3478.000000	96.372398
3477.000000	96.362880
3476.000000	96.351953
3475.000000	96.341894
3474.000000	96.333802
3473.000000	96.326849
3472.000000	96.319982
3471.000000	96.312572
3470.000000	96.303231
3469.000000	96.290270
3468.000000	96.274192
3467.000000	96.257783
3466.000000	96.242896
3465.000000	96.229092
3464.000000	96.216210
3463.000000	96.205860
3462.000000	96.198620
3461.000000	96.191682
3460.000000	96.181388
3459.000000	96.167119
3458.000000	96.151361
3457.000000	96.137036
3456.000000	96.125912
3455.000000	96.118274
3454.000000	96.112583
3453.000000	96.106412
3452.000000	96.098796
3451.000000	96.091142
3450.000000	96.085097
3449.000000	96.080476
3448.000000	96.075870
3447.000000	96.070033
3446.000000	96.061780
3445.000000	96.049873
3444.000000	96.034439
3443.000000	96.018032
3442.000000	96.004334
3441.000000	95.995659
3440.000000	95.991576
3439.000000	95.989023
3438.000000	95.983617
3437.000000	95.972464
3436.000000	95.956706
3435.000000	95.940476
3434.000000	95.926861
3433.000000	95.915767
3432.000000	95.905725
3431.000000	95.896276
3430.000000	95.887882
3429.000000	95.880736
3428.000000	95.874406
3427.000000	95.867803
3426.000000	95.859500
3425.000000	95.849332
3424.000000	95.839664
3423.000000	95.833196
3422.000000	95.829038
3421.000000	95.822858
3420.000000	95.811870
3419.000000	95.797993
3418.000000	95.785062
3417.000000	95.774739
3416.000000	95.766104
3415.000000	95.757335
3414.000000	95.746664
3413.000000	95.733125
3412.000000	95.717580
3411.000000	95.702181
3410.000000	95.688405
3409.000000	95.676588
3408.000000	95.667346
3407.000000	95.661383
3406.000000	95.657322
3405.000000	95.651789
3404.000000	95.642838
3403.000000	95.631869
3402.000000	95.621175
3401.000000	95.611289
3400.000000	95.601454
3399.000000	95.590973
3398.000000	95.579021
3397.000000	95.564910
3396.000000	95.549936
3395.000000	95.537488
3394.000000	95.529650
3393.000000	95.524518
3392.000000	95.518032
3391.000000	95.507844
3390.000000	95.494637
3389.000000	95.480641
3388.000000	95.467936
3387.000000	95.457369
3386.000000	95.448086
3385.000000	95.438557
3384.000000	95.428388
3383.000000	95.418337
3382.000000	95.408566
3381.000000	95.398323
3380.000000	95.387503
3379.000000	95.376836
3378.000000	95.365949
3377.000000	95.352849
3376.000000	95.336262
3375.000000	95.317422
3374.000000	95.298949
3373.000000	95.282921
3372.000000	95.270280
3371.000000	95.260598
3370.000000	95.251662
3369.000000	95.240550
3368.000000	95.225913
3367.000000	95.208436
3366.000000	95.189051
3365.000000	95.168278
3364.000000	95.147551
3363.000000	95.129107
3362.000000	95.113386
3361.000000	95.097880
3360.000000	95.079693
3359.000000	95.058400
3358.000000	95.035857
3357.000000	95.014205
3356.000000	94.994631
3355.000000	94.977067
3354.000000	94.960268
3353.000000	94.942733
3352.000000	94.923886
3351.000000	94.903907
3350.000000	94.882851
3349.000000	94.860923
3348.000000	94.839116
3347.000000	94.818209
3346.000000	94.797400
3345.000000	94.775450
3344.000000	94.753051
3343.000000	94.732461
3342.000000	94.714676
3341.000000	94.698598
3340.000000	94.682880
3339.000000	94.666994
3338.000000	94.650647
3337.000000	94.633877
3336.000000	94.617651
3335.000000	94.602648
3334.000000	94.587675
3333.000000	94.571217
3332.000000	94.554326
3331.000000	94.539514
3330.000000	94.526763
3329.000000	94.513010
3328.000000	94.495934
3327.000000	94.476126
3326.000000	94.455258
3325.000000	94.434537
3324.000000	94.415652
3323.000000	94.400657
3322.000000	94.389375
3321.000000	94.378645
3320.000000	94.365223
3319.000000	94.348407
3318.000000	94.329684
3317.000000	94.311442
3316.000000	94.296165
3315.000000	94.284765
3314.000000	94.274926
3313.000000	94.262952
3312.000000	94.247884
3311.000000	94.232284
3310.000000	94.218816
3309.000000	94.207843
3308.000000	94.198537
3307.000000	94.189865
3306.000000	94.179884
3305.000000	94.166514
3304.000000	94.150045
3303.000000	94.133257
3302.000000	94.118550
3301.000000	94.106607
3300.000000	94.097891
3299.000000	94.092601
3298.000000	94.088394
3297.000000	94.081102
3296.000000	94.069173
3295.000000	94.055499
3294.000000	94.043633
3293.000000	94.034320
3292.000000	94.026751
3291.000000	94.020681
3290.000000	94.015784
3289.000000	94.010848
3288.000000	94.005476
3287.000000	94.001238
3286.000000	93.999757
3285.000000	94.000931
3284.000000	94.003618
3283.000000	94.006452
3282.000000	94.007381
3281.000000	94.004705
3280.000000	94.000128
3279.000000	93.998603
3278.000000	94.003563
3277.000000	94.013637
3276.000000	94.025391
3275.000000	94.037670
3274.000000	94.051050
3273.000000	94.064681
3272.000000	94.076017
3271.000000	94.083528
3270.000000	94.088391
3269.000000	94.093614
3268.000000	94.102117
3267.000000	94.114872
3266.000000	94.130207
3265.000000	94.145531
3264.000000	94.160003
3263.000000	94.174473
3262.000000	94.189083
3261.000000	94.202682
3260.000000	94.215056
3259.000000	94.227901
3258.000000	94.242867
3257.000000	94.260282
3256.000000	94.280272
3255.000000	94.303235
3254.000000	94.328172
3253.000000	94.352371
3252.000000	94.373917
3251.000000	94.393149
3250.000000	94.410871
3249.000000	94.426845
3248.000000	94.441086
3247.000000	94.454601
3246.000000	94.467454
3245.000000	94.477635
3244.000000	94.483741
3243.000000	94.487817
3242.000000	94.493812
3241.000000	94.503932
3240.000000	94.517685
3239.000000	94.533789
3238.000000	94.551523
3237.000000	94.570294
3236.000000	94.588820
3235.000000	94.605251
3234.000000	94.618299
3233.000000	94.628435
3232.000000	94.637450
3231.000000	94.646193
3230.000000	94.653508
3229.000000	94.658537
3228.000000	94.663390
3227.000000	94.671745
3226.000000	94.684937
3225.000000	94.701082
3224.000000	94.717506
3223.000000	94.732255
3222.000000	94.743755
3221.000000	94.751691
3220.000000	94.758532
3219.000000	94.767621
3218.000000	94.778899
3217.000000	94.788768
3216.000000	94.794787
3215.000000	94.798496
3214.000000	94.802740
3213.000000	94.808380
3212.000000	94.814790
3211.000000	94.821645
3210.000000	94.828836
3209.000000	94.835893
3208.000000	94.842861
3207.000000	94.850867
3206.000000	94.861114
3205.000000	94.873978
3204.000000	94.889025
3203.000000	94.904573
3202.000000	94.917585
3201.000000	94.926069
3200.000000	94.932082
3199.000000	94.940459
3198.000000	94.953788
3197.000000	94.970064
3196.000000	94.985255
3195.000000	94.996517
3194.000000	95.002987
3193.000000	95.006314
3192.000000	95.011155
3191.000000	95.022334
3190.000000	95.040083
3189.000000	95.059696
3188.000000	95.076776
3187.000000	95.090915
3186.000000	95.103952
3185.000000	95.117360
3184.000000	95.132576
3183.000000	95.151046
3182.000000	95.171834
3181.000000	95.191073
3180.000000	95.205783
3179.000000	95.216954
3178.000000	95.227705
3177.000000	95.239855
3176.000000	95.253764
3175.000000	95.269487
3174.000000	95.286074
3173.000000	95.301137
3172.000000	95.313164
3171.000000	95.323529
3170.000000	95.334725
3169.000000	95.347709
3168.000000	95.362228
3167.000000	95.378467
3166.000000	95.396492
3165.000000	95.414883
3164.000000	95.431754
3163.000000	95.446749
3162.000000	95.460866
3161.000000	95.474902
3160.000000	95.489235
3159.000000	95.504422
3158.000000	95.520481
3157.000000	95.535820
3156.000000	95.548116
3155.000000	95.556678
3154.000000	95.563511
3153.000000	95.572179
3152.000000	95.585339
3151.000000	95.602546
3150.000000	95.620232
3149.000000	95.634830
3148.000000	95.646239
3147.000000	95.657508
3146.000000	95.671174
3145.000000	95.687153
3144.000000	95.704138
3143.000000	95.721311
3142.000000	95.738077
3141.000000	95.753690
3140.000000	95.768034
3139.000000	95.781538
3138.000000	95.793575
3137.000000	95.802333
3136.000000	95.806887
3135.000000	95.808494
3134.000000	95.809395
3133.000000	95.811498
3132.000000	95.816249
3131.000000	95.823894
3130.000000	95.832325
3129.000000	95.838712
3128.000000	95.843318
3127.000000	95.850071
3126.000000	95.861925
3125.000000	95.876938
3124.000000	95.890239
3123.000000	95.898820
3122.000000	95.903246
3121.000000	95.905913
3120.000000	95.908993
3119.000000	95.913441
3118.000000	95.918567
3117.000000	95.922790
3116.000000	95.925262
3115.000000	95.926175
3114.000000	95.925376
3113.000000	95.922048
3112.000000	95.916476
3111.000000	95.910996
3110.000000	95.908218
3109.000000	95.908989
3108.000000	95.912193
3107.000000	95.915460
3106.000000	95.915824
3105.000000	95.911619
3104.000000	95.904695
3103.000000	95.899272
3102.000000	95.897166
3101.000000	95.895393
3100.000000	95.890071
3099.000000	95.881808
3098.000000	95.875453
3097.000000	95.874762
3096.000000	95.878612
3095.000000	95.882355
3094.000000	95.882105
3093.000000	95.877591
3092.000000	95.871363
3091.000000	95.865685
3090.000000	95.860500
3089.000000	95.854590
3088.000000	95.847867
3087.000000	95.841340
3086.000000	95.835075
3085.000000	95.827741
3084.000000	95.818670
3083.000000	95.809168
3082.000000	95.801364
3081.000000	95.796600
3080.000000	95.795009
3079.000000	95.795403
3078.000000	95.795293
3077.000000	95.792460
3076.000000	95.787174
3075.000000	95.782038
3074.000000	95.779355
3073.000000	95.779646
3072.000000	95.782744
3071.000000	95.788587
3070.000000	95.796101
3069.000000	95.802579
3068.000000	95.805486
3067.000000	95.804699
3066.000000	95.802546
3065.000000	95.802013
3064.000000	95.804749
3063.000000	95.810070
3062.000000	95.815881
3061.000000	95.821229
3060.000000	95.827519
3059.000000	95.836162
3058.000000	95.845743
3057.000000	95.853353
3056.000000	95.858623
3055.000000	95.864443
3054.000000	95.873235
3053.000000	95.884387
3052.000000	95.895972
3051.000000	95.907279
3050.000000	95.918872
3049.000000	95.931396
3048.000000	95.944945
3047.000000	95.958684
3046.000000	95.970939
3045.000000	95.980953
3044.000000	95.990547
3043.000000	96.002378
3042.000000	96.016316
3041.000000	96.029190
3040.000000	96.038604
3039.000000	96.045389
3038.000000	96.052050
3037.000000	96.060549
3036.000000	96.072055
3035.000000	96.086665
3034.000000	96.102285
3033.000000	96.115511
3032.000000	96.124629
3031.000000	96.130551
3030.000000	96.134382
3029.000000	96.136201
3028.000000	96.137110
3027.000000	96.140123
3026.000000	96.147168
3025.000000	96.156556
3024.000000	96.164887
3023.000000	96.170606
3022.000000	96.174577
3021.000000	96.178370
3020.000000	96.183188
3019.000000	96.189288
3018.000000	96.195232
3017.000000	96.198544
3016.000000	96.198174
3015.000000	96.195507
3014.000000	96.192176
3013.000000	96.187933
3012.000000	96.181361
3011.000000	96.171321
3010.000000	96.156957
3009.000000	96.137947
3008.000000	96.116308
3007.000000	96.096729
3006.000000	96.083259
3005.000000	96.075635
3004.000000	96.069456
3003.000000	96.059701
3002.000000	96.043791
3001.000000	96.022487
3000.000000	95.998791
2999.000000	95.975536
2998.000000	95.953127
2997.000000	95.929953
2996.000000	95.904853
2995.000000	95.878109
2994.000000	95.849610
2993.000000	95.817539
2992.000000	95.779910
2991.000000	95.736356
2990.000000	95.687820
2989.000000	95.635269
2988.000000	95.579423
2987.000000	95.520635
2986.000000	95.458350
2985.000000	95.391761
2984.000000	95.321371
2983.000000	95.248719
2982.000000	95.173780
2981.000000	95.093871
2980.000000	95.006477
2979.000000	94.912299
2978.000000	94.814676
2977.000000	94.716470
2976.000000	94.617884
2975.000000	94.516464
2974.000000	94.408311
2973.000000	94.290280
2972.000000	94.162093
2971.000000	94.026262
2970.000000	93.886085
2969.000000	93.744131
2968.000000	93.602378
2967.000000	93.462296
2966.000000	93.324467
2965.000000	93.189617
2964.000000	93.060590
2963.000000	92.942507
2962.000000	92.840020
2961.000000	92.755284
2960.000000	92.688758
2959.000000	92.640842
2958.000000	92.612605
2957.000000	92.605318
2956.000000	92.619996
2955.000000	92.655709
2954.000000	92.707895
2953.000000	92.769073
2952.000000	92.831450
2951.000000	92.888697
2950.000000	92.934822
2949.000000	92.963701
2948.000000	92.970434
2947.000000	92.952977
2946.000000	92.911798
2945.000000	92.848450
2944.000000	92.764765
2943.000000	92.661664
2942.000000	92.538774
2941.000000	92.395872
2940.000000	92.235449
2939.000000	92.062540
2938.000000	91.881536
2937.000000	91.694932
2936.000000	91.505394
2935.000000	91.317883
2934.000000	91.138072
2933.000000	90.969587
2932.000000	90.813560
2931.000000	90.669989
2930.000000	90.538771
2929.000000	90.419929
2928.000000	90.314597
2927.000000	90.225871
2926.000000	90.158200
2925.000000	90.115615
2924.000000	90.099829
2923.000000	90.109908
2922.000000	90.143558
2921.000000	90.199514
2920.000000	90.278834
2919.000000	90.383127
2918.000000	90.512126
2917.000000	90.663248
2916.000000	90.833182
2915.000000	91.018102
2914.000000	91.211925
2913.000000	91.406488
2912.000000	91.594746
2911.000000	91.773848
2910.000000	91.944215
2909.000000	92.106407
2908.000000	92.259750
2907.000000	92.403308
2906.000000	92.537508
2905.000000	92.664959
2904.000000	92.790149
2903.000000	92.917373
2902.000000	93.048239
2901.000000	93.181384
2900.000000	93.314416
2899.000000	93.445463
2898.000000	93.572308
2897.000000	93.691887
2896.000000	93.802313
2895.000000	93.904839
2894.000000	94.002613
2893.000000	94.097653
2892.000000	94.189694
2891.000000	94.277227
2890.000000	94.358110
2889.000000	94.429327
2888.000000	94.487805
2887.000000	94.532295
2886.000000	94.564128
2885.000000	94.585625
2884.000000	94.597881
2883.000000	94.600120
2882.000000	94.590674
2881.000000	94.568287
2880.000000	94.532489
2879.000000	94.483303
2878.000000	94.421410
2877.000000	94.349359
2876.000000	94.272403
2875.000000	94.197574
2874.000000	94.131907
2873.000000	94.080949
2872.000000	94.047799
2871.000000	94.031842
2870.000000	94.027963
2869.000000	94.027753
2868.000000	94.022385
2867.000000	94.005172
2866.000000	93.972615
2865.000000	93.924145
2864.000000	93.860361
2863.000000	93.781108
2862.000000	93.685548
2861.000000	93.575174
2860.000000	93.455988
2859.000000	93.336534
2858.000000	93.223867
2857.000000	93.122674
2856.000000	93.037919
2855.000000	92.976129
2854.000000	92.944398
2853.000000	92.949074
2852.000000	92.995721
2851.000000	93.088895
2850.000000	93.230342
2849.000000	93.417222
2848.000000	93.641346
2847.000000	93.889334
2846.000000	94.144407
2845.000000	94.391127
2844.000000	94.619489
2843.000000	94.825258
2842.000000	95.007021
2841.000000	95.164372
2840.000000	95.299151
2839.000000	95.415514
2838.000000	95.517470
2837.000000	95.607228
2836.000000	95.686164
2835.000000	95.755689
2834.000000	95.816538
2833.000000	95.868910
2832.000000	95.914565
2831.000000	95.957402
2830.000000	96.000483
2829.000000	96.043478
2828.000000	96.083751
2827.000000	96.118962
2826.000000	96.148094
2825.000000	96.171507
2824.000000	96.191431
2823.000000	96.211203
2822.000000	96.232765
2821.000000	96.255510
2820.000000	96.278168
2819.000000	96.300452
2818.000000	96.321885
2817.000000	96.340668
2816.000000	96.355588
2815.000000	96.368254
2814.000000	96.381924
2813.000000	96.398581
2812.000000	96.418160
2811.000000	96.439703
2810.000000	96.461912
2809.000000	96.483341
2808.000000	96.503614
2807.000000	96.523928
2806.000000	96.544971
2805.000000	96.564938
2804.000000	96.581215
2803.000000	96.593775
2802.000000	96.605299
2801.000000	96.617975
2800.000000	96.631608
2799.000000	96.644931
2798.000000	96.657324
2797.000000	96.668788
2796.000000	96.679478
2795.000000	96.689917
2794.000000	96.700872
2793.000000	96.712291
2792.000000	96.722846
2791.000000	96.731185
2790.000000	96.737665
2789.000000	96.744491
2788.000000	96.753998
2787.000000	96.766746
2786.000000	96.781262
2785.000000	96.795561
2784.000000	96.808641
2783.000000	96.820369
2782.000000	96.830507
2781.000000	96.838777
2780.000000	96.845773
2779.000000	96.852828
2778.000000	96.860606
2777.000000	96.868479
2776.000000	96.875532
2775.000000	96.881435
2774.000000	96.886172
2773.000000	96.889916
2772.000000	96.893691
2771.000000	96.899140
2770.000000	96.906700
2769.000000	96.914542
2768.000000	96.920176
2767.000000	96.922996
2766.000000	96.924898
2765.000000	96.928566
2764.000000	96.935339
2763.000000	96.944264
2762.000000	96.952925
2761.000000	96.959598
2760.000000	96.964794
2759.000000	96.970402
2758.000000	96.977405
2757.000000	96.985106
2756.000000	96.992468
2755.000000	96.999123
2754.000000	97.004730
2753.000000	97.008395
2752.000000	97.009459
2751.000000	97.008329
2750.000000	97.006063
2749.000000	97.003764
2748.000000	97.002718
2747.000000	97.004261
2746.000000	97.008790
2745.000000	97.015368
2744.000000	97.022754
2743.000000	97.030224
2742.000000	97.037020
2741.000000	97.041847
2740.000000	97.043808
2739.000000	97.043541
2738.000000	97.042885
2737.000000	97.043635
2736.000000	97.046796
2735.000000	97.052405
2734.000000	97.059524
2733.000000	97.066793
2732.000000	97.073440
2731.000000	97.079459
2730.000000	97.084862
2729.000000	97.089517
2728.000000	97.094009
2727.000000	97.099648
2726.000000	97.106917
2725.000000	97.114548
2724.000000	97.120874
2723.000000	97.125577
2722.000000	97.129418
2721.000000	97.132887
2720.000000	97.136117
2719.000000	97.139741
2718.000000	97.144732
2717.000000	97.151095
2716.000000	97.157333
2715.000000	97.161584
2714.000000	97.163195
2713.000000	97.163199
2712.000000	97.163444
2711.000000	97.165311
2710.000000	97.169096
2709.000000	97.174266
2708.000000	97.179919
2707.000000	97.185057
2706.000000	97.189030
2705.000000	97.192057
2704.000000	97.194779
2703.000000	97.196990
2702.000000	97.197644
2701.000000	97.196907
2700.000000	97.197285
2699.000000	97.201232
2698.000000	97.208012
2697.000000	97.214393
2696.000000	97.218428
2695.000000	97.221100
2694.000000	97.224042
2693.000000	97.227202
2692.000000	97.229387
2691.000000	97.229905
2690.000000	97.228919
2689.000000	97.227119
2688.000000	97.225770
2687.000000	97.226340
2686.000000	97.229233
2685.000000	97.233226
2684.000000	97.236498
2683.000000	97.237914
2682.000000	97.237428
2681.000000	97.236115
2680.000000	97.235893
2679.000000	97.238122
2678.000000	97.242030
2677.000000	97.245336
2676.000000	97.246765
2675.000000	97.247150
2674.000000	97.247850
2673.000000	97.249191
2672.000000	97.250947
2671.000000	97.253144
2670.000000	97.255538
2669.000000	97.257067
2668.000000	97.256801
2667.000000	97.255110
2666.000000	97.253288
2665.000000	97.252377
2664.000000	97.252759
2663.000000	97.254409
2662.000000	97.256995
2661.000000	97.259899
2660.000000	97.262376
2659.000000	97.263568
2658.000000	97.262740
2657.000000	97.260320
2656.000000	97.258768
2655.000000	97.261332
2654.000000	97.269327
2653.000000	97.280986
2652.000000	97.292942
2651.000000	97.302268
2650.000000	97.307530
2649.000000	97.309455
2648.000000	97.311117
2647.000000	97.316088
2646.000000	97.325313
2645.000000	97.336201
2644.000000	97.345155
2643.000000	97.350364
2642.000000	97.352292
2641.000000	97.352868
2640.000000	97.354805
2639.000000	97.360312
2638.000000	97.369248
2637.000000	97.379041
2636.000000	97.387090
2635.000000	97.392662
2634.000000	97.396285
2633.000000	97.398603
2632.000000	97.400704
2631.000000	97.404395
2630.000000	97.410752
2629.000000	97.418833
2628.000000	97.426831
2627.000000	97.434179
2626.000000	97.441684
2625.000000	97.449655
2624.000000	97.456641
2623.000000	97.460334
2622.000000	97.459874
2621.000000	97.457318
2620.000000	97.456319
2619.000000	97.458873
2618.000000	97.463810
2617.000000	97.469050
2616.000000	97.474304
2615.000000	97.480250
2614.000000	97.486230
2613.000000	97.490952
2612.000000	97.495009
2611.000000	97.499997
2610.000000	97.504903
2609.000000	97.506239
2608.000000	97.502736
2607.000000	97.497731
2606.000000	97.495511
2605.000000	97.497211
2604.000000	97.501437
2603.000000	97.506771
2602.000000	97.511927
2601.000000	97.515137
2600.000000	97.515845
2599.000000	97.516354
2598.000000	97.520197
2597.000000	97.529001
2596.000000	97.541629
2595.000000	97.555325
2594.000000	97.566533
2593.000000	97.571713
2592.000000	97.569430
2591.000000	97.562086
2590.000000	97.554681
2589.000000	97.551393
2588.000000	97.552909
2587.000000	97.556407
2586.000000	97.558118
2585.000000	97.556751
2584.000000	97.554780
2583.000000	97.555829
2582.000000	97.560910
2581.000000	97.567917
2580.000000	97.574308
2579.000000	97.579041
2578.000000	97.582186
2577.000000	97.584361
2576.000000	97.586691
2575.000000	97.589849
2574.000000	97.592863
2573.000000	97.594128
2572.000000	97.593635
2571.000000	97.593111
2570.000000	97.594350
2569.000000	97.598765
2568.000000	97.607496
2567.000000	97.619338
2566.000000	97.629003
2565.000000	97.630616
2564.000000	97.624062
2563.000000	97.615600
2562.000000	97.611260
2561.000000	97.611535
2560.000000	97.613104
2559.000000	97.613810
2558.000000	97.614727
2557.000000	97.618708
2556.000000	97.627315
2555.000000	97.638069
2554.000000	97.645065
2553.000000	97.644372
2552.000000	97.638655
2551.000000	97.634290
2550.000000	97.633995
2549.000000	97.634863
2548.000000	97.633494
2547.000000	97.630031
2546.000000	97.626940
2545.000000	97.626910
2544.000000	97.632432
2543.000000	97.643734
2542.000000	97.655826
2541.000000	97.660827
2540.000000	97.655429
2539.000000	97.643945
2538.000000	97.633191
2537.000000	97.626809
2536.000000	97.625230
2535.000000	97.627404
2534.000000	97.630284
2533.000000	97.629579
2532.000000	97.623408
2531.000000	97.613599
2530.000000	97.602055
2529.000000	97.588606
2528.000000	97.573970
2527.000000	97.561669
2526.000000	97.554385
2525.000000	97.550683
2524.000000	97.547898
2523.000000	97.546083
2522.000000	97.546531
2521.000000	97.548239
2520.000000	97.548789
2519.000000	97.547778
2518.000000	97.546688
2517.000000	97.546095
2516.000000	97.545328
2515.000000	97.544536
2514.000000	97.545273
2513.000000	97.548895
2512.000000	97.555196
2511.000000	97.562325
2510.000000	97.567806
2509.000000	97.570883
2508.000000	97.574226
2507.000000	97.581700
2506.000000	97.593729
2505.000000	97.606667
2504.000000	97.617525
2503.000000	97.627465
2502.000000	97.639409
2501.000000	97.654259
2500.000000	97.670852
2499.000000	97.687677
2498.000000	97.702842
2497.000000	97.714004
2496.000000	97.720207
2495.000000	97.722915
2494.000000	97.724064
2493.000000	97.724510
2492.000000	97.725444
2491.000000	97.728977
2490.000000	97.735355
2489.000000	97.741402
2488.000000	97.744584
2487.000000	97.747658
2486.000000	97.756540
2485.000000	97.773405
2484.000000	97.793633
2483.000000	97.809989
2482.000000	97.818825
2481.000000	97.822175
2480.000000	97.824905
2479.000000	97.829782
2478.000000	97.834777
2477.000000	97.835524
2476.000000	97.830359
2475.000000	97.822410
2474.000000	97.816240
2473.000000	97.813378
2472.000000	97.812029
2471.000000	97.810621
2470.000000	97.810633
2469.000000	97.815461
2468.000000	97.826314
2467.000000	97.839422
2466.000000	97.848363
2465.000000	97.849958
2464.000000	97.847221
2463.000000	97.845603
2462.000000	97.847336
2461.000000	97.850777
2460.000000	97.853991
2459.000000	97.856543
2458.000000	97.858117
2457.000000	97.857992
2456.000000	97.856248
2455.000000	97.853891
2454.000000	97.851895
2453.000000	97.851886
2452.000000	97.856898
2451.000000	97.868447
2450.000000	97.882507
2449.000000	97.891414
2448.000000	97.891068
2447.000000	97.884538
2446.000000	97.878097
2445.000000	97.875739
2444.000000	97.877759
2443.000000	97.881811
2442.000000	97.884409
2441.000000	97.883597
2440.000000	97.881301
2439.000000	97.881180
2438.000000	97.883650
2437.000000	97.885260
2436.000000	97.883779
2435.000000	97.881164
2434.000000	97.880165
2433.000000	97.880449
2432.000000	97.880022
2431.000000	97.878768
2430.000000	97.878608
2429.000000	97.881111
2428.000000	97.886313
2427.000000	97.893018
2426.000000	97.899276
2425.000000	97.903339
2424.000000	97.904945
2423.000000	97.905097
2422.000000	97.904413
2421.000000	97.902671
2420.000000	97.899897
2419.000000	97.896663
2418.000000	97.893450
2417.000000	97.891137
2416.000000	97.891803
2415.000000	97.897213
2414.000000	97.906438
2413.000000	97.916559
2412.000000	97.925467
2411.000000	97.932250
2410.000000	97.935568
2409.000000	97.934435
2408.000000	97.930657
2407.000000	97.927557
2406.000000	97.925650
2405.000000	97.921876
2404.000000	97.914003
2403.000000	97.903866
2402.000000	97.895819
2401.000000	97.893697
2400.000000	97.899122
2399.000000	97.910080
2398.000000	97.920830
2397.000000	97.925828
2396.000000	97.924785
2395.000000	97.922246
2394.000000	97.921785
2393.000000	97.922628
2392.000000	97.922063
2391.000000	97.919001
2390.000000	97.914634
2389.000000	97.911597
2388.000000	97.912862
2387.000000	97.918821
2386.000000	97.925637
2385.000000	97.928509
2384.000000	97.927103
2383.000000	97.926023
2382.000000	97.928869
2381.000000	97.934875
2380.000000	97.940712
2379.000000	97.943001
2378.000000	97.939192
2377.000000	97.929356
2376.000000	97.918521
2375.000000	97.913467
2374.000000	97.915881
2373.000000	97.921030
2372.000000	97.924308
2371.000000	97.925524
2370.000000	97.926234
2369.000000	97.927436
2368.000000	97.929553
2367.000000	97.931908
2366.000000	97.931075
2365.000000	97.923882
2364.000000	97.912090
2363.000000	97.898783
2362.000000	97.883402
2361.000000	97.865567
2360.000000	97.850308
2359.000000	97.847542
2358.000000	97.862382
2357.000000	97.887155
2356.000000	97.907419
2355.000000	97.911578
2354.000000	97.904669
2353.000000	97.899145
2352.000000	97.899641
2351.000000	97.901069
2350.000000	97.899564
2349.000000	97.895991
2348.000000	97.892147
2347.000000	97.890151
2346.000000	97.889097
2345.000000	97.883465
2344.000000	97.873083
2343.000000	97.864771
2342.000000	97.867068
2341.000000	97.879888
2340.000000	97.892247
2339.000000	97.892869
2338.000000	97.881600
2337.000000	97.868595
2336.000000	97.861727
2335.000000	97.862767
2334.000000	97.869481
2333.000000	97.880669
2332.000000	97.890991
2331.000000	97.896424
2330.000000	97.893785
2329.000000	97.885307
2328.000000	97.868137
2327.000000	97.839703
2326.000000	97.801911
2325.000000	97.767289
2324.000000	97.751729
2323.000000	97.762074
2322.000000	97.787488
2321.000000	97.808384
2320.000000	97.813718
2319.000000	97.811213
2318.000000	97.813124
2317.000000	97.824997
2316.000000	97.841054
2315.000000	97.855962
2314.000000	97.865957
2313.000000	97.871765
2312.000000	97.874472
2311.000000	97.877921
2310.000000	97.883412
2309.000000	97.890584
2308.000000	97.897548
2307.000000	97.904691
2306.000000	97.910984
2305.000000	97.913886
2304.000000	97.911847
2303.000000	97.908552
2302.000000	97.907992
2301.000000	97.910390
2300.000000	97.911925
2299.000000	97.911795
2298.000000	97.911488
2297.000000	97.913021
2296.000000	97.915212
2295.000000	97.916473
2294.000000	97.914875
2293.000000	97.910063
2292.000000	97.904312
2291.000000	97.902934
2290.000000	97.909344
2289.000000	97.920339
2288.000000	97.928010
2287.000000	97.926557
2286.000000	97.916939
2285.000000	97.905267
2284.000000	97.899205
2283.000000	97.903600
2282.000000	97.918141
2281.000000	97.937595
2280.000000	97.955475
2279.000000	97.966491
2278.000000	97.967376
2277.000000	97.959361
2276.000000	97.950723
2275.000000	97.952211
2274.000000	97.966307
2273.000000	97.984611
2272.000000	97.998624
2271.000000	98.010172
2270.000000	98.026471
2269.000000	98.048117
2268.000000	98.067481
2267.000000	98.078162
2266.000000	98.080467
2265.000000	98.077449
2264.000000	98.070374
2263.000000	98.059993
2262.000000	98.049143
2261.000000	98.040997
2260.000000	98.035376
2259.000000	98.028164
2258.000000	98.016182
2257.000000	98.002823
2256.000000	97.997358
2255.000000	98.005803
2254.000000	98.023009
2253.000000	98.037323
2252.000000	98.042775
2251.000000	98.043231
2250.000000	98.044454
2249.000000	98.047800
2248.000000	98.052564
2247.000000	98.059140
2246.000000	98.066266
2245.000000	98.070457
2244.000000	98.071939
2243.000000	98.076983
2242.000000	98.089566
2241.000000	98.103984
2240.000000	98.110613
2239.000000	98.107316
2238.000000	98.101012
2237.000000	98.099564
2236.000000	98.105819
2235.000000	98.118718
2234.000000	98.136628
2233.000000	98.158207
2232.000000	98.180158
2231.000000	98.194006
2230.000000	98.187963
2229.000000	98.158132
2228.000000	98.118587
2227.000000	98.093904
2226.000000	98.098520
2225.000000	98.126881
2224.000000	98.164157
2223.000000	98.199987
2222.000000	98.229207
2221.000000	98.247136
2220.000000	98.251801
2219.000000	98.246931
2218.000000	98.236926
2217.000000	98.222015
2216.000000	98.202873
2215.000000	98.186047
2214.000000	98.179778
2213.000000	98.186855
2212.000000	98.204791
2211.000000	98.229019
2210.000000	98.250982
2209.000000	98.258403
2208.000000	98.246926
2207.000000	98.230555
2206.000000	98.230939
2205.000000	98.252386
2204.000000	98.272610
2203.000000	98.263983
2202.000000	98.223375
2201.000000	98.177517
2200.000000	98.157500
2199.000000	98.170596
2198.000000	98.200189
2197.000000	98.229506
2196.000000	98.257430
2195.000000	98.288797
2194.000000	98.318957
2193.000000	98.337925
2192.000000	98.346590
2191.000000	98.356167
2190.000000	98.369948
2189.000000	98.377040
2188.000000	98.369082
2187.000000	98.355155
2186.000000	98.353084
2185.000000	98.370910
2184.000000	98.402793
2183.000000	98.439130
2182.000000	98.472020
2181.000000	98.490370
2180.000000	98.479447
2179.000000	98.433995
2178.000000	98.371520
2177.000000	98.325443
2176.000000	98.316297
2175.000000	98.330322
2174.000000	98.334487
2173.000000	98.313533
2172.000000	98.283326
2171.000000	98.266699
2170.000000	98.269030
2169.000000	98.281055
2168.000000	98.293938
2167.000000	98.304112
2166.000000	98.312961
2165.000000	98.330993
2164.000000	98.372511
2163.000000	98.433832
2162.000000	98.487211
2161.000000	98.511784
2160.000000	98.522932
2159.000000	98.550401
2158.000000	98.590470
2157.000000	98.609399
2156.000000	98.590962
2155.000000	98.551342
2154.000000	98.514250
2153.000000	98.492853
2152.000000	98.487014
2151.000000	98.482639
2150.000000	98.461224
2149.000000	98.423078
2148.000000	98.393503
2147.000000	98.392044
2146.000000	98.404271
2145.000000	98.399924
2144.000000	98.372503
2143.000000	98.341139
2142.000000	98.318218
2141.000000	98.297156
2140.000000	98.272733
2139.000000	98.254271
2138.000000	98.251724
2137.000000	98.262142
2136.000000	98.276233
2135.000000	98.289431
2134.000000	98.300854
2133.000000	98.308377
2132.000000	98.309515
2131.000000	98.302764
2130.000000	98.287258
2129.000000	98.265999
2128.000000	98.247788
2127.000000	98.239135
2126.000000	98.235359
2125.000000	98.226610
2124.000000	98.211617
2123.000000	98.197258
2122.000000	98.185612
2121.000000	98.170783
2120.000000	98.149829
2119.000000	98.127438
2118.000000	98.107355
2117.000000	98.087947
2116.000000	98.069766
2115.000000	98.059586
2114.000000	98.061594
2113.000000	98.069920
2112.000000	98.074583
2111.000000	98.071111
2110.000000	98.060816
2109.000000	98.046106
2108.000000	98.030152
2107.000000	98.018421
2106.000000	98.017081
2105.000000	98.030155
2104.000000	98.057346
2103.000000	98.091611
2102.000000	98.120064
2101.000000	98.132881
2100.000000	98.132435
2099.000000	98.129467
2098.000000	98.132037
2097.000000	98.142373
2096.000000	98.160364
2095.000000	98.180783
2094.000000	98.190147
2093.000000	98.178911
2092.000000	98.157194
2091.000000	98.145821
2090.000000	98.149816
2089.000000	98.151873
2088.000000	98.136188
2087.000000	98.109291
2086.000000	98.090399
2085.000000	98.089774
2084.000000	98.102632
2083.000000	98.117954
2082.000000	98.127025
2081.000000	98.127375
2080.000000	98.124540
2079.000000	98.127185
2078.000000	98.137479
2077.000000	98.148987
2076.000000	98.154861
2075.000000	98.153568
2074.000000	98.146459
2073.000000	98.137893
2072.000000	98.137819
2071.000000	98.154564
2070.000000	98.182203
2069.000000	98.203494
2068.000000	98.209492
2067.000000	98.208342
2066.000000	98.212270
2065.000000	98.224587
2064.000000	98.241526
2063.000000	98.257317
2062.000000	98.263994
2061.000000	98.256147
2060.000000	98.239885
2059.000000	98.227793
2058.000000	98.223438
2057.000000	98.222501
2056.000000	98.228592
2055.000000	98.250734
2054.000000	98.280416
2053.000000	98.291387
2052.000000	98.274363
2051.000000	98.255618
2050.000000	98.267606
2049.000000	98.309805
2048.000000	98.352317
2047.000000	98.374675
2046.000000	98.382454
2045.000000	98.386782
2044.000000	98.386577
2043.000000	98.372802
2042.000000	98.340628
2041.000000	98.299675
2040.000000	98.275428
2039.000000	98.290257
2038.000000	98.339426
2037.000000	98.395131
2036.000000	98.437715
2035.000000	98.471160
2034.000000	98.500827
2033.000000	98.516990
2032.000000	98.516293
2031.000000	98.518115
2030.000000	98.537924
2029.000000	98.560476
2028.000000	98.559424
2027.000000	98.535415
2026.000000	98.515496
2025.000000	98.521514
2024.000000	98.550556
2023.000000	98.581763
2022.000000	98.594921
2021.000000	98.586924
2020.000000	98.576458
2019.000000	98.583724
2018.000000	98.602573
2017.000000	98.604140
2016.000000	98.574254
2015.000000	98.531861
2014.000000	98.502729
2013.000000	98.494214
2012.000000	98.502142
2011.000000	98.525606
2010.000000	98.562997
2009.000000	98.602145
2008.000000	98.623631
2007.000000	98.611525
2006.000000	98.561454
2005.000000	98.491690
2004.000000	98.442935
2003.000000	98.446967
2002.000000	98.493283
2001.000000	98.534953
2000.000000	98.533986
1999.000000	98.491981
1998.000000	98.437993
1997.000000	98.404139
1996.000000	98.409901
1995.000000	98.448787
1994.000000	98.482663
1993.000000	98.467184
1992.000000	98.400483
1991.000000	98.333002
1990.000000	98.311124
1989.000000	98.331260
1988.000000	98.359710
1987.000000	98.374891
1986.000000	98.375603
1985.000000	98.364893
1984.000000	98.345457
1983.000000	98.323835
1982.000000	98.306240
1981.000000	98.295014
1980.000000	98.300306
1979.000000	98.341879
1978.000000	98.423461
1977.000000	98.511192
1976.000000	98.558467
1975.000000	98.552342
1974.000000	98.518544
1973.000000	98.491941
1972.000000	98.492497
1971.000000	98.517754
1970.000000	98.549094
1969.000000	98.570393
1968.000000	98.583411
1967.000000	98.597590
1966.000000	98.607363
1965.000000	98.597851
1964.000000	98.572433
1963.000000	98.554396
1962.000000	98.557848
1961.000000	98.571408
1960.000000	98.575294
1959.000000	98.561647
1958.000000	98.532779
1957.000000	98.495711
1956.000000	98.465410
1955.000000	98.457584
1954.000000	98.469670
1953.000000	98.482064
1952.000000	98.482893
1951.000000	98.482181
1950.000000	98.493560
1949.000000	98.513331
1948.000000	98.528800
1947.000000	98.534965
1946.000000	98.532753
1945.000000	98.520458
1944.000000	98.497539
1943.000000	98.472030
1942.000000	98.455210
1941.000000	98.452838
1940.000000	98.465096
1939.000000	98.487119
1938.000000	98.507126
1937.000000	98.512305
1936.000000	98.501612
1935.000000	98.486266
1934.000000	98.474116
1933.000000	98.462663
1932.000000	98.447846
1931.000000	98.433017
1930.000000	98.422193
1929.000000	98.413046
1928.000000	98.407618
1927.000000	98.414200
1926.000000	98.436846
1925.000000	98.464607
1924.000000	98.482425
1923.000000	98.488928
1922.000000	98.490965
1921.000000	98.489766
1920.000000	98.481263
1919.000000	98.466919
1918.000000	98.454974
1917.000000	98.446197
1916.000000	98.432637
1915.000000	98.411268
1914.000000	98.390283
1913.000000	98.384404
1912.000000	98.401551
1911.000000	98.435243
1910.000000	98.468552
1909.000000	98.486085
1908.000000	98.486674
1907.000000	98.478109
1906.000000	98.467894
1905.000000	98.458332
1904.000000	98.451474
1903.000000	98.452828
1902.000000	98.462128
1901.000000	98.471624
1900.000000	98.477287
1899.000000	98.481490
1898.000000	98.485836
1897.000000	98.486332
1896.000000	98.480903
1895.000000	98.476820
1894.000000	98.480953
1893.000000	98.489660
1892.000000	98.494468
1891.000000	98.493892
1890.000000	98.493880
1889.000000	98.497767
1888.000000	98.503965
1887.000000	98.511639
1886.000000	98.519306
1885.000000	98.523302
1884.000000	98.521226
1883.000000	98.514363
1882.000000	98.504339
1881.000000	98.492053
1880.000000	98.482529
1879.000000	98.482352
1878.000000	98.492852
1877.000000	98.507535
1876.000000	98.515822
1875.000000	98.513404
1874.000000	98.506294
1873.000000	98.503660
1872.000000	98.510596
1871.000000	98.527849
1870.000000	98.555234
1869.000000	98.588996
1868.000000	98.616141
1867.000000	98.623284
1866.000000	98.607408
1865.000000	98.575161
1864.000000	98.540522
1863.000000	98.517245
1862.000000	98.507506
1861.000000	98.504015
1860.000000	98.503349
1859.000000	98.507903
1858.000000	98.515627
1857.000000	98.519105
1856.000000	98.517105
1855.000000	98.517314
1854.000000	98.524819
1853.000000	98.533099
1852.000000	98.536664
1851.000000	98.534189
1850.000000	98.527157
1849.000000	98.523455
1848.000000	98.533173
1847.000000	98.557402
1846.000000	98.582171
1845.000000	98.592731
1844.000000	98.589904
1843.000000	98.587580
1842.000000	98.590339
1841.000000	98.586507
1840.000000	98.571462
1839.000000	98.557012
1838.000000	98.554142
1837.000000	98.554442
1836.000000	98.546072
1835.000000	98.536610
1834.000000	98.539140
1833.000000	98.550186
1832.000000	98.558233
1831.000000	98.562546
1830.000000	98.574916
1829.000000	98.593943
1828.000000	98.602345
1827.000000	98.592348
1826.000000	98.572682
1825.000000	98.560919
1824.000000	98.562475
1823.000000	98.567201
1822.000000	98.565856
1821.000000	98.559802
1820.000000	98.557231
1819.000000	98.560898
1818.000000	98.566537
1817.000000	98.567899
1816.000000	98.564698
1815.000000	98.563181
1814.000000	98.563886
1813.000000	98.563246
1812.000000	98.559508
1811.000000	98.555854
1810.000000	98.554584
1809.000000	98.548957
1808.000000	98.532654
1807.000000	98.508595
1806.000000	98.482896
1805.000000	98.456210
1804.000000	98.425235
1803.000000	98.391598
1802.000000	98.358079
1801.000000	98.327482
1800.000000	98.298521
1799.000000	98.270254
1798.000000	98.247039
1797.000000	98.233154
1796.000000	98.229148
1795.000000	98.231959
1794.000000	98.238753
1793.000000	98.258553
1792.000000	98.300625
1791.000000	98.353979
1790.000000	98.400836
1789.000000	98.432422
1788.000000	98.447516
1787.000000	98.452849
1786.000000	98.459565
1785.000000	98.473727
1784.000000	98.493993
1783.000000	98.517801
1782.000000	98.535412
1781.000000	98.542837
1780.000000	98.542544
1779.000000	98.539352
1778.000000	98.539567
1777.000000	98.546346
1776.000000	98.564406
1775.000000	98.590572
1774.000000	98.611671
1773.000000	98.622405
1772.000000	98.625230
1771.000000	98.609999
1770.000000	98.563320
1769.000000	98.481956
1768.000000	98.382294
1767.000000	98.303273
1766.000000	98.262202
1765.000000	98.231043
1764.000000	98.168789
1763.000000	98.062124
1762.000000	97.924069
1761.000000	97.772034
1760.000000	97.606647
1759.000000	97.410365
1758.000000	97.150553
1757.000000	96.809838
1756.000000	96.430753
1755.000000	96.074854
1754.000000	95.738819
1753.000000	95.361532
1752.000000	94.903175
1751.000000	94.397516
1750.000000	93.912658
1749.000000	93.460346
1748.000000	93.029309
1747.000000	92.642685
1746.000000	92.314231
1745.000000	92.031354
1744.000000	91.790278
1743.000000	91.610481
1742.000000	91.496904
1741.000000	91.426809
1740.000000	91.398290
1739.000000	91.442984
1738.000000	91.554532
1737.000000	91.684666
1736.000000	91.819855
1735.000000	92.031131
1734.000000	92.395306
1733.000000	92.813631
1732.000000	93.167172
1731.000000	93.473230
1730.000000	93.777456
1729.000000	94.092060
1728.000000	94.408924
1727.000000	94.720982
1726.000000	95.021593
1725.000000	95.310601
1724.000000	95.589627
1723.000000	95.856926
1722.000000	96.099439
1721.000000	96.300814
1720.000000	96.469995
1719.000000	96.646859
1718.000000	96.862936
1717.000000	97.066728
1716.000000	97.185053
1715.000000	97.225617
1714.000000	97.224180
1713.000000	97.202282
1712.000000	97.178170
1711.000000	97.165888
1710.000000	97.164274
1709.000000	97.162505
1708.000000	97.155719
1707.000000	97.140586
1706.000000	97.116382
1705.000000	97.088523
1704.000000	97.067705
1703.000000	97.041929
1702.000000	96.962310
1701.000000	96.805355
1700.000000	96.662357
1699.000000	96.633153
1698.000000	96.640134
1697.000000	96.549131
1696.000000	96.333010
1695.000000	96.098916
1694.000000	95.941425
1693.000000	95.831057
1692.000000	95.712378
1691.000000	95.582641
1690.000000	95.460987
1689.000000	95.358367
1688.000000	95.282866
1687.000000	95.225905
1686.000000	95.151091
1685.000000	95.015429
1684.000000	94.825919
1683.000000	94.641663
1682.000000	94.481640
1681.000000	94.317941
1680.000000	94.139807
1679.000000	93.976773
1678.000000	93.832453
1677.000000	93.669351
1676.000000	93.464990
1675.000000	93.265619
1674.000000	93.125284
1673.000000	93.024381
1672.000000	92.905836
1671.000000	92.745500
1670.000000	92.551597
1669.000000	92.335955
1668.000000	92.124083
1667.000000	91.943573
1666.000000	91.787051
1665.000000	91.622287
1664.000000	91.427908
1663.000000	91.220079
1662.000000	91.023125
1661.000000	90.837639
1660.000000	90.655684
1659.000000	90.480079
1658.000000	90.327787
1657.000000	90.210048
1656.000000	90.117121
1655.000000	90.014872
1654.000000	89.884995
1653.000000	89.733360
1652.000000	89.600222
1651.000000	89.534349
1650.000000	89.498971
1649.000000	89.444021
1648.000000	89.388156
1647.000000	89.358904
1646.000000	89.346814
1645.000000	89.321540
1644.000000	89.291717
1643.000000	89.272320
1642.000000	89.266052
1641.000000	89.274325
1640.000000	89.301172
1639.000000	89.344609
1638.000000	89.397591
1637.000000	89.453078
1636.000000	89.515547
1635.000000	89.565884
1634.000000	89.591123
1633.000000	89.606847
1632.000000	89.618774
1631.000000	89.638874
1630.000000	89.684658
1629.000000	89.765443
1628.000000	89.874929
1627.000000	89.994200
1626.000000	90.106163
1625.000000	90.215002
1624.000000	90.344924
1623.000000	90.511464
1622.000000	90.687504
1621.000000	90.841577
1620.000000	90.974890
1619.000000	91.103063
1618.000000	91.251201
1617.000000	91.441681
1616.000000	91.648604
1615.000000	91.814023
1614.000000	91.926842
1613.000000	92.015005
1612.000000	92.111510
1611.000000	92.234826
1610.000000	92.375339
1609.000000	92.514484
1608.000000	92.644604
1607.000000	92.764756
1606.000000	92.869452
1605.000000	92.961383
1604.000000	93.051281
1603.000000	93.138154
1602.000000	93.210757
1601.000000	93.265602
1600.000000	93.311814
1599.000000	93.356194
1598.000000	93.397400
1597.000000	93.436774
1596.000000	93.479319
1595.000000	93.522280
1594.000000	93.554798
1593.000000	93.573998
1592.000000	93.588138
1591.000000	93.601134
1590.000000	93.606782
1589.000000	93.601484
1588.000000	93.590031
1587.000000	93.575446
1586.000000	93.555719
1585.000000	93.530091
1584.000000	93.504468
1583.000000	93.473720
1582.000000	93.428109
1581.000000	93.378005
1580.000000	93.346254
1579.000000	93.334644
1578.000000	93.322200
1577.000000	93.293083
1576.000000	93.247103
1575.000000	93.187876
1574.000000	93.119280
1573.000000	93.046930
1572.000000	92.971697
1571.000000	92.893597
1570.000000	92.813810
1569.000000	92.730395
1568.000000	92.648329
1567.000000	92.563050
1566.000000	92.459341
1565.000000	92.339974
1564.000000	92.237615
1563.000000	92.167821
1562.000000	92.105449
1561.000000	92.013462
1560.000000	91.884929
1559.000000	91.754144
1558.000000	91.594141
1557.000000	91.413702
1556.000000	91.247666
1555.000000	91.064127
1554.000000	90.866941
1553.000000	90.689689
1552.000000	90.544588
1551.000000	90.407747
1550.000000	90.267374
1549.000000	90.132382
1548.000000	90.016544
1547.000000	89.916350
1546.000000	89.823696
1545.000000	89.750239
1544.000000	89.710664
1543.000000	89.693129
1542.000000	89.677261
1541.000000	89.659727
1540.000000	89.642239
1539.000000	89.596380
1538.000000	89.529474
1537.000000	89.474845
1536.000000	89.428500
1535.000000	89.397398
1534.000000	89.401548
1533.000000	89.440237
1532.000000	89.477571
1531.000000	89.498536
1530.000000	89.513731
1529.000000	89.531692
1528.000000	89.561575
1527.000000	89.608283
1526.000000	89.663392
1525.000000	89.716410
1524.000000	89.763297
1523.000000	89.801361
1522.000000	89.830242
1521.000000	89.841945
1520.000000	89.836537
1519.000000	89.829121
1518.000000	89.819759
1517.000000	89.806988
1516.000000	89.796405
1515.000000	89.793043
1514.000000	89.793867
1513.000000	89.799374
1512.000000	89.828359
1511.000000	89.902823
1510.000000	90.013282
1509.000000	90.133771
1508.000000	90.257240
1507.000000	90.381647
1506.000000	90.423062
1505.000000	90.380162
1504.000000	90.347620
1503.000000	90.333192
1502.000000	90.324360
1501.000000	90.321019
1500.000000	90.329408
1499.000000	90.352139
1498.000000	90.375317
1497.000000	90.377376
1496.000000	90.357722
1495.000000	90.344157
1494.000000	90.343096
1493.000000	90.334013
1492.000000	90.309175
1491.000000	90.288756
1490.000000	90.282874
1489.000000	90.258979
1488.000000	90.192149
1487.000000	90.099051
1486.000000	89.996546
1485.000000	89.883784
1484.000000	89.766686
1483.000000	89.647387
1482.000000	89.518349
1481.000000	89.373001
1480.000000	89.219466
1479.000000	89.066462
1478.000000	88.905841
1477.000000	88.731390
1476.000000	88.555671
1475.000000	88.387157
1474.000000	88.185042
1473.000000	87.895639
1472.000000	87.541039
1471.000000	87.207869
1470.000000	86.925549
1469.000000	86.667911
1468.000000	86.422787
1467.000000	86.200563
1466.000000	86.000626
1465.000000	85.814810
1464.000000	85.653247
1463.000000	85.526483
1462.000000	85.423062
1461.000000	85.323404
1460.000000	85.224247
1459.000000	85.116922
1458.000000	84.958098
1457.000000	84.711432
1456.000000	84.463118
1455.000000	84.307436
1454.000000	84.203224
1453.000000	84.093888
1452.000000	83.984974
1451.000000	83.898721
1450.000000	83.828327
1449.000000	83.751398
1448.000000	83.669480
1447.000000	83.601900
1446.000000	83.541583
1445.000000	83.474230
1444.000000	83.400485
1443.000000	83.325319
1442.000000	83.249058
1441.000000	83.170793
1440.000000	83.092709
1439.000000	83.003434
1438.000000	82.879137
1437.000000	82.717790
1436.000000	82.574615
1435.000000	82.497809
1434.000000	82.457831
1433.000000	82.409047
1432.000000	82.346080
1431.000000	82.280840
1430.000000	82.202008
1429.000000	82.087842
1428.000000	81.949351
1427.000000	81.818661
1426.000000	81.701800
1425.000000	81.598767
1424.000000	81.528748
1423.000000	81.498227
1422.000000	81.475370
1421.000000	81.425971
1420.000000	81.358756
1419.000000	81.313009
1418.000000	81.292292
1417.000000	81.271586
1416.000000	81.254849
1415.000000	81.258800
1414.000000	81.286156
1413.000000	81.334645
1412.000000	81.410096
1411.000000	81.515264
1410.000000	81.637135
1409.000000	81.762544
1408.000000	81.893952
1407.000000	82.038981
1406.000000	82.191212
1405.000000	82.341908
1404.000000	82.490378
1403.000000	82.629563
1402.000000	82.745001
1401.000000	82.834782
1400.000000	82.921242
1399.000000	83.024295
1398.000000	83.132260
1397.000000	83.226667
1396.000000	83.312753
1395.000000	83.404628
1394.000000	83.500400
1393.000000	83.598615
1392.000000	83.706752
1391.000000	83.822641
1390.000000	83.936593
1389.000000	84.051942
1388.000000	84.186729
1387.000000	84.344396
1386.000000	84.498316
1385.000000	84.630318
1384.000000	84.750272
1383.000000	84.871091
1382.000000	84.995968
1381.000000	85.125383
1380.000000	85.266168
1379.000000	85.423799
1378.000000	85.595583
1377.000000	85.780785
1376.000000	85.987166
1375.000000	86.215564
1374.000000	86.442038
1373.000000	86.638612
1372.000000	86.803792
1371.000000	86.950821
1370.000000	87.087265
1369.000000	87.221446
1368.000000	87.360094
1367.000000	87.497622
1366.000000	87.625712
1365.000000	87.749693
1364.000000	87.882333
1363.000000	88.019138
1362.000000	88.136097
1361.000000	88.224428
1360.000000	88.299104
1359.000000	88.369763
1358.000000	88.434388
1357.000000	88.495754
1356.000000	88.562082
1355.000000	88.633849
1354.000000	88.704388
1353.000000	88.772630
1352.000000	88.841520
1351.000000	88.909285
1350.000000	88.969631
1349.000000	89.022744
1348.000000	89.070422
1347.000000	89.105487
1346.000000	89.119342
1345.000000	89.115630
1344.000000	89.105210
1343.000000	89.090419
1342.000000	89.065980
1341.000000	89.030706
1340.000000	88.986611
1339.000000	88.930737
1338.000000	88.863003
1337.000000	88.797781
1336.000000	88.753211
1335.000000	88.736865
1334.000000	88.749078
1333.000000	88.791529
1332.000000	88.862437
1331.000000	88.949714
1330.000000	89.039739
1329.000000	89.130277
1328.000000	89.225050
1327.000000	89.320905
1326.000000	89.410460
1325.000000	89.492706
1324.000000	89.569532
1323.000000	89.637855
1322.000000	89.696469
1321.000000	89.753482
1320.000000	89.816201
1319.000000	89.879718
1318.000000	89.937225
1317.000000	89.994689
1316.000000	90.062177
1315.000000	90.138597
1314.000000	90.217073
1313.000000	90.297505
1312.000000	90.381694
1311.000000	90.464276
1310.000000	90.540577
1309.000000	90.616507
1308.000000	90.698715
1307.000000	90.782863
1306.000000	90.861712
1305.000000	90.937885
1304.000000	91.016693
1303.000000	91.095107
1302.000000	91.169493
1301.000000	91.245450
1300.000000	91.328237
1299.000000	91.411683
1298.000000	91.488470
1297.000000	91.561780
1296.000000	91.635023
1295.000000	91.698979
1294.000000	91.743374
1293.000000	91.772306
1292.000000	91.795746
1291.000000	91.814699
1290.000000	91.826015
1289.000000	91.833532
1288.000000	91.841731
1287.000000	91.846756
1286.000000	91.845618
1285.000000	91.845492
1284.000000	91.852542
1283.000000	91.861007
1282.000000	91.864062
1281.000000	91.865862
1280.000000	91.870506
1279.000000	91.868853
1278.000000	91.849435
1277.000000	91.813731
1276.000000	91.769081
1275.000000	91.713956
1274.000000	91.642598
1273.000000	91.555664
1272.000000	91.454492
1271.000000	91.333629
1270.000000	91.189615
1269.000000	91.030067
1268.000000	90.863540
1267.000000	90.687749
1266.000000	90.498653
1265.000000	90.302465
1264.000000	90.108818
1263.000000	89.919554
1262.000000	89.733985
1261.000000	89.557712
1260.000000	89.395283
1259.000000	89.241074
1258.000000	89.088962
1257.000000	88.946821
1256.000000	88.830114
1255.000000	88.746354
1254.000000	88.693048
1253.000000	88.664153
1252.000000	88.649931
1251.000000	88.634283
1250.000000	88.604090
1249.000000	88.559769
1248.000000	88.509441
1247.000000	88.456997
1246.000000	88.402724
1245.000000	88.349978
1244.000000	88.302650
1243.000000	88.260389
1242.000000	88.224323
1241.000000	88.202499
1240.000000	88.202177
1239.000000	88.222116
1238.000000	88.258657
1237.000000	88.314562
1236.000000	88.392528
1235.000000	88.486445
1234.000000	88.589078
1233.000000	88.701877
1232.000000	88.829407
1231.000000	88.970179
1230.000000	89.123379
1229.000000	89.298586
1228.000000	89.505289
1227.000000	89.738712
1226.000000	89.985392
1225.000000	90.236636
1224.000000	90.486265
1223.000000	90.722433
1222.000000	90.935429
1221.000000	91.127415
1220.000000	91.303602
1219.000000	91.460241
1218.000000	91.593449
1217.000000	91.710016
1216.000000	91.816998
1215.000000	91.909556
1214.000000	91.980134
1213.000000	92.033204
1212.000000	92.077646
1211.000000	92.112390
1210.000000	92.131818
1209.000000	92.136701
1208.000000	92.130193
1207.000000	92.110999
1206.000000	92.081083
1205.000000	92.051553
1204.000000	92.029228
1203.000000	92.006641
1202.000000	91.975631
1201.000000	91.942140
1200.000000	91.916709
1199.000000	91.898969
1198.000000	91.882785
1197.000000	91.868419
1196.000000	91.858057
1195.000000	91.846638
1194.000000	91.828116
1193.000000	91.804326
1192.000000	91.778292
1191.000000	91.746145
1190.000000	91.704921
1189.000000	91.659810
1188.000000	91.614527
1187.000000	91.562977
1186.000000	91.498981
1185.000000	91.425966
1184.000000	91.347331
1183.000000	91.256850
1182.000000	91.148644
1181.000000	91.027697
1180.000000	90.901760
1179.000000	90.770831
1178.000000	90.633983
1177.000000	90.497030
1176.000000	90.363729
1175.000000	90.229352
1174.000000	90.091666
1173.000000	89.959140
1172.000000	89.838911
1171.000000	89.726170
1170.000000	89.614454
1169.000000	89.507306
1168.000000	89.410400
1167.000000	89.320993
1166.000000	89.236500
1165.000000	89.164488
1164.000000	89.113954
1163.000000	89.085172
1162.000000	89.076712
1161.000000	89.095118
1160.000000	89.145623
1159.000000	89.222020
1158.000000	89.318333
1157.000000	89.440361
1156.000000	89.595585
1155.000000	89.778186
1154.000000	89.976841
1153.000000	90.190896
1152.000000	90.424547
1151.000000	90.673999
1150.000000	90.932180
1149.000000	91.198709
1148.000000	91.473429
1147.000000	91.748028
1146.000000	92.016597
1145.000000	92.284310
1144.000000	92.553671
1143.000000	92.812972
1142.000000	93.051523
1141.000000	93.274273
1140.000000	93.487901
1139.000000	93.685686
1138.000000	93.858615
1137.000000	94.010289
1136.000000	94.146210
1135.000000	94.260689
1134.000000	94.349107
1133.000000	94.419160
1132.000000	94.478460
1131.000000	94.522310
1130.000000	94.545303
1129.000000	94.553013
1128.000000	94.550343
1127.000000	94.533731
1126.000000	94.504564
1125.000000	94.474027
1124.000000	94.444976
1123.000000	94.404961
1122.000000	94.348383
1121.000000	94.286941
1120.000000	94.225353
1119.000000	94.147196
1118.000000	94.037794
1117.000000	93.903589
1116.000000	93.753958
1115.000000	93.582359
1114.000000	93.383438
1113.000000	93.172851
1112.000000	92.974842
1111.000000	92.802954
1110.000000	92.665835
1109.000000	92.575263
1108.000000	92.533898
1107.000000	92.526574
1106.000000	92.536222
1105.000000	92.558702
1104.000000	92.590538
1103.000000	92.618199
1102.000000	92.630892
1101.000000	92.629178
1100.000000	92.611578
1099.000000	92.568657
1098.000000	92.502909
1097.000000	92.433976
1096.000000	92.373408
1095.000000	92.313359
1094.000000	92.251891
1093.000000	92.208027
1092.000000	92.197839
1091.000000	92.215842
1090.000000	92.255159
1089.000000	92.323573
1088.000000	92.422411
1087.000000	92.531733
1086.000000	92.635476
1085.000000	92.744081
1084.000000	92.871360
1083.000000	93.007406
1082.000000	93.135248
1081.000000	93.256368
1080.000000	93.379336
1079.000000	93.499085
1078.000000	93.608853
1077.000000	93.716481
1076.000000	93.829430
1075.000000	93.938009
1074.000000	94.030898
1073.000000	94.111372
1072.000000	94.181463
1071.000000	94.229546
1070.000000	94.249622
1069.000000	94.254807
1068.000000	94.255740
1067.000000	94.245003
1066.000000	94.219188
1065.000000	94.194643
1064.000000	94.183145
1063.000000	94.173327
1062.000000	94.153621
1061.000000	94.133665
1060.000000	94.124709
1059.000000	94.120164
1058.000000	94.114406
1057.000000	94.120292
1056.000000	94.148117
1055.000000	94.186228
1054.000000	94.222428
1053.000000	94.264553
1052.000000	94.320546
1051.000000	94.376999
1050.000000	94.420046
1049.000000	94.457559
1048.000000	94.499066
1047.000000	94.534899
1046.000000	94.555903
1045.000000	94.571749
1044.000000	94.588740
1043.000000	94.592214
1042.000000	94.570381
1041.000000	94.536070
1040.000000	94.503451
1039.000000	94.462674
1038.000000	94.398870
1037.000000	94.317985
1036.000000	94.233818
1035.000000	94.147625
1034.000000	94.060056
1033.000000	93.984939
1032.000000	93.931352
1031.000000	93.889064
1030.000000	93.850383
1029.000000	93.829002
1028.000000	93.837917
1027.000000	93.866007
1026.000000	93.896009
1025.000000	93.927946
1024.000000	93.967396
1023.000000	94.007770
1022.000000	94.043775
1021.000000	94.084805
1020.000000	94.136401
1019.000000	94.186839
1018.000000	94.229047
1017.000000	94.276728
1016.000000	94.340203
1015.000000	94.407174
1014.000000	94.466246
1013.000000	94.529459
1012.000000	94.611033
1011.000000	94.704064
1010.000000	94.797176
1009.000000	94.894599
1008.000000	94.999421
1007.000000	95.096860
1006.000000	95.175363
1005.000000	95.245400
1004.000000	95.317957
1003.000000	95.383101
1002.000000	95.430745
1001.000000	95.472458
1000.000000	95.522468
999.000000	95.574026
998.000000	95.615278
997.000000	95.651101
996.000000	95.689142
995.000000	95.722117
994.000000	95.743213
993.000000	95.762229
992.000000	95.787234
991.000000	95.807716
990.000000	95.813942
989.000000	95.815789
988.000000	95.823485
987.000000	95.828466
986.000000	95.820945
985.000000	95.808768
984.000000	95.800026
983.000000	95.785929
982.000000	95.760235
981.000000	95.736697
980.000000	95.727510
979.000000	95.721027
978.000000	95.700470
977.000000	95.667627
976.000000	95.630490
975.000000	95.585123
974.000000	95.529422
973.000000	95.477390
972.000000	95.440946
971.000000	95.413192
970.000000	95.386799
969.000000	95.371750
968.000000	95.377540
967.000000	95.395205
966.000000	95.414741
965.000000	95.443357
964.000000	95.487646
963.000000	95.536059
962.000000	95.576809
961.000000	95.617929
960.000000	95.671105
959.000000	95.732199
958.000000	95.795078
957.000000	95.867309
956.000000	95.954911
955.000000	96.047639
954.000000	96.136213
953.000000	96.227077
952.000000	96.324703
951.000000	96.417129
950.000000	96.495802
949.000000	96.570760
948.000000	96.650791
947.000000	96.727251
946.000000	96.792706
945.000000	96.854565
944.000000	96.915524
943.000000	96.962784
942.000000	96.993114
941.000000	97.025631
940.000000	97.071628
939.000000	97.115830
938.000000	97.144681
937.000000	97.170875
936.000000	97.209434
935.000000	97.253144
934.000000	97.291230
933.000000	97.330516
932.000000	97.377551
931.000000	97.421135
930.000000	97.452866
929.000000	97.483857
928.000000	97.522903
927.000000	97.559507
926.000000	97.587495
925.000000	97.621382
924.000000	97.670373
923.000000	97.718651
922.000000	97.752670
921.000000	97.784568
920.000000	97.827885
919.000000	97.872816
918.000000	97.907371
917.000000	97.941417
916.000000	97.987089
915.000000	98.036753
914.000000	98.080567
913.000000	98.125955
912.000000	98.179098
911.000000	98.228836
910.000000	98.267517
909.000000	98.306306
908.000000	98.350715
907.000000	98.385481
906.000000	98.403020
905.000000	98.421196
904.000000	98.452228
903.000000	98.479457
902.000000	98.487812
901.000000	98.491290
900.000000	98.508049
899.000000	98.531737
898.000000	98.551071
897.000000	98.572135
896.000000	98.599364
895.000000	98.618464
894.000000	98.621089
893.000000	98.622214
892.000000	98.629802
891.000000	98.621227
890.000000	98.566708
889.000000	98.447521
888.000000	98.231602
887.000000	97.867003
886.000000	97.337508
885.000000	96.702017
884.000000	96.046952
883.000000	95.415740
882.000000	94.794918
881.000000	94.142942
880.000000	93.412631
879.000000	92.580980
878.000000	91.690635
877.000000	90.849401
876.000000	90.167720
875.000000	89.711726
874.000000	89.526822
873.000000	89.659550
872.000000	90.125375
871.000000	90.864570
870.000000	91.761559
869.000000	92.700538
868.000000	93.585736
867.000000	94.346375
866.000000	94.959412
865.000000	95.455381
864.000000	95.872350
863.000000	96.220760
862.000000	96.504779
861.000000	96.746903
860.000000	96.963632
859.000000	97.143972
858.000000	97.280830
857.000000	97.395989
856.000000	97.509047
855.000000	97.610221
854.000000	97.687915
853.000000	97.751126
852.000000	97.795347
851.000000	97.783351
850.000000	97.700909
849.000000	97.604479
848.000000	97.574321
847.000000	97.634856
846.000000	97.750079
845.000000	97.875407
844.000000	97.982175
843.000000	98.054033
842.000000	98.095432
841.000000	98.131877
840.000000	98.176717
839.000000	98.212326
838.000000	98.221875
837.000000	98.216921
836.000000	98.212735
835.000000	98.203961
834.000000	98.187382
833.000000	98.181654
832.000000	98.198725
831.000000	98.222596
830.000000	98.241503
829.000000	98.273286
828.000000	98.330688
827.000000	98.389546
826.000000	98.423354
825.000000	98.442029
824.000000	98.465255
823.000000	98.485954
822.000000	98.493767
821.000000	98.504126
820.000000	98.531575
819.000000	98.561634
818.000000	98.576800
817.000000	98.583804
816.000000	98.591413
815.000000	98.590083
814.000000	98.577382
813.000000	98.574756
812.000000	98.593810
811.000000	98.613306
810.000000	98.612843
809.000000	98.601689
808.000000	98.592373
807.000000	98.577209
806.000000	98.553627
805.000000	98.539745
804.000000	98.540376
803.000000	98.530883
802.000000	98.499305
801.000000	98.469456
800.000000	98.457401
799.000000	98.441753
798.000000	98.405260
797.000000	98.368742
796.000000	98.353736
795.000000	98.346754
794.000000	98.330652
793.000000	98.316607
792.000000	98.314747
791.000000	98.307014
790.000000	98.279728
789.000000	98.250920
788.000000	98.235550
787.000000	98.215666
786.000000	98.174794
785.000000	98.131344
784.000000	98.108119
783.000000	98.097437
782.000000	98.084176
781.000000	98.074244
780.000000	98.072521
779.000000	98.061694
778.000000	98.031372
777.000000	98.000825
776.000000	97.986189
775.000000	97.972668
774.000000	97.944619
773.000000	97.914768
772.000000	97.897795
771.000000	97.883733
770.000000	97.862704
769.000000	97.847359
768.000000	97.845658
767.000000	97.840284
766.000000	97.819317
765.000000	97.797355
764.000000	97.783171
763.000000	97.758565
762.000000	97.714197
761.000000	97.672183
760.000000	97.647121
759.000000	97.618597
758.000000	97.569960
757.000000	97.519526
756.000000	97.484587
755.000000	97.449458
754.000000	97.400516
753.000000	97.359336
752.000000	97.346842
751.000000	97.345938
750.000000	97.332596
749.000000	97.315722
748.000000	97.313138
747.000000	97.316339
746.000000	97.310747
745.000000	97.304804
744.000000	97.308434
743.000000	97.308858
742.000000	97.296182
741.000000	97.285263
740.000000	97.284754
739.000000	97.272601
738.000000	97.230769
737.000000	97.175358
736.000000	97.126036
735.000000	97.074199
734.000000	97.008573
733.000000	96.941330
732.000000	96.881743
731.000000	96.814240
730.000000	96.730379
729.000000	96.651952
728.000000	96.596876
727.000000	96.553125
726.000000	96.508872
725.000000	96.476334
724.000000	96.458712
723.000000	96.427791
722.000000	96.360462
721.000000	96.266109
720.000000	96.151277
719.000000	95.989130
718.000000	95.748613
717.000000	95.416359
716.000000	94.972875
715.000000	94.407280
714.000000	93.798924
713.000000	93.331936
712.000000	93.166741
711.000000	93.307224
710.000000	93.624377
709.000000	93.974456
708.000000	94.263143
707.000000	94.446655
706.000000	94.532075
705.000000	94.566961
704.000000	94.589112
703.000000	94.593717
702.000000	94.569021
701.000000	94.533369
700.000000	94.505833
699.000000	94.476382
698.000000	94.434320
697.000000	94.397367
696.000000	94.380713
695.000000	94.367418
694.000000	94.344772
693.000000	94.335238
692.000000	94.355810
691.000000	94.383863
690.000000	94.395578
689.000000	94.403372
688.000000	94.421601
687.000000	94.430149
686.000000	94.415746
685.000000	94.404426
684.000000	94.412506
683.000000	94.410196
682.000000	94.374604
681.000000	94.335197
680.000000	94.325155
679.000000	94.329986
678.000000	94.326301
677.000000	94.325868
676.000000	94.346484
675.000000	94.374073
674.000000	94.394852
673.000000	94.427557
672.000000	94.486872
671.000000	94.555203
670.000000	94.622036
669.000000	94.714933
668.000000	94.823330
667.000000	94.852685
666.000000	94.826404
665.000000	94.806038
664.000000	94.809453
663.000000	94.824920
662.000000	94.838229
661.000000	94.858541
660.000000	94.892575
659.000000	94.917291
658.000000	94.913014
657.000000	94.891434
656.000000	94.868918
655.000000	94.835349
654.000000	94.779148
653.000000	94.714908
652.000000	94.656458
651.000000	94.589486
650.000000	94.501632
649.000000	94.411486
648.000000	94.337070
647.000000	94.264810
646.000000	94.177064
645.000000	94.084212
644.000000	93.997214
643.000000	93.900650
642.000000	93.786330
641.000000	93.679089
640.000000	93.598409
639.000000	93.526810
638.000000	93.446840
637.000000	93.377748
636.000000	93.344616
635.000000	93.337910
634.000000	93.339098
633.000000	93.354878
632.000000	93.389876
631.000000	93.417620
630.000000	93.417451
629.000000	93.411179
628.000000	93.425920
627.000000	93.449006
626.000000	93.452154
625.000000	93.435573
624.000000	93.408720
623.000000	93.359633
622.000000	93.282689
621.000000	93.207560
620.000000	93.161427
619.000000	93.130058
618.000000	93.088397
617.000000	93.040470
616.000000	92.995244
615.000000	92.938408
614.000000	92.866321
613.000000	92.811135
612.000000	92.797715
611.000000	92.807884
610.000000	92.820977
609.000000	92.851454
608.000000	92.912713
607.000000	92.982860
606.000000	93.045877
605.000000	93.131535
604.000000	93.270983
603.000000	93.448400
602.000000	93.634885
601.000000	93.828333
600.000000	94.021846
599.000000	94.182485
598.000000	94.302726
597.000000	94.425220
596.000000	94.574928
595.000000	94.717576
594.000000	94.820108
593.000000	94.901882
592.000000	94.982913
591.000000	95.039731
590.000000	95.063525
589.000000	95.098746
588.000000	95.171578
587.000000	95.238523
586.000000	95.255613
585.000000	95.245959
584.000000	95.249791
583.000000	95.257774
582.000000	95.248956
581.000000	95.242449
580.000000	95.259796
579.000000	95.284475
578.000000	95.304456
577.000000	95.341541
576.000000	95.397023
575.000000	95.428171
574.000000	95.424252
573.000000	95.435994
572.000000	95.484875
571.000000	95.520078
570.000000	95.507620
569.000000	95.494497
568.000000	95.524092
567.000000	95.562082
566.000000	95.567632
565.000000	95.563439
564.000000	95.574091
563.000000	95.570779
562.000000	95.538670
561.000000	95.524105
560.000000	95.551859
559.000000	95.568184
558.000000	95.533069
557.000000	95.495038
556.000000	95.508131
555.000000	95.544174
554.000000	95.557423
553.000000	95.566042
552.000000	95.597544
551.000000	95.625188
550.000000	95.628127
549.000000	95.647034
548.000000	95.706546
547.000000	95.753213
546.000000	95.741504
545.000000	95.715172
544.000000	95.726104
543.000000	95.749824
542.000000	95.751540
541.000000	95.758061
540.000000	95.792110
539.000000	95.808653
538.000000	95.770466
537.000000	95.718993
536.000000	95.700083
535.000000	95.686543
534.000000	95.646317
533.000000	95.611282
532.000000	95.606158
531.000000	95.583724
530.000000	95.509427
529.000000	95.437192
528.000000	95.428505
527.000000	95.465929
526.000000	95.507566
525.000000	95.562935
524.000000	95.639282
523.000000	95.688269
522.000000	95.682303
521.000000	95.671308
520.000000	95.700561
519.000000	95.734795
518.000000	95.729986
517.000000	95.717139
516.000000	95.732835
515.000000	95.748888
514.000000	95.746582
513.000000	95.768628
512.000000	95.838736
511.000000	95.909206
510.000000	95.946288
509.000000	95.985759
508.000000	96.045004
507.000000	96.071372
506.000000	96.048484
505.000000	96.049811
504.000000	96.116094
503.000000	96.187241
502.000000	96.217958
501.000000	96.260753
500.000000	96.347846
499.000000	96.415884
498.000000	96.427110
497.000000	96.439018
496.000000	96.482640
495.000000	96.486383
494.000000	96.409699
493.000000	96.341795
492.000000	96.364387
491.000000	96.423962
490.000000	96.448438
489.000000	96.474513
488.000000	96.546356
487.000000	96.607905
486.000000	96.605897
485.000000	96.600973
484.000000	96.661129
483.000000	96.733550
482.000000	96.750434
481.000000	96.755291
480.000000	96.809638
479.000000	96.881148
478.000000	96.925338
477.000000	96.977020
476.000000	97.060940
475.000000	97.114524
474.000000	97.103846
473.000000	97.120547
472.000000	97.234406
471.000000	97.349235
470.000000	97.369851
469.000000	97.350278
468.000000	97.359823
467.000000	97.365439
466.000000	97.338817
465.000000	97.348921
464.000000	97.433406
463.000000	97.512962
462.000000	97.541042
461.000000	97.613312
460.000000	97.806258
459.000000	98.028901
458.000000	98.145622
457.000000	98.176367
456.000000	98.220165
455.000000	98.275004
454.000000	98.327400
453.000000	98.431415
452.000000	98.576471
451.000000	98.637771
450.000000	98.590180
