PE IR       SUBTECH     SPECTRUM    ASCII       PEDS        4.00        
   -1
3C-YYX-F012_1.ASC
23/09/07
11:02:20.00
23/09/07
11:30:09.00
uco
Sample 012 By uco Date Thursday, September 07 2023
450.000000
#HDR
-1
-1
#GR
cm-1
%T
1.0
0.0
4000.000000
-1.000000
3551
8
98.897089
83.610137
#DATA
4000.000000	98.839614
3999.000000	98.836953
3998.000000	98.831902
3997.000000	98.826181
3996.000000	98.822171
3995.000000	98.821742
3994.000000	98.825014
3993.000000	98.830116
3992.000000	98.834281
3991.000000	98.835655
3990.000000	98.834327
3989.000000	98.831786
3988.000000	98.829552
3987.000000	98.828086
3986.000000	98.826793
3985.000000	98.825047
3984.000000	98.823278
3983.000000	98.822941
3982.000000	98.824976
3981.000000	98.828156
3980.000000	98.829408
3979.000000	98.826233
3978.000000	98.819049
3977.000000	98.811173
3976.000000	98.806427
3975.000000	98.806508
3974.000000	98.810172
3973.000000	98.814385
3972.000000	98.816325
3971.000000	98.815020
3970.000000	98.811766
3969.000000	98.809070
3968.000000	98.808636
3967.000000	98.810059
3966.000000	98.811372
3965.000000	98.810878
3964.000000	98.808639
3963.000000	98.806257
3962.000000	98.805336
3961.000000	98.806179
3960.000000	98.807692
3959.000000	98.808497
3958.000000	98.807885
3957.000000	98.805874
3956.000000	98.802850
3955.000000	98.799416
3954.000000	98.796255
3953.000000	98.793951
3952.000000	98.793043
3951.000000	98.794200
3950.000000	98.797889
3949.000000	98.803478
3948.000000	98.808988
3947.000000	98.811965
3946.000000	98.810928
3945.000000	98.806409
3944.000000	98.801127
3943.000000	98.798714
3942.000000	98.800976
3941.000000	98.806526
3940.000000	98.812092
3939.000000	98.814888
3938.000000	98.813716
3937.000000	98.808436
3936.000000	98.799445
3935.000000	98.788351
3934.000000	98.778807
3933.000000	98.775521
3932.000000	98.780732
3931.000000	98.791338
3930.000000	98.800657
3929.000000	98.803488
3928.000000	98.799517
3927.000000	98.792745
3926.000000	98.788755
3925.000000	98.791241
3924.000000	98.799049
3923.000000	98.807289
3922.000000	98.811889
3921.000000	98.811814
3920.000000	98.807435
3919.000000	98.799065
3918.000000	98.788500
3917.000000	98.780338
3916.000000	98.778485
3915.000000	98.781659
3914.000000	98.784466
3913.000000	98.783106
3912.000000	98.778141
3911.000000	98.773288
3910.000000	98.771887
3909.000000	98.774705
3908.000000	98.779760
3907.000000	98.784018
3906.000000	98.785732
3905.000000	98.786593
3904.000000	98.791032
3903.000000	98.801397
3902.000000	98.814328
3901.000000	98.823331
3900.000000	98.825117
3899.000000	98.821525
3898.000000	98.815911
3897.000000	98.809913
3896.000000	98.803569
3895.000000	98.796908
3894.000000	98.790283
3893.000000	98.784962
3892.000000	98.783560
3891.000000	98.788951
3890.000000	98.800069
3889.000000	98.811216
3888.000000	98.816599
3887.000000	98.815453
3886.000000	98.812142
3885.000000	98.810533
3884.000000	98.809204
3883.000000	98.804502
3882.000000	98.796858
3881.000000	98.791581
3880.000000	98.793162
3879.000000	98.800044
3878.000000	98.806138
3877.000000	98.806797
3876.000000	98.802740
3875.000000	98.799484
3874.000000	98.801449
3873.000000	98.805697
3872.000000	98.804931
3871.000000	98.798208
3870.000000	98.794249
3869.000000	98.799998
3868.000000	98.810146
3867.000000	98.814884
3866.000000	98.812480
3865.000000	98.809347
3864.000000	98.809983
3863.000000	98.811906
3862.000000	98.810682
3861.000000	98.806332
3860.000000	98.802416
3859.000000	98.802682
3858.000000	98.807838
3857.000000	98.814432
3856.000000	98.815978
3855.000000	98.807575
3854.000000	98.792258
3853.000000	98.780624
3852.000000	98.777479
3851.000000	98.776999
3850.000000	98.775050
3849.000000	98.773315
3848.000000	98.773712
3847.000000	98.775218
3846.000000	98.775953
3845.000000	98.776124
3844.000000	98.777941
3843.000000	98.783644
3842.000000	98.792597
3841.000000	98.801688
3840.000000	98.808282
3839.000000	98.812150
3838.000000	98.814226
3837.000000	98.815881
3836.000000	98.818070
3835.000000	98.820354
3834.000000	98.820975
3833.000000	98.818860
3832.000000	98.815318
3831.000000	98.812524
3830.000000	98.810441
3829.000000	98.806548
3828.000000	98.798966
3827.000000	98.790133
3826.000000	98.785255
3825.000000	98.786061
3824.000000	98.788364
3823.000000	98.788506
3822.000000	98.789451
3821.000000	98.797829
3820.000000	98.812098
3819.000000	98.821162
3818.000000	98.817444
3817.000000	98.804521
3816.000000	98.793642
3815.000000	98.790454
3814.000000	98.789324
3813.000000	98.784217
3812.000000	98.777469
3811.000000	98.774755
3810.000000	98.776786
3809.000000	98.778707
3808.000000	98.777553
3807.000000	98.777823
3806.000000	98.785265
3805.000000	98.797476
3804.000000	98.806892
3803.000000	98.810692
3802.000000	98.813334
3801.000000	98.819068
3800.000000	98.823852
3799.000000	98.821234
3798.000000	98.811411
3797.000000	98.800530
3796.000000	98.793731
3795.000000	98.789876
3794.000000	98.784810
3793.000000	98.777612
3792.000000	98.771473
3791.000000	98.769260
3790.000000	98.770566
3789.000000	98.772636
3788.000000	98.773140
3787.000000	98.771450
3786.000000	98.768692
3785.000000	98.767018
3784.000000	98.767798
3783.000000	98.770053
3782.000000	98.771601
3781.000000	98.771775
3780.000000	98.771806
3779.000000	98.772618
3778.000000	98.773011
3777.000000	98.771675
3776.000000	98.769843
3775.000000	98.770874
3774.000000	98.776107
3773.000000	98.782209
3772.000000	98.784028
3771.000000	98.780865
3770.000000	98.777728
3769.000000	98.779004
3768.000000	98.783464
3767.000000	98.787410
3766.000000	98.789781
3765.000000	98.791900
3764.000000	98.793576
3763.000000	98.792163
3762.000000	98.786660
3761.000000	98.780735
3760.000000	98.779288
3759.000000	98.783456
3758.000000	98.791046
3757.000000	98.800706
3756.000000	98.811573
3755.000000	98.821799
3754.000000	98.830281
3753.000000	98.838067
3752.000000	98.845244
3751.000000	98.847636
3750.000000	98.842868
3749.000000	98.836811
3748.000000	98.835079
3747.000000	98.834994
3746.000000	98.831565
3745.000000	98.825396
3744.000000	98.821418
3743.000000	98.820198
3742.000000	98.816638
3741.000000	98.809204
3740.000000	98.802340
3739.000000	98.800405
3738.000000	98.803814
3737.000000	98.812054
3736.000000	98.825375
3735.000000	98.840231
3734.000000	98.848774
3733.000000	98.847447
3732.000000	98.841337
3731.000000	98.836985
3730.000000	98.835493
3729.000000	98.834100
3728.000000	98.831692
3727.000000	98.829956
3726.000000	98.829411
3725.000000	98.827000
3724.000000	98.820210
3723.000000	98.810631
3722.000000	98.801575
3721.000000	98.795177
3720.000000	98.792341
3719.000000	98.793454
3718.000000	98.798296
3717.000000	98.805717
3716.000000	98.813308
3715.000000	98.818910
3714.000000	98.822434
3713.000000	98.826109
3712.000000	98.832038
3711.000000	98.838742
3710.000000	98.841365
3709.000000	98.836877
3708.000000	98.827686
3707.000000	98.819340
3706.000000	98.815774
3705.000000	98.816919
3704.000000	98.819782
3703.000000	98.821138
3702.000000	98.820321
3701.000000	98.819642
3700.000000	98.821065
3699.000000	98.822855
3698.000000	98.821598
3697.000000	98.816418
3696.000000	98.809187
3695.000000	98.801770
3694.000000	98.795696
3693.000000	98.794103
3692.000000	98.800720
3691.000000	98.815508
3690.000000	98.830997
3689.000000	98.836399
3688.000000	98.828453
3687.000000	98.813586
3686.000000	98.798066
3685.000000	98.784286
3684.000000	98.774029
3683.000000	98.768630
3682.000000	98.767178
3681.000000	98.767313
3680.000000	98.768361
3679.000000	98.770363
3678.000000	98.771738
3677.000000	98.771535
3676.000000	98.772951
3675.000000	98.777686
3674.000000	98.780519
3673.000000	98.776093
3672.000000	98.765660
3671.000000	98.756736
3670.000000	98.754604
3669.000000	98.753575
3668.000000	98.744900
3667.000000	98.728697
3666.000000	98.710970
3665.000000	98.696694
3664.000000	98.686986
3663.000000	98.680246
3662.000000	98.675086
3661.000000	98.671617
3660.000000	98.670076
3659.000000	98.668943
3658.000000	98.666113
3657.000000	98.661798
3656.000000	98.659766
3655.000000	98.663072
3654.000000	98.669902
3653.000000	98.675583
3652.000000	98.676915
3651.000000	98.672842
3650.000000	98.663412
3649.000000	98.651204
3648.000000	98.641221
3647.000000	98.635221
3646.000000	98.630035
3645.000000	98.622003
3644.000000	98.610443
3643.000000	98.598127
3642.000000	98.588604
3641.000000	98.582749
3640.000000	98.578572
3639.000000	98.574750
3638.000000	98.571951
3637.000000	98.570144
3636.000000	98.567341
3635.000000	98.562577
3634.000000	98.558222
3633.000000	98.556403
3632.000000	98.554880
3631.000000	98.549578
3630.000000	98.540904
3629.000000	98.534722
3628.000000	98.533401
3627.000000	98.531252
3626.000000	98.523381
3625.000000	98.511451
3624.000000	98.500603
3623.000000	98.493692
3622.000000	98.488818
3621.000000	98.482215
3620.000000	98.472120
3619.000000	98.459678
3618.000000	98.447287
3617.000000	98.436165
3616.000000	98.425347
3615.000000	98.413085
3614.000000	98.398837
3613.000000	98.383502
3612.000000	98.368223
3611.000000	98.352910
3610.000000	98.336687
3609.000000	98.320858
3608.000000	98.309542
3607.000000	98.305384
3606.000000	98.306195
3605.000000	98.307304
3604.000000	98.305894
3603.000000	98.301809
3602.000000	98.296065
3601.000000	98.289399
3600.000000	98.281714
3599.000000	98.272126
3598.000000	98.260451
3597.000000	98.247969
3596.000000	98.236521
3595.000000	98.226933
3594.000000	98.218253
3593.000000	98.208598
3592.000000	98.196928
3591.000000	98.183578
3590.000000	98.169648
3589.000000	98.156768
3588.000000	98.146152
3587.000000	98.137245
3586.000000	98.128271
3585.000000	98.118317
3584.000000	98.107859
3583.000000	98.097310
3582.000000	98.086029
3581.000000	98.072991
3580.000000	98.058496
3579.000000	98.044668
3578.000000	98.033940
3577.000000	98.027172
3576.000000	98.022806
3575.000000	98.017630
3574.000000	98.008588
3573.000000	97.995006
3572.000000	97.979376
3571.000000	97.965550
3570.000000	97.955741
3569.000000	97.949485
3568.000000	97.944533
3567.000000	97.938464
3566.000000	97.929841
3565.000000	97.918103
3564.000000	97.903111
3563.000000	97.885540
3562.000000	97.867120
3561.000000	97.849826
3560.000000	97.834735
3559.000000	97.821652
3558.000000	97.809777
3557.000000	97.798435
3556.000000	97.786806
3555.000000	97.773432
3554.000000	97.756892
3553.000000	97.737722
3552.000000	97.719237
3551.000000	97.705354
3550.000000	97.697294
3549.000000	97.692968
3548.000000	97.688827
3547.000000	97.682316
3546.000000	97.673643
3545.000000	97.665364
3544.000000	97.658709
3543.000000	97.651120
3542.000000	97.638772
3541.000000	97.621393
3540.000000	97.603232
3539.000000	97.588754
3538.000000	97.577889
3537.000000	97.566437
3536.000000	97.551064
3535.000000	97.532847
3534.000000	97.515591
3533.000000	97.502269
3532.000000	97.493610
3531.000000	97.488409
3530.000000	97.484228
3529.000000	97.478765
3528.000000	97.471521
3527.000000	97.463743
3526.000000	97.456200
3525.000000	97.447767
3524.000000	97.436478
3523.000000	97.421460
3522.000000	97.403532
3521.000000	97.384470
3520.000000	97.366244
3519.000000	97.350444
3518.000000	97.337444
3517.000000	97.325967
3516.000000	97.314240
3515.000000	97.301837
3514.000000	97.290000
3513.000000	97.280056
3512.000000	97.272040
3511.000000	97.264981
3510.000000	97.258173
3509.000000	97.251990
3508.000000	97.247440
3507.000000	97.244895
3506.000000	97.243327
3505.000000	97.240553
3504.000000	97.234115
3503.000000	97.222658
3502.000000	97.207139
3501.000000	97.190410
3500.000000	97.175016
3499.000000	97.161402
3498.000000	97.148389
3497.000000	97.135069
3496.000000	97.121670
3495.000000	97.108507
3494.000000	97.095210
3493.000000	97.081807
3492.000000	97.069806
3491.000000	97.060947
3490.000000	97.055024
3489.000000	97.049948
3488.000000	97.043940
3487.000000	97.036436
3486.000000	97.026828
3485.000000	97.013995
3484.000000	96.998149
3483.000000	96.982282
3482.000000	96.970337
3481.000000	96.963515
3480.000000	96.959247
3479.000000	96.953927
3478.000000	96.946181
3477.000000	96.937388
3476.000000	96.929871
3475.000000	96.924722
3474.000000	96.920994
3473.000000	96.916565
3472.000000	96.909503
3471.000000	96.898907
3470.000000	96.885202
3469.000000	96.870092
3468.000000	96.855829
3467.000000	96.843749
3466.000000	96.833565
3465.000000	96.824647
3464.000000	96.817652
3463.000000	96.813868
3462.000000	96.812654
3461.000000	96.810497
3460.000000	96.803445
3459.000000	96.790330
3458.000000	96.773524
3457.000000	96.757099
3456.000000	96.744594
3455.000000	96.737474
3454.000000	96.734573
3453.000000	96.733081
3452.000000	96.730757
3451.000000	96.727566
3450.000000	96.725001
3449.000000	96.723704
3448.000000	96.721915
3447.000000	96.716484
3446.000000	96.705582
3445.000000	96.690136
3444.000000	96.672696
3443.000000	96.655855
3442.000000	96.641966
3441.000000	96.633069
3440.000000	96.629547
3439.000000	96.628693
3438.000000	96.625878
3437.000000	96.618312
3436.000000	96.607616
3435.000000	96.598133
3434.000000	96.592872
3433.000000	96.591408
3432.000000	96.590975
3431.000000	96.588510
3430.000000	96.582102
3429.000000	96.571822
3428.000000	96.559724
3427.000000	96.548387
3426.000000	96.539152
3425.000000	96.531794
3424.000000	96.525409
3423.000000	96.518861
3422.000000	96.510588
3421.000000	96.499382
3420.000000	96.486004
3419.000000	96.473198
3418.000000	96.463184
3417.000000	96.455514
3416.000000	96.447854
3415.000000	96.438686
3414.000000	96.428915
3413.000000	96.420670
3412.000000	96.414642
3411.000000	96.408998
3410.000000	96.401457
3409.000000	96.392507
3408.000000	96.385673
3407.000000	96.383610
3406.000000	96.384226
3405.000000	96.381684
3404.000000	96.371720
3403.000000	96.355687
3402.000000	96.339070
3401.000000	96.326433
3400.000000	96.317927
3399.000000	96.310117
3398.000000	96.299603
3397.000000	96.285958
3396.000000	96.271606
3395.000000	96.259226
3394.000000	96.249454
3393.000000	96.240929
3392.000000	96.232056
3391.000000	96.222305
3390.000000	96.212107
3389.000000	96.202275
3388.000000	96.193823
3387.000000	96.187717
3386.000000	96.184075
3385.000000	96.181378
3384.000000	96.176844
3383.000000	96.168087
3382.000000	96.154805
3381.000000	96.139045
3380.000000	96.123850
3379.000000	96.111497
3378.000000	96.102663
3377.000000	96.096509
3376.000000	96.091028
3375.000000	96.083725
3374.000000	96.073161
3373.000000	96.060376
3372.000000	96.048177
3371.000000	96.038497
3370.000000	96.030667
3369.000000	96.022432
3368.000000	96.011982
3367.000000	95.998687
3366.000000	95.982844
3365.000000	95.966020
3364.000000	95.951116
3363.000000	95.940506
3362.000000	95.933514
3361.000000	95.926401
3360.000000	95.915406
3359.000000	95.899666
3358.000000	95.881259
3357.000000	95.863068
3356.000000	95.846913
3355.000000	95.833134
3354.000000	95.821102
3353.000000	95.809715
3352.000000	95.797600
3351.000000	95.783496
3350.000000	95.767092
3349.000000	95.749462
3348.000000	95.732207
3347.000000	95.716043
3346.000000	95.700534
3345.000000	95.685098
3344.000000	95.669551
3343.000000	95.653720
3342.000000	95.637475
3341.000000	95.621483
3340.000000	95.606912
3339.000000	95.593828
3338.000000	95.580853
3337.000000	95.567122
3336.000000	95.553594
3335.000000	95.541261
3334.000000	95.528915
3333.000000	95.514323
3332.000000	95.497512
3331.000000	95.481458
3330.000000	95.469169
3329.000000	95.460746
3328.000000	95.453257
3327.000000	95.442904
3326.000000	95.427626
3325.000000	95.408553
3324.000000	95.389149
3323.000000	95.372371
3322.000000	95.358631
3321.000000	95.346570
3320.000000	95.335041
3319.000000	95.323609
3318.000000	95.311812
3317.000000	95.299234
3316.000000	95.286282
3315.000000	95.273965
3314.000000	95.262817
3313.000000	95.252647
3312.000000	95.242942
3311.000000	95.232703
3310.000000	95.220444
3309.000000	95.205641
3308.000000	95.190056
3307.000000	95.176270
3306.000000	95.164780
3305.000000	95.153611
3304.000000	95.140847
3303.000000	95.126634
3302.000000	95.112728
3301.000000	95.101046
3300.000000	95.092696
3299.000000	95.087325
3298.000000	95.083215
3297.000000	95.078808
3296.000000	95.074018
3295.000000	95.069153
3294.000000	95.062945
3293.000000	95.053486
3292.000000	95.041353
3291.000000	95.030087
3290.000000	95.022820
3289.000000	95.019565
3288.000000	95.018418
3287.000000	95.017984
3286.000000	95.017806
3285.000000	95.017704
3284.000000	95.017690
3283.000000	95.017655
3282.000000	95.016430
3281.000000	95.012347
3280.000000	95.006041
3279.000000	95.001487
3278.000000	95.002646
3277.000000	95.009425
3276.000000	95.018370
3275.000000	95.027338
3274.000000	95.037600
3273.000000	95.050887
3272.000000	95.065642
3271.000000	95.077238
3270.000000	95.081966
3269.000000	95.080564
3268.000000	95.078254
3267.000000	95.081311
3266.000000	95.092783
3265.000000	95.110678
3264.000000	95.130026
3263.000000	95.146646
3262.000000	95.159288
3261.000000	95.169007
3260.000000	95.177448
3259.000000	95.185884
3258.000000	95.195322
3257.000000	95.206849
3256.000000	95.221507
3255.000000	95.239596
3254.000000	95.259976
3253.000000	95.280282
3252.000000	95.298181
3251.000000	95.312674
3250.000000	95.324349
3249.000000	95.334543
3248.000000	95.344322
3247.000000	95.353991
3246.000000	95.363260
3245.000000	95.371794
3244.000000	95.379785
3243.000000	95.388091
3242.000000	95.397734
3241.000000	95.409086
3240.000000	95.421633
3239.000000	95.434804
3238.000000	95.449026
3237.000000	95.465392
3236.000000	95.483693
3235.000000	95.501137
3234.000000	95.514000
3233.000000	95.520920
3232.000000	95.524101
3231.000000	95.527028
3230.000000	95.531446
3229.000000	95.536728
3228.000000	95.541376
3227.000000	95.544604
3226.000000	95.547125
3225.000000	95.551094
3224.000000	95.558786
3223.000000	95.570406
3222.000000	95.583676
3221.000000	95.596301
3220.000000	95.608407
3219.000000	95.621453
3218.000000	95.634964
3217.000000	95.646014
3216.000000	95.652356
3215.000000	95.654993
3214.000000	95.656854
3213.000000	95.659673
3212.000000	95.663089
3211.000000	95.666495
3210.000000	95.670764
3209.000000	95.677459
3208.000000	95.686688
3207.000000	95.696477
3206.000000	95.704969
3205.000000	95.712952
3204.000000	95.723347
3203.000000	95.737694
3202.000000	95.753882
3201.000000	95.767986
3200.000000	95.777855
3199.000000	95.784432
3198.000000	95.790099
3197.000000	95.796600
3196.000000	95.803965
3195.000000	95.810580
3194.000000	95.814799
3193.000000	95.817512
3192.000000	95.822762
3191.000000	95.834396
3190.000000	95.852108
3189.000000	95.871758
3188.000000	95.889470
3187.000000	95.904323
3186.000000	95.917537
3185.000000	95.930766
3184.000000	95.945381
3183.000000	95.961601
3182.000000	95.977458
3181.000000	95.989988
3180.000000	95.998285
3179.000000	96.004475
3178.000000	96.011304
3177.000000	96.019947
3176.000000	96.030781
3175.000000	96.044452
3174.000000	96.060739
3173.000000	96.077519
3172.000000	96.092439
3171.000000	96.105128
3170.000000	96.116589
3169.000000	96.127356
3168.000000	96.137648
3167.000000	96.148548
3166.000000	96.161044
3165.000000	96.173965
3164.000000	96.184793
3163.000000	96.192963
3162.000000	96.200971
3161.000000	96.211545
3160.000000	96.224921
3159.000000	96.239500
3158.000000	96.254079
3157.000000	96.268278
3156.000000	96.281528
3155.000000	96.293133
3154.000000	96.303495
3153.000000	96.314171
3152.000000	96.325964
3151.000000	96.337512
3150.000000	96.346686
3149.000000	96.353546
3148.000000	96.361154
3147.000000	96.372868
3146.000000	96.388973
3145.000000	96.406471
3144.000000	96.421906
3143.000000	96.433861
3142.000000	96.442845
3141.000000	96.450022
3140.000000	96.456697
3139.000000	96.464337
3138.000000	96.473810
3137.000000	96.484420
3136.000000	96.494033
3135.000000	96.500402
3134.000000	96.502584
3133.000000	96.501665
3132.000000	96.500483
3131.000000	96.501985
3130.000000	96.507227
3129.000000	96.515051
3128.000000	96.524073
3127.000000	96.534423
3126.000000	96.546850
3125.000000	96.560395
3124.000000	96.572043
3123.000000	96.579066
3122.000000	96.581282
3121.000000	96.580952
3120.000000	96.580900
3119.000000	96.582916
3118.000000	96.586991
3117.000000	96.591474
3116.000000	96.594266
3115.000000	96.594580
3114.000000	96.593383
3113.000000	96.591830
3112.000000	96.589693
3111.000000	96.586056
3110.000000	96.581435
3109.000000	96.578284
3108.000000	96.578745
3107.000000	96.582149
3106.000000	96.585183
3105.000000	96.584597
3104.000000	96.579700
3103.000000	96.572399
3102.000000	96.565086
3101.000000	96.558555
3100.000000	96.552072
3099.000000	96.545672
3098.000000	96.541814
3097.000000	96.543552
3096.000000	96.550524
3095.000000	96.557701
3094.000000	96.559399
3093.000000	96.554446
3092.000000	96.546434
3091.000000	96.539278
3090.000000	96.533817
3089.000000	96.528834
3088.000000	96.523626
3087.000000	96.518437
3086.000000	96.513285
3085.000000	96.507939
3084.000000	96.503092
3083.000000	96.500288
3082.000000	96.500243
3081.000000	96.501756
3080.000000	96.502691
3079.000000	96.501738
3078.000000	96.498991
3077.000000	96.495045
3076.000000	96.490101
3075.000000	96.484233
3074.000000	96.478360
3073.000000	96.474390
3072.000000	96.473868
3071.000000	96.476530
3070.000000	96.480703
3069.000000	96.485042
3068.000000	96.489310
3067.000000	96.493501
3066.000000	96.497041
3065.000000	96.499287
3064.000000	96.500165
3063.000000	96.500000
3062.000000	96.499557
3061.000000	96.500669
3060.000000	96.505740
3059.000000	96.515462
3058.000000	96.527463
3057.000000	96.538280
3056.000000	96.546576
3055.000000	96.553719
3054.000000	96.561479
3053.000000	96.570185
3052.000000	96.579108
3051.000000	96.587719
3050.000000	96.596366
3049.000000	96.606134
3048.000000	96.617842
3047.000000	96.630601
3046.000000	96.641718
3045.000000	96.649006
3044.000000	96.653334
3043.000000	96.658106
3042.000000	96.666027
3041.000000	96.676830
3040.000000	96.688319
3039.000000	96.698843
3038.000000	96.708414
3037.000000	96.717948
3036.000000	96.727953
3035.000000	96.737927
3034.000000	96.746779
3033.000000	96.753823
3032.000000	96.759217
3031.000000	96.763398
3030.000000	96.766502
3029.000000	96.768938
3028.000000	96.772252
3027.000000	96.778570
3026.000000	96.788720
3025.000000	96.801093
3024.000000	96.812443
3023.000000	96.819982
3022.000000	96.823202
3021.000000	96.824287
3020.000000	96.826575
3019.000000	96.831861
3018.000000	96.839004
3017.000000	96.845258
3016.000000	96.848846
3015.000000	96.850017
3014.000000	96.849996
3013.000000	96.849475
3012.000000	96.847949
3011.000000	96.843998
3010.000000	96.836340
3009.000000	96.825048
3008.000000	96.811864
3007.000000	96.799093
3006.000000	96.788157
3005.000000	96.778907
3004.000000	96.769511
3003.000000	96.757046
3002.000000	96.739377
3001.000000	96.717461
3000.000000	96.695051
2999.000000	96.675216
2998.000000	96.657416
2997.000000	96.638695
2996.000000	96.616903
2995.000000	96.591775
2994.000000	96.563443
2993.000000	96.531596
2992.000000	96.496205
2991.000000	96.457834
2990.000000	96.417089
2989.000000	96.374452
2988.000000	96.330529
2987.000000	96.285349
2986.000000	96.237394
2985.000000	96.184620
2984.000000	96.126617
2983.000000	96.064934
2982.000000	96.001046
2981.000000	95.934841
2980.000000	95.865418
2979.000000	95.792371
2978.000000	95.715840
2977.000000	95.635841
2976.000000	95.551862
2975.000000	95.463092
2974.000000	95.369033
2973.000000	95.270139
2972.000000	95.167383
2971.000000	95.060673
2970.000000	94.948785
2969.000000	94.831997
2968.000000	94.714242
2967.000000	94.600869
2966.000000	94.494100
2965.000000	94.392305
2964.000000	94.293925
2963.000000	94.201077
2962.000000	94.118727
2961.000000	94.051923
2960.000000	94.004336
2959.000000	93.977768
2958.000000	93.971805
2957.000000	93.983815
2956.000000	94.010557
2955.000000	94.049203
2954.000000	94.096773
2953.000000	94.149284
2952.000000	94.202210
2951.000000	94.251753
2950.000000	94.294360
2949.000000	94.325541
2948.000000	94.339903
2947.000000	94.333522
2946.000000	94.306447
2945.000000	94.262503
2944.000000	94.206358
2943.000000	94.139918
2942.000000	94.061862
2941.000000	93.970235
2940.000000	93.865401
2939.000000	93.750247
2938.000000	93.628436
2937.000000	93.503722
2936.000000	93.380298
2935.000000	93.262652
2934.000000	93.154201
2933.000000	93.056583
2932.000000	92.970292
2931.000000	92.895238
2930.000000	92.830636
2929.000000	92.775003
2928.000000	92.727501
2927.000000	92.689293
2926.000000	92.663256
2925.000000	92.652089
2924.000000	92.656431
2923.000000	92.674992
2922.000000	92.706076
2921.000000	92.748780
2920.000000	92.802745
2919.000000	92.867442
2918.000000	92.942988
2917.000000	93.031283
2916.000000	93.134854
2915.000000	93.253271
2914.000000	93.381036
2913.000000	93.510159
2912.000000	93.634930
2911.000000	93.754054
2910.000000	93.868599
2909.000000	93.978929
2908.000000	94.084040
2907.000000	94.183079
2906.000000	94.277096
2905.000000	94.369317
2904.000000	94.463606
2903.000000	94.561884
2902.000000	94.662803
2901.000000	94.763150
2900.000000	94.860434
2899.000000	94.954128
2898.000000	95.044649
2897.000000	95.132052
2896.000000	95.215851
2895.000000	95.295353
2894.000000	95.369867
2893.000000	95.439024
2892.000000	95.503024
2891.000000	95.562217
2890.000000	95.616243
2889.000000	95.663906
2888.000000	95.703892
2887.000000	95.735193
2886.000000	95.756973
2885.000000	95.768448
2884.000000	95.769135
2883.000000	95.759043
2882.000000	95.738742
2881.000000	95.709457
2880.000000	95.672513
2879.000000	95.628308
2878.000000	95.576361
2877.000000	95.517432
2876.000000	95.455374
2875.000000	95.396040
2874.000000	95.344680
2873.000000	95.304697
2872.000000	95.278211
2871.000000	95.265765
2870.000000	95.264625
2869.000000	95.268239
2868.000000	95.268519
2867.000000	95.259304
2866.000000	95.238444
2865.000000	95.207625
2864.000000	95.170023
2863.000000	95.127436
2862.000000	95.079290
2861.000000	95.025071
2860.000000	94.967439
2859.000000	94.912105
2858.000000	94.864467
2857.000000	94.827164
2856.000000	94.800939
2855.000000	94.786628
2854.000000	94.786375
2853.000000	94.803655
2852.000000	94.842719
2851.000000	94.907533
2850.000000	95.000364
2849.000000	95.120932
2848.000000	95.265841
2847.000000	95.427744
2846.000000	95.595539
2845.000000	95.757628
2844.000000	95.906149
2843.000000	96.038705
2842.000000	96.156372
2841.000000	96.260828
2840.000000	96.353491
2839.000000	96.435488
2838.000000	96.507445
2837.000000	96.569765
2836.000000	96.623505
2835.000000	96.670276
2834.000000	96.711005
2833.000000	96.745607
2832.000000	96.774394
2831.000000	96.799028
2830.000000	96.821402
2829.000000	96.842333
2828.000000	96.861791
2827.000000	96.879848
2826.000000	96.896902
2825.000000	96.913325
2824.000000	96.929253
2823.000000	96.944358
2822.000000	96.957865
2821.000000	96.969528
2820.000000	96.980600
2819.000000	96.992925
2818.000000	97.006869
2817.000000	97.021059
2816.000000	97.034456
2815.000000	97.047684
2814.000000	97.061932
2813.000000	97.077518
2812.000000	97.094008
2811.000000	97.110816
2810.000000	97.127202
2809.000000	97.142665
2808.000000	97.157881
2807.000000	97.174061
2806.000000	97.190508
2805.000000	97.204009
2804.000000	97.212023
2803.000000	97.216001
2802.000000	97.220242
2801.000000	97.227749
2800.000000	97.238055
2799.000000	97.248696
2798.000000	97.257785
2797.000000	97.265176
2796.000000	97.272135
2795.000000	97.280036
2794.000000	97.288883
2793.000000	97.297063
2792.000000	97.302946
2791.000000	97.306715
2790.000000	97.310535
2789.000000	97.317210
2788.000000	97.328737
2787.000000	97.345154
2786.000000	97.363795
2785.000000	97.380085
2784.000000	97.390271
2783.000000	97.394007
2782.000000	97.394217
2781.000000	97.394631
2780.000000	97.397443
2779.000000	97.402650
2778.000000	97.408602
2777.000000	97.413184
2776.000000	97.415281
2775.000000	97.415739
2774.000000	97.416906
2773.000000	97.421108
2772.000000	97.429162
2771.000000	97.439698
2770.000000	97.449709
2769.000000	97.456371
2768.000000	97.459195
2767.000000	97.460520
2766.000000	97.463541
2765.000000	97.469471
2764.000000	97.476593
2763.000000	97.482024
2762.000000	97.484539
2761.000000	97.485836
2760.000000	97.488999
2759.000000	97.495552
2758.000000	97.503942
2757.000000	97.510962
2756.000000	97.514534
2755.000000	97.515174
2754.000000	97.515122
2753.000000	97.516424
2752.000000	97.519475
2751.000000	97.522886
2750.000000	97.524739
2749.000000	97.524256
2748.000000	97.522332
2747.000000	97.520540
2746.000000	97.520183
2745.000000	97.522465
2744.000000	97.528491
2743.000000	97.537952
2742.000000	97.548155
2741.000000	97.555475
2740.000000	97.558054
2739.000000	97.556771
2738.000000	97.554092
2737.000000	97.552684
2736.000000	97.554559
2735.000000	97.560128
2734.000000	97.567776
2733.000000	97.575106
2732.000000	97.580792
2731.000000	97.584805
2730.000000	97.587536
2729.000000	97.589881
2728.000000	97.593823
2727.000000	97.601166
2726.000000	97.611174
2725.000000	97.620641
2724.000000	97.626941
2723.000000	97.630167
2722.000000	97.631919
2721.000000	97.633250
2720.000000	97.634636
2719.000000	97.636912
2718.000000	97.640899
2717.000000	97.646171
2716.000000	97.651005
2715.000000	97.653737
2714.000000	97.653978
2713.000000	97.652774
2712.000000	97.651924
2711.000000	97.653026
2710.000000	97.656771
2709.000000	97.662730
2708.000000	97.669449
2707.000000	97.674974
2706.000000	97.678170
2705.000000	97.679974
2704.000000	97.682551
2703.000000	97.686509
2702.000000	97.689717
2701.000000	97.689943
2700.000000	97.688020
2699.000000	97.687077
2698.000000	97.688988
2697.000000	97.692918
2696.000000	97.697122
2695.000000	97.700594
2694.000000	97.702804
2693.000000	97.703380
2692.000000	97.702683
2691.000000	97.701609
2690.000000	97.700361
2689.000000	97.698376
2688.000000	97.695817
2687.000000	97.694132
2686.000000	97.694580
2685.000000	97.696902
2684.000000	97.699760
2683.000000	97.701858
2682.000000	97.702648
2681.000000	97.702857
2680.000000	97.704347
2679.000000	97.708334
2678.000000	97.713488
2677.000000	97.716853
2676.000000	97.716968
2675.000000	97.715074
2674.000000	97.713072
2673.000000	97.711597
2672.000000	97.710556
2671.000000	97.710151
2670.000000	97.710468
2669.000000	97.711029
2668.000000	97.711649
2667.000000	97.712963
2666.000000	97.715278
2665.000000	97.717549
2664.000000	97.718360
2663.000000	97.717581
2662.000000	97.716455
2661.000000	97.716340
2660.000000	97.717699
2659.000000	97.719806
2658.000000	97.721134
2657.000000	97.720662
2656.000000	97.719352
2655.000000	97.719829
2654.000000	97.724026
2653.000000	97.731386
2652.000000	97.739539
2651.000000	97.746433
2650.000000	97.751723
2649.000000	97.756697
2648.000000	97.763035
2647.000000	97.771138
2646.000000	97.779545
2645.000000	97.786431
2644.000000	97.791469
2643.000000	97.795510
2642.000000	97.798884
2641.000000	97.801325
2640.000000	97.803585
2639.000000	97.807607
2638.000000	97.814433
2637.000000	97.822792
2636.000000	97.830073
2635.000000	97.834014
2634.000000	97.833745
2633.000000	97.830681
2632.000000	97.828549
2631.000000	97.830841
2630.000000	97.837578
2629.000000	97.845836
2628.000000	97.853904
2627.000000	97.863220
2626.000000	97.875322
2625.000000	97.888250
2624.000000	97.897342
2623.000000	97.899047
2622.000000	97.893587
2621.000000	97.884900
2620.000000	97.878472
2619.000000	97.878085
2618.000000	97.883599
2617.000000	97.892076
2616.000000	97.900773
2615.000000	97.908154
2614.000000	97.912969
2613.000000	97.914696
2612.000000	97.915057
2611.000000	97.916506
2610.000000	97.918402
2609.000000	97.917237
2608.000000	97.911955
2607.000000	97.906854
2606.000000	97.907167
2605.000000	97.913368
2604.000000	97.921629
2603.000000	97.928543
2602.000000	97.933407
2601.000000	97.936665
2600.000000	97.938409
2599.000000	97.938617
2598.000000	97.937824
2597.000000	97.937395
2596.000000	97.939386
2595.000000	97.945314
2594.000000	97.954321
2593.000000	97.963086
2592.000000	97.968402
2591.000000	97.969784
2590.000000	97.969515
2589.000000	97.970596
2588.000000	97.974379
2587.000000	97.979296
2586.000000	97.982064
2585.000000	97.981022
2584.000000	97.978048
2583.000000	97.976213
2582.000000	97.976340
2581.000000	97.977484
2580.000000	97.979770
2579.000000	97.984284
2578.000000	97.990292
2577.000000	97.995352
2576.000000	97.998546
2575.000000	98.001437
2574.000000	98.005318
2573.000000	98.009758
2572.000000	98.014194
2571.000000	98.018647
2570.000000	98.022502
2569.000000	98.025051
2568.000000	98.027656
2567.000000	98.032449
2566.000000	98.038193
2565.000000	98.040534
2564.000000	98.037783
2563.000000	98.033571
2562.000000	98.031782
2561.000000	98.031536
2560.000000	98.029389
2559.000000	98.024956
2558.000000	98.021896
2557.000000	98.024178
2556.000000	98.032509
2555.000000	98.043571
2554.000000	98.051995
2553.000000	98.054512
2552.000000	98.052944
2551.000000	98.051808
2550.000000	98.052625
2549.000000	98.052508
2548.000000	98.048744
2547.000000	98.042239
2546.000000	98.035652
2545.000000	98.030761
2544.000000	98.028990
2543.000000	98.031673
2542.000000	98.037316
2541.000000	98.040385
2540.000000	98.035514
2539.000000	98.022738
2538.000000	98.007667
2537.000000	97.997484
2536.000000	97.997018
2535.000000	98.006254
2534.000000	98.019523
2533.000000	98.028291
2532.000000	98.026826
2531.000000	98.015825
2530.000000	98.000483
2529.000000	97.986233
2528.000000	97.976110
2527.000000	97.970033
2526.000000	97.965177
2525.000000	97.958229
2524.000000	97.948368
2523.000000	97.937847
2522.000000	97.929683
2521.000000	97.925882
2520.000000	97.927319
2519.000000	97.933151
2518.000000	97.939716
2517.000000	97.942091
2516.000000	97.938396
2515.000000	97.931900
2514.000000	97.928589
2513.000000	97.933016
2512.000000	97.945675
2511.000000	97.962528
2510.000000	97.976995
2509.000000	97.984249
2508.000000	97.984331
2507.000000	97.980773
2506.000000	97.977410
2505.000000	97.977866
2504.000000	97.986041
2503.000000	98.003434
2502.000000	98.026145
2501.000000	98.047615
2500.000000	98.064420
2499.000000	98.077330
2498.000000	98.087501
2497.000000	98.095252
2496.000000	98.102017
2495.000000	98.109193
2494.000000	98.114482
2493.000000	98.113827
2492.000000	98.108557
2491.000000	98.106341
2490.000000	98.112915
2489.000000	98.125887
2488.000000	98.139259
2487.000000	98.150971
2486.000000	98.162911
2485.000000	98.175654
2484.000000	98.186427
2483.000000	98.191999
2482.000000	98.191722
2481.000000	98.187960
2480.000000	98.184453
2479.000000	98.183469
2478.000000	98.183895
2477.000000	98.183004
2476.000000	98.179962
2475.000000	98.176576
2474.000000	98.174794
2473.000000	98.175198
2472.000000	98.177682
2471.000000	98.181701
2470.000000	98.186035
2469.000000	98.190165
2468.000000	98.195231
2467.000000	98.201302
2466.000000	98.204835
2465.000000	98.202375
2464.000000	98.196472
2463.000000	98.193730
2462.000000	98.196447
2461.000000	98.200153
2460.000000	98.200613
2459.000000	98.199361
2458.000000	98.200224
2457.000000	98.203734
2456.000000	98.207347
2455.000000	98.209090
2454.000000	98.209084
2453.000000	98.209224
2452.000000	98.212444
2451.000000	98.220257
2450.000000	98.229827
2449.000000	98.235666
2448.000000	98.235332
2447.000000	98.231596
2446.000000	98.228589
2445.000000	98.228434
2444.000000	98.231911
2443.000000	98.238628
2442.000000	98.245236
2441.000000	98.246898
2440.000000	98.242697
2439.000000	98.236822
2438.000000	98.232717
2437.000000	98.229016
2436.000000	98.223344
2435.000000	98.217061
2434.000000	98.213382
2433.000000	98.213029
2432.000000	98.214627
2431.000000	98.217791
2430.000000	98.222912
2429.000000	98.228682
2428.000000	98.232457
2427.000000	98.233263
2426.000000	98.233047
2425.000000	98.234821
2424.000000	98.239906
2423.000000	98.246524
2422.000000	98.250999
2421.000000	98.251208
2420.000000	98.248760
2419.000000	98.246792
2418.000000	98.246109
2417.000000	98.245123
2416.000000	98.243197
2415.000000	98.241865
2414.000000	98.242670
2413.000000	98.245766
2412.000000	98.250837
2411.000000	98.257500
2410.000000	98.264759
2409.000000	98.271699
2408.000000	98.278509
2407.000000	98.284813
2406.000000	98.287658
2405.000000	98.283781
2404.000000	98.274087
2403.000000	98.263574
2402.000000	98.256744
2401.000000	98.254969
2400.000000	98.257566
2399.000000	98.262627
2398.000000	98.266992
2397.000000	98.268235
2396.000000	98.267044
2395.000000	98.265724
2394.000000	98.264824
2393.000000	98.263677
2392.000000	98.263388
2391.000000	98.266158
2390.000000	98.271954
2389.000000	98.278863
2388.000000	98.286573
2387.000000	98.295826
2386.000000	98.304939
2385.000000	98.310391
2384.000000	98.311520
2383.000000	98.311795
2382.000000	98.314167
2381.000000	98.318723
2380.000000	98.324535
2379.000000	98.330379
2378.000000	98.333228
2377.000000	98.329810
2376.000000	98.321472
2375.000000	98.313731
2374.000000	98.309915
2373.000000	98.308641
2372.000000	98.308747
2371.000000	98.311486
2370.000000	98.316150
2369.000000	98.319025
2368.000000	98.318044
2367.000000	98.315002
2366.000000	98.311201
2365.000000	98.306015
2364.000000	98.301373
2363.000000	98.301097
2362.000000	98.304579
2361.000000	98.306434
2360.000000	98.303885
2359.000000	98.300812
2358.000000	98.302738
2357.000000	98.309751
2356.000000	98.315396
2355.000000	98.312516
2354.000000	98.303324
2353.000000	98.295576
2352.000000	98.293436
2351.000000	98.294276
2350.000000	98.293113
2349.000000	98.286044
2348.000000	98.274386
2347.000000	98.266005
2346.000000	98.267337
2345.000000	98.274099
2344.000000	98.277612
2343.000000	98.275985
2342.000000	98.272044
2341.000000	98.268097
2340.000000	98.265486
2339.000000	98.264798
2338.000000	98.265048
2337.000000	98.264801
2336.000000	98.264199
2335.000000	98.266163
2334.000000	98.272717
2333.000000	98.281575
2332.000000	98.285953
2331.000000	98.282696
2330.000000	98.274412
2329.000000	98.265536
2328.000000	98.254693
2327.000000	98.237270
2326.000000	98.211254
2325.000000	98.182711
2324.000000	98.163132
2323.000000	98.160876
2322.000000	98.171600
2321.000000	98.183129
2320.000000	98.189412
2319.000000	98.196875
2318.000000	98.211803
2317.000000	98.231084
2316.000000	98.246240
2315.000000	98.254563
2314.000000	98.258696
2313.000000	98.262362
2312.000000	98.268005
2311.000000	98.278610
2310.000000	98.294361
2309.000000	98.310645
2308.000000	98.321236
2307.000000	98.323832
2306.000000	98.319222
2305.000000	98.309342
2304.000000	98.298162
2303.000000	98.291778
2302.000000	98.292312
2301.000000	98.294460
2300.000000	98.291347
2299.000000	98.283597
2298.000000	98.277612
2297.000000	98.277311
2296.000000	98.279237
2295.000000	98.277474
2294.000000	98.269820
2293.000000	98.260425
2292.000000	98.256397
2291.000000	98.261756
2290.000000	98.273110
2289.000000	98.282713
2288.000000	98.285962
2287.000000	98.284022
2286.000000	98.279200
2285.000000	98.271680
2284.000000	98.262870
2283.000000	98.257497
2282.000000	98.259501
2281.000000	98.267450
2280.000000	98.276102
2279.000000	98.280074
2278.000000	98.276010
2277.000000	98.265966
2276.000000	98.259980
2275.000000	98.269306
2274.000000	98.293505
2273.000000	98.318584
2272.000000	98.331277
2271.000000	98.331447
2270.000000	98.327840
2269.000000	98.326980
2268.000000	98.330116
2267.000000	98.336130
2266.000000	98.342077
2265.000000	98.343601
2264.000000	98.338939
2263.000000	98.330751
2262.000000	98.322161
2261.000000	98.313921
2260.000000	98.306509
2259.000000	98.301076
2258.000000	98.297325
2257.000000	98.294701
2256.000000	98.295876
2255.000000	98.303282
2254.000000	98.312057
2253.000000	98.314276
2252.000000	98.311611
2251.000000	98.315131
2250.000000	98.329951
2249.000000	98.348613
2248.000000	98.362538
2247.000000	98.371611
2246.000000	98.378311
2245.000000	98.381751
2244.000000	98.382658
2243.000000	98.385803
2242.000000	98.391603
2241.000000	98.393517
2240.000000	98.389421
2239.000000	98.387371
2238.000000	98.393576
2237.000000	98.403236
2236.000000	98.410348
2235.000000	98.418333
2234.000000	98.432192
2233.000000	98.447479
2232.000000	98.456261
2231.000000	98.457975
2230.000000	98.454929
2229.000000	98.442729
2228.000000	98.416358
2227.000000	98.383972
2226.000000	98.365396
2225.000000	98.375390
2224.000000	98.411155
2223.000000	98.454684
2222.000000	98.485173
2221.000000	98.493335
2220.000000	98.487704
2219.000000	98.483762
2218.000000	98.486180
2217.000000	98.487562
2216.000000	98.484815
2215.000000	98.486935
2214.000000	98.502379
2213.000000	98.527466
2212.000000	98.552481
2211.000000	98.572070
2210.000000	98.583601
2209.000000	98.582392
2208.000000	98.566332
2207.000000	98.541790
2206.000000	98.520012
2205.000000	98.509086
2204.000000	98.509158
2203.000000	98.511810
2202.000000	98.506557
2201.000000	98.494284
2200.000000	98.490932
2199.000000	98.508813
2198.000000	98.538718
2197.000000	98.562410
2196.000000	98.579078
2195.000000	98.602598
2194.000000	98.634144
2193.000000	98.657134
2192.000000	98.662471
2191.000000	98.658726
2190.000000	98.650906
2189.000000	98.631254
2188.000000	98.600919
2187.000000	98.581266
2186.000000	98.589214
2185.000000	98.616169
2184.000000	98.644481
2183.000000	98.671322
2182.000000	98.699733
2181.000000	98.717387
2180.000000	98.704332
2179.000000	98.658688
2178.000000	98.602156
2177.000000	98.562822
2176.000000	98.556468
2175.000000	98.577345
2174.000000	98.603025
2173.000000	98.613957
2172.000000	98.610967
2171.000000	98.608845
2170.000000	98.615633
2169.000000	98.625389
2168.000000	98.627034
2167.000000	98.610824
2166.000000	98.573160
2165.000000	98.530636
2164.000000	98.521060
2163.000000	98.565378
2162.000000	98.632550
2161.000000	98.670124
2160.000000	98.671579
2159.000000	98.682411
2158.000000	98.726012
2157.000000	98.769826
2156.000000	98.784171
2155.000000	98.782297
2154.000000	98.787246
2153.000000	98.800155
2152.000000	98.811292
2151.000000	98.815288
2150.000000	98.807832
2149.000000	98.786084
2148.000000	98.758247
2147.000000	98.735451
2146.000000	98.711342
2145.000000	98.667844
2144.000000	98.605016
2143.000000	98.546698
2142.000000	98.513337
2141.000000	98.505278
2140.000000	98.513282
2139.000000	98.529105
2138.000000	98.542478
2137.000000	98.544203
2136.000000	98.538737
2135.000000	98.540587
2134.000000	98.553449
2133.000000	98.565826
2132.000000	98.569311
2131.000000	98.567836
2130.000000	98.566340
2129.000000	98.563292
2128.000000	98.557180
2127.000000	98.549586
2126.000000	98.539484
2125.000000	98.523913
2124.000000	98.506048
2123.000000	98.493134
2122.000000	98.485496
2121.000000	98.477222
2120.000000	98.468314
2119.000000	98.464743
2118.000000	98.464767
2117.000000	98.457201
2116.000000	98.437310
2115.000000	98.414099
2114.000000	98.397469
2113.000000	98.388166
2112.000000	98.384341
2111.000000	98.387595
2110.000000	98.396122
2109.000000	98.400871
2108.000000	98.395561
2107.000000	98.384427
2106.000000	98.374979
2105.000000	98.369603
2104.000000	98.367902
2103.000000	98.370103
2102.000000	98.374431
2101.000000	98.377683
2100.000000	98.381760
2099.000000	98.392980
2098.000000	98.413338
2097.000000	98.438021
2096.000000	98.461516
2095.000000	98.478284
2094.000000	98.479379
2093.000000	98.460966
2092.000000	98.436201
2091.000000	98.425099
2090.000000	98.430754
2089.000000	98.436844
2088.000000	98.430626
2087.000000	98.417077
2086.000000	98.406736
2085.000000	98.402706
2084.000000	98.404149
2083.000000	98.411463
2082.000000	98.422386
2081.000000	98.431669
2080.000000	98.438436
2079.000000	98.444780
2078.000000	98.445819
2077.000000	98.433255
2076.000000	98.411726
2075.000000	98.398563
2074.000000	98.403074
2073.000000	98.419039
2072.000000	98.439414
2071.000000	98.462770
2070.000000	98.481387
2069.000000	98.480891
2068.000000	98.461909
2067.000000	98.446886
2066.000000	98.455494
2065.000000	98.483360
2064.000000	98.511654
2063.000000	98.527783
2062.000000	98.530342
2061.000000	98.526306
2060.000000	98.529205
2059.000000	98.547012
2058.000000	98.568907
2057.000000	98.578192
2056.000000	98.578620
2055.000000	98.588911
2054.000000	98.608166
2053.000000	98.611112
2052.000000	98.585856
2051.000000	98.552932
2050.000000	98.537510
2049.000000	98.542804
2048.000000	98.562013
2047.000000	98.595434
2046.000000	98.636369
2045.000000	98.659416
2044.000000	98.646495
2043.000000	98.610261
2042.000000	98.575731
2041.000000	98.554615
2040.000000	98.548635
2039.000000	98.559341
2038.000000	98.582283
2037.000000	98.609373
2036.000000	98.645959
2035.000000	98.703456
2034.000000	98.766130
2033.000000	98.795928
2032.000000	98.785447
2031.000000	98.771072
2030.000000	98.776464
2029.000000	98.781554
2028.000000	98.763738
2027.000000	98.736388
2026.000000	98.724507
2025.000000	98.731722
2024.000000	98.748411
2023.000000	98.766757
2022.000000	98.775461
2021.000000	98.765377
2020.000000	98.752613
2019.000000	98.765424
2018.000000	98.796822
2017.000000	98.801502
2016.000000	98.757961
2015.000000	98.700081
2014.000000	98.668570
2013.000000	98.668785
2012.000000	98.688819
2011.000000	98.726630
2010.000000	98.780357
2009.000000	98.834196
2008.000000	98.869460
2007.000000	98.874110
2006.000000	98.837416
2005.000000	98.764971
2004.000000	98.699259
2003.000000	98.687475
2002.000000	98.726326
2001.000000	98.763925
2000.000000	98.762393
1999.000000	98.730891
1998.000000	98.694553
1997.000000	98.667346
1996.000000	98.660966
1995.000000	98.685031
1994.000000	98.723403
1993.000000	98.738534
1992.000000	98.717824
1991.000000	98.690444
1990.000000	98.676731
1989.000000	98.655716
1988.000000	98.604509
1987.000000	98.539319
1986.000000	98.495783
1985.000000	98.489619
1984.000000	98.512165
1983.000000	98.544507
1982.000000	98.563685
1981.000000	98.556941
1980.000000	98.548251
1979.000000	98.584358
1978.000000	98.675012
1977.000000	98.768756
1976.000000	98.809030
1975.000000	98.789798
1974.000000	98.738564
1973.000000	98.687759
1972.000000	98.672652
1971.000000	98.710741
1970.000000	98.769131
1969.000000	98.787978
1968.000000	98.752042
1967.000000	98.710451
1966.000000	98.710774
1965.000000	98.749450
1964.000000	98.800545
1963.000000	98.850480
1962.000000	98.887760
1961.000000	98.897089
1960.000000	98.882043
1959.000000	98.862790
1958.000000	98.840854
1957.000000	98.798322
1956.000000	98.738640
1955.000000	98.693420
1954.000000	98.678737
1953.000000	98.677836
1952.000000	98.676578
1951.000000	98.687080
1950.000000	98.718544
1949.000000	98.751372
1948.000000	98.764262
1947.000000	98.763484
1946.000000	98.764588
1945.000000	98.764431
1944.000000	98.750806
1943.000000	98.726218
1942.000000	98.703930
1941.000000	98.691138
1940.000000	98.689064
1939.000000	98.696634
1938.000000	98.704638
1937.000000	98.698104
1936.000000	98.674151
1935.000000	98.648039
1934.000000	98.634628
1933.000000	98.635375
1932.000000	98.644417
1931.000000	98.657478
1930.000000	98.667444
1929.000000	98.664234
1928.000000	98.653244
1927.000000	98.652591
1926.000000	98.671521
1925.000000	98.698656
1924.000000	98.719810
1923.000000	98.736357
1922.000000	98.751156
1921.000000	98.755497
1920.000000	98.740726
1919.000000	98.712659
1918.000000	98.688001
1917.000000	98.676924
1916.000000	98.678054
1915.000000	98.684639
1914.000000	98.687579
1913.000000	98.682293
1912.000000	98.675105
1911.000000	98.677929
1910.000000	98.691422
1909.000000	98.701593
1908.000000	98.700198
1907.000000	98.690854
1906.000000	98.679229
1905.000000	98.666111
1904.000000	98.655753
1903.000000	98.659012
1902.000000	98.675060
1901.000000	98.689043
1900.000000	98.695451
1899.000000	98.704410
1898.000000	98.721791
1897.000000	98.736124
1896.000000	98.735293
1895.000000	98.726988
1894.000000	98.725787
1893.000000	98.731944
1892.000000	98.735402
1891.000000	98.732556
1890.000000	98.728642
1889.000000	98.728283
1888.000000	98.733220
1887.000000	98.744036
1886.000000	98.756092
1885.000000	98.762509
1884.000000	98.763790
1883.000000	98.767102
1882.000000	98.772800
1881.000000	98.773110
1880.000000	98.768306
1879.000000	98.767446
1878.000000	98.773325
1877.000000	98.778037
1876.000000	98.774678
1875.000000	98.768741
1874.000000	98.771271
1873.000000	98.785596
1872.000000	98.807672
1871.000000	98.832778
1870.000000	98.856037
1869.000000	98.870302
1868.000000	98.870484
1867.000000	98.858335
1866.000000	98.834850
1865.000000	98.800259
1864.000000	98.764923
1863.000000	98.744521
1862.000000	98.740783
1861.000000	98.740346
1860.000000	98.736678
1859.000000	98.738272
1858.000000	98.750859
1857.000000	98.766841
1856.000000	98.778001
1855.000000	98.784584
1854.000000	98.787336
1853.000000	98.781313
1852.000000	98.771468
1851.000000	98.768711
1850.000000	98.775804
1849.000000	98.790956
1848.000000	98.815206
1847.000000	98.848404
1846.000000	98.875365
1845.000000	98.875082
1844.000000	98.848952
1843.000000	98.826288
1842.000000	98.822464
1841.000000	98.820955
1840.000000	98.808856
1839.000000	98.793982
1838.000000	98.788346
1837.000000	98.787804
1836.000000	98.784553
1835.000000	98.786442
1834.000000	98.801779
1833.000000	98.821757
1832.000000	98.833575
1831.000000	98.836771
1830.000000	98.842364
1829.000000	98.851730
1828.000000	98.853909
1827.000000	98.843555
1826.000000	98.825203
1825.000000	98.810749
1824.000000	98.807071
1823.000000	98.810872
1822.000000	98.814432
1821.000000	98.814708
1820.000000	98.816318
1819.000000	98.821780
1818.000000	98.827182
1817.000000	98.826171
1816.000000	98.820810
1815.000000	98.821579
1814.000000	98.828439
1813.000000	98.832340
1812.000000	98.827955
1811.000000	98.820600
1810.000000	98.816140
1809.000000	98.806696
1808.000000	98.784431
1807.000000	98.755250
1806.000000	98.728603
1805.000000	98.704744
1804.000000	98.678059
1803.000000	98.648799
1802.000000	98.618405
1801.000000	98.589710
1800.000000	98.565308
1799.000000	98.546773
1798.000000	98.534112
1797.000000	98.524828
1796.000000	98.519941
1795.000000	98.522552
1794.000000	98.530735
1793.000000	98.546791
1792.000000	98.578334
1791.000000	98.624162
1790.000000	98.671021
1789.000000	98.703623
1788.000000	98.716522
1787.000000	98.717499
1786.000000	98.718456
1785.000000	98.724619
1784.000000	98.736256
1783.000000	98.755086
1782.000000	98.772429
1781.000000	98.783122
1780.000000	98.790390
1779.000000	98.797713
1778.000000	98.805701
1777.000000	98.813292
1776.000000	98.829994
1775.000000	98.859179
1774.000000	98.882693
1773.000000	98.881943
1772.000000	98.863708
1771.000000	98.843503
1770.000000	98.814840
1769.000000	98.757396
1768.000000	98.673411
1767.000000	98.601247
1766.000000	98.564688
1765.000000	98.540195
1764.000000	98.488512
1763.000000	98.397038
1762.000000	98.278206
1761.000000	98.148952
1760.000000	98.010908
1759.000000	97.848558
1758.000000	97.630308
1757.000000	97.336462
1756.000000	97.007765
1755.000000	96.704560
1754.000000	96.421554
1753.000000	96.096288
1752.000000	95.690344
1751.000000	95.240269
1750.000000	94.812739
1749.000000	94.411486
1748.000000	94.020100
1747.000000	93.666402
1746.000000	93.369484
1745.000000	93.116363
1744.000000	92.900019
1743.000000	92.739406
1742.000000	92.640697
1741.000000	92.578329
1740.000000	92.546655
1739.000000	92.583473
1738.000000	92.693452
1737.000000	92.827176
1736.000000	92.958105
1735.000000	93.140254
1734.000000	93.448527
1733.000000	93.812677
1732.000000	94.129085
1731.000000	94.405423
1730.000000	94.681024
1729.000000	94.966712
1728.000000	95.255561
1727.000000	95.542703
1726.000000	95.821892
1725.000000	96.090572
1724.000000	96.347457
1723.000000	96.593641
1722.000000	96.824095
1721.000000	97.024569
1720.000000	97.195761
1719.000000	97.363984
1718.000000	97.554693
1717.000000	97.730360
1716.000000	97.835787
1715.000000	97.879795
1714.000000	97.889320
1713.000000	97.877316
1712.000000	97.858452
1711.000000	97.849702
1710.000000	97.853527
1709.000000	97.858636
1708.000000	97.856391
1707.000000	97.837806
1706.000000	97.797914
1705.000000	97.748276
1704.000000	97.714738
1703.000000	97.691934
1702.000000	97.622424
1701.000000	97.462771
1700.000000	97.297830
1699.000000	97.252484
1698.000000	97.257147
1697.000000	97.162623
1696.000000	96.937097
1695.000000	96.701554
1694.000000	96.556786
1693.000000	96.461685
1692.000000	96.353270
1691.000000	96.229511
1690.000000	96.114199
1689.000000	96.022198
1688.000000	95.963739
1687.000000	95.927358
1686.000000	95.866470
1685.000000	95.720179
1684.000000	95.504982
1683.000000	95.330146
1682.000000	95.210212
1681.000000	95.081690
1680.000000	94.928573
1679.000000	94.790124
1678.000000	94.678062
1677.000000	94.552051
1676.000000	94.380646
1675.000000	94.206998
1674.000000	94.091515
1673.000000	94.019043
1672.000000	93.929986
1671.000000	93.794327
1670.000000	93.615607
1669.000000	93.411392
1668.000000	93.220370
1667.000000	93.073289
1666.000000	92.957364
1665.000000	92.832994
1664.000000	92.670564
1663.000000	92.484949
1662.000000	92.310575
1661.000000	92.155102
1660.000000	92.006993
1659.000000	91.864436
1658.000000	91.744435
1657.000000	91.662390
1656.000000	91.610070
1655.000000	91.542823
1654.000000	91.406745
1653.000000	91.198305
1652.000000	91.036672
1651.000000	90.989387
1650.000000	90.984172
1649.000000	90.951554
1648.000000	90.888227
1647.000000	90.816224
1646.000000	90.758529
1645.000000	90.714737
1644.000000	90.684630
1643.000000	90.670759
1642.000000	90.669578
1641.000000	90.679468
1640.000000	90.708757
1639.000000	90.761174
1638.000000	90.824950
1637.000000	90.872738
1636.000000	90.895005
1635.000000	90.904328
1634.000000	90.920625
1633.000000	90.945386
1632.000000	90.966653
1631.000000	90.992316
1630.000000	91.037175
1629.000000	91.107034
1628.000000	91.199925
1627.000000	91.310601
1626.000000	91.426044
1625.000000	91.535956
1624.000000	91.645955
1623.000000	91.772190
1622.000000	91.911144
1621.000000	92.046453
1620.000000	92.174368
1619.000000	92.298701
1618.000000	92.430638
1617.000000	92.583574
1616.000000	92.749916
1615.000000	92.899464
1614.000000	93.017596
1613.000000	93.112901
1612.000000	93.207236
1611.000000	93.320301
1610.000000	93.448423
1609.000000	93.575074
1608.000000	93.693057
1607.000000	93.804870
1606.000000	93.906046
1605.000000	93.993973
1604.000000	94.075713
1603.000000	94.154149
1602.000000	94.224650
1601.000000	94.284300
1600.000000	94.338624
1599.000000	94.392984
1598.000000	94.445279
1597.000000	94.493166
1596.000000	94.538421
1595.000000	94.580603
1594.000000	94.612834
1593.000000	94.631425
1592.000000	94.641930
1591.000000	94.649691
1590.000000	94.652120
1589.000000	94.646359
1588.000000	94.635975
1587.000000	94.623469
1586.000000	94.605578
1585.000000	94.578580
1584.000000	94.549454
1583.000000	94.519289
1582.000000	94.481707
1581.000000	94.443736
1580.000000	94.423998
1579.000000	94.422491
1578.000000	94.413551
1577.000000	94.373020
1576.000000	94.306363
1575.000000	94.244121
1574.000000	94.197354
1573.000000	94.154696
1572.000000	94.103951
1571.000000	94.039177
1570.000000	93.960952
1569.000000	93.876054
1568.000000	93.800735
1567.000000	93.732035
1566.000000	93.650561
1565.000000	93.554761
1564.000000	93.478405
1563.000000	93.446057
1562.000000	93.438489
1561.000000	93.408555
1560.000000	93.310185
1559.000000	93.136657
1558.000000	92.942457
1557.000000	92.784837
1556.000000	92.648141
1555.000000	92.490112
1554.000000	92.319467
1553.000000	92.170830
1552.000000	92.050615
1551.000000	91.928893
1550.000000	91.795441
1549.000000	91.668022
1548.000000	91.566885
1547.000000	91.485853
1546.000000	91.408236
1545.000000	91.339340
1544.000000	91.300024
1543.000000	91.290574
1542.000000	91.284700
1541.000000	91.248339
1540.000000	91.172458
1539.000000	91.084949
1538.000000	91.021388
1537.000000	90.986532
1536.000000	90.955533
1535.000000	90.922819
1534.000000	90.899149
1533.000000	90.896061
1532.000000	90.904596
1531.000000	90.913431
1530.000000	90.920922
1529.000000	90.926278
1528.000000	90.935049
1527.000000	90.956554
1526.000000	90.990669
1525.000000	91.030619
1524.000000	91.068133
1523.000000	91.092056
1522.000000	91.097076
1521.000000	91.088119
1520.000000	91.082445
1519.000000	91.085339
1518.000000	91.074538
1517.000000	91.038885
1516.000000	90.999924
1515.000000	90.985820
1514.000000	90.991814
1513.000000	91.002919
1512.000000	91.028679
1511.000000	91.094744
1510.000000	91.199779
1509.000000	91.313177
1508.000000	91.408827
1507.000000	91.481452
1506.000000	91.499160
1505.000000	91.471752
1504.000000	91.456410
1503.000000	91.453866
1502.000000	91.454614
1501.000000	91.457846
1500.000000	91.469868
1499.000000	91.495353
1498.000000	91.520254
1497.000000	91.518040
1496.000000	91.487467
1495.000000	91.466753
1494.000000	91.470122
1493.000000	91.473918
1492.000000	91.462138
1491.000000	91.447892
1490.000000	91.442174
1489.000000	91.419677
1488.000000	91.358160
1487.000000	91.273763
1486.000000	91.184283
1485.000000	91.087288
1484.000000	90.986841
1483.000000	90.885393
1482.000000	90.777213
1481.000000	90.657324
1480.000000	90.532826
1479.000000	90.410170
1478.000000	90.277838
1477.000000	90.126158
1476.000000	89.968453
1475.000000	89.821839
1474.000000	89.654134
1473.000000	89.412492
1472.000000	89.113646
1471.000000	88.837835
1470.000000	88.611480
1469.000000	88.408187
1468.000000	88.215159
1467.000000	88.039818
1466.000000	87.876267
1465.000000	87.711381
1464.000000	87.560698
1463.000000	87.447266
1462.000000	87.365390
1461.000000	87.292595
1460.000000	87.220127
1459.000000	87.137097
1458.000000	87.001933
1457.000000	86.779305
1456.000000	86.549243
1455.000000	86.401315
1454.000000	86.297397
1453.000000	86.185015
1452.000000	86.072174
1451.000000	85.986353
1450.000000	85.922612
1449.000000	85.851538
1448.000000	85.767518
1447.000000	85.695561
1446.000000	85.637377
1445.000000	85.576350
1444.000000	85.506814
1443.000000	85.432601
1442.000000	85.357864
1441.000000	85.284272
1440.000000	85.215389
1439.000000	85.141087
1438.000000	85.035441
1437.000000	84.887233
1436.000000	84.746177
1435.000000	84.668036
1434.000000	84.630826
1433.000000	84.588073
1432.000000	84.530662
1431.000000	84.470500
1430.000000	84.400610
1429.000000	84.301911
1428.000000	84.183617
1427.000000	84.075967
1426.000000	83.981921
1425.000000	83.895492
1424.000000	83.833841
1423.000000	83.810977
1422.000000	83.803185
1421.000000	83.773193
1420.000000	83.718676
1419.000000	83.672942
1418.000000	83.648418
1417.000000	83.626992
1416.000000	83.610137
1415.000000	83.614168
1414.000000	83.641885
1413.000000	83.687289
1412.000000	83.753444
1411.000000	83.846251
1410.000000	83.957290
1409.000000	84.072335
1408.000000	84.190297
1407.000000	84.319732
1406.000000	84.456014
1405.000000	84.588200
1404.000000	84.716134
1403.000000	84.839926
1402.000000	84.948877
1401.000000	85.034287
1400.000000	85.109040
1399.000000	85.193927
1398.000000	85.286376
1397.000000	85.369435
1396.000000	85.442775
1395.000000	85.519433
1394.000000	85.599051
1393.000000	85.677804
1392.000000	85.763301
1391.000000	85.861110
1390.000000	85.966754
1389.000000	86.076798
1388.000000	86.198872
1387.000000	86.338944
1386.000000	86.482184
1385.000000	86.611716
1384.000000	86.730525
1383.000000	86.849117
1382.000000	86.972147
1381.000000	87.098731
1380.000000	87.232817
1379.000000	87.380749
1378.000000	87.541478
1377.000000	87.711752
1376.000000	87.896293
1375.000000	88.098791
1374.000000	88.301186
1373.000000	88.476439
1372.000000	88.620207
1371.000000	88.746405
1370.000000	88.864356
1369.000000	88.981162
1368.000000	89.103840
1367.000000	89.230277
1366.000000	89.351040
1365.000000	89.462370
1364.000000	89.570413
1363.000000	89.678018
1362.000000	89.775456
1361.000000	89.855371
1360.000000	89.923472
1359.000000	89.985211
1358.000000	90.039371
1357.000000	90.087920
1356.000000	90.138821
1355.000000	90.196183
1354.000000	90.255830
1353.000000	90.314218
1352.000000	90.372759
1351.000000	90.433495
1350.000000	90.491628
1349.000000	90.542017
1348.000000	90.582936
1347.000000	90.611179
1346.000000	90.621838
1345.000000	90.616050
1344.000000	90.603363
1343.000000	90.591236
1342.000000	90.577301
1341.000000	90.553858
1340.000000	90.515503
1339.000000	90.461865
1338.000000	90.399339
1337.000000	90.341560
1336.000000	90.303219
1335.000000	90.291896
1334.000000	90.306294
1333.000000	90.342060
1332.000000	90.395895
1331.000000	90.463601
1330.000000	90.538629
1329.000000	90.616308
1328.000000	90.696013
1327.000000	90.777200
1326.000000	90.856075
1325.000000	90.929146
1324.000000	90.995355
1323.000000	91.054087
1322.000000	91.105907
1321.000000	91.155084
1320.000000	91.207286
1319.000000	91.264031
1318.000000	91.323254
1317.000000	91.384904
1316.000000	91.450976
1315.000000	91.520440
1314.000000	91.589847
1313.000000	91.658707
1312.000000	91.728813
1311.000000	91.798994
1310.000000	91.865971
1309.000000	91.930653
1308.000000	91.997597
1307.000000	92.068620
1306.000000	92.140650
1305.000000	92.211050
1304.000000	92.279852
1303.000000	92.347307
1302.000000	92.414135
1301.000000	92.483413
1300.000000	92.557597
1299.000000	92.633834
1298.000000	92.706734
1297.000000	92.774360
1296.000000	92.837271
1295.000000	92.892681
1294.000000	92.935731
1293.000000	92.966029
1292.000000	92.988144
1291.000000	93.006255
1290.000000	93.021342
1289.000000	93.033166
1288.000000	93.041379
1287.000000	93.045756
1286.000000	93.048405
1285.000000	93.053768
1284.000000	93.063776
1283.000000	93.075224
1282.000000	93.084440
1281.000000	93.091218
1280.000000	93.094457
1279.000000	93.088039
1278.000000	93.066683
1277.000000	93.032542
1276.000000	92.990899
1275.000000	92.940863
1274.000000	92.876582
1273.000000	92.795796
1272.000000	92.701078
1271.000000	92.594021
1270.000000	92.472655
1269.000000	92.335749
1268.000000	92.185480
1267.000000	92.024825
1266.000000	91.856661
1265.000000	91.685341
1264.000000	91.516042
1263.000000	91.351283
1262.000000	91.190428
1261.000000	91.033614
1260.000000	90.883518
1259.000000	90.741863
1258.000000	90.608094
1257.000000	90.485338
1256.000000	90.383407
1255.000000	90.311834
1254.000000	90.270412
1253.000000	90.248733
1252.000000	90.234512
1251.000000	90.218784
1250.000000	90.196602
1249.000000	90.167114
1248.000000	90.132141
1247.000000	90.092711
1246.000000	90.048326
1245.000000	90.001040
1244.000000	89.957263
1243.000000	89.922878
1242.000000	89.899284
1241.000000	89.886650
1240.000000	89.887650
1239.000000	89.904824
1238.000000	89.936835
1237.000000	89.982400
1236.000000	90.043952
1235.000000	90.123080
1234.000000	90.215727
1233.000000	90.315678
1232.000000	90.421759
1231.000000	90.537417
1230.000000	90.666555
1229.000000	90.813966
1228.000000	90.984771
1227.000000	91.179243
1226.000000	91.389359
1225.000000	91.603707
1224.000000	91.813828
1223.000000	92.013720
1222.000000	92.198296
1221.000000	92.365553
1220.000000	92.517193
1219.000000	92.654153
1218.000000	92.775392
1217.000000	92.881485
1216.000000	92.975417
1215.000000	93.058824
1214.000000	93.129891
1213.000000	93.187585
1212.000000	93.233462
1211.000000	93.268047
1210.000000	93.289662
1209.000000	93.297574
1208.000000	93.294274
1207.000000	93.282653
1206.000000	93.263821
1205.000000	93.239595
1204.000000	93.213688
1203.000000	93.188892
1202.000000	93.164968
1201.000000	93.141184
1200.000000	93.118987
1199.000000	93.099576
1198.000000	93.080715
1197.000000	93.058693
1196.000000	93.032766
1195.000000	93.005508
1194.000000	92.978819
1193.000000	92.951415
1192.000000	92.920526
1191.000000	92.884827
1190.000000	92.845487
1189.000000	92.804146
1188.000000	92.759869
1187.000000	92.708534
1186.000000	92.645793
1185.000000	92.571050
1184.000000	92.487010
1183.000000	92.395842
1182.000000	92.297499
1181.000000	92.191391
1180.000000	92.078401
1179.000000	91.959756
1178.000000	91.835935
1177.000000	91.708509
1176.000000	91.581494
1175.000000	91.459004
1174.000000	91.341921
1173.000000	91.228845
1172.000000	91.119435
1171.000000	91.014950
1170.000000	90.916106
1169.000000	90.822990
1168.000000	90.736561
1167.000000	90.657339
1166.000000	90.584705
1165.000000	90.520289
1164.000000	90.471153
1163.000000	90.446076
1162.000000	90.447723
1161.000000	90.473209
1160.000000	90.520073
1159.000000	90.587761
1158.000000	90.675905
1157.000000	90.784646
1156.000000	90.917212
1155.000000	91.075632
1154.000000	91.254839
1153.000000	91.447249
1152.000000	91.651007
1151.000000	91.869817
1150.000000	92.104118
1149.000000	92.347545
1148.000000	92.592985
1147.000000	92.837349
1146.000000	93.080019
1145.000000	93.319260
1144.000000	93.551749
1143.000000	93.774278
1142.000000	93.985779
1141.000000	94.186963
1140.000000	94.377471
1139.000000	94.554853
1138.000000	94.716303
1137.000000	94.861177
1136.000000	94.989438
1135.000000	95.099071
1134.000000	95.188282
1133.000000	95.258019
1132.000000	95.311718
1131.000000	95.352617
1130.000000	95.382547
1129.000000	95.403308
1128.000000	95.416816
1127.000000	95.424982
1126.000000	95.428937
1125.000000	95.427317
1124.000000	95.416730
1123.000000	95.394875
1122.000000	95.362880
1121.000000	95.321872
1120.000000	95.267652
1119.000000	95.193399
1118.000000	95.096447
1117.000000	94.979163
1116.000000	94.842842
1115.000000	94.685032
1114.000000	94.506338
1113.000000	94.316846
1112.000000	94.134691
1111.000000	93.978211
1110.000000	93.858764
1109.000000	93.778090
1108.000000	93.731642
1107.000000	93.713453
1106.000000	93.716871
1105.000000	93.733527
1104.000000	93.753176
1103.000000	93.767526
1102.000000	93.772710
1101.000000	93.766162
1100.000000	93.742943
1099.000000	93.698052
1098.000000	93.633917
1097.000000	93.561029
1096.000000	93.490651
1095.000000	93.428972
1094.000000	93.378792
1093.000000	93.343683
1092.000000	93.329355
1091.000000	93.341515
1090.000000	93.383799
1089.000000	93.454540
1088.000000	93.545067
1087.000000	93.644637
1086.000000	93.748274
1085.000000	93.858912
1084.000000	93.979066
1083.000000	94.104260
1082.000000	94.227776
1081.000000	94.347667
1080.000000	94.464917
1079.000000	94.577688
1078.000000	94.682836
1077.000000	94.780462
1076.000000	94.872517
1075.000000	94.958846
1074.000000	95.038606
1073.000000	95.112514
1072.000000	95.178412
1071.000000	95.228874
1070.000000	95.258025
1069.000000	95.268593
1068.000000	95.267922
1067.000000	95.260138
1066.000000	95.247884
1065.000000	95.237492
1064.000000	95.235292
1063.000000	95.240167
1062.000000	95.245491
1061.000000	95.248136
1060.000000	95.250437
1059.000000	95.254682
1058.000000	95.261492
1057.000000	95.273746
1056.000000	95.295877
1055.000000	95.327756
1054.000000	95.363553
1053.000000	95.398037
1052.000000	95.431220
1051.000000	95.466041
1050.000000	95.504568
1049.000000	95.546657
1048.000000	95.589285
1047.000000	95.626824
1046.000000	95.654255
1045.000000	95.669532
1044.000000	95.671070
1043.000000	95.656711
1042.000000	95.628400
1041.000000	95.594928
1040.000000	95.564315
1039.000000	95.533712
1038.000000	95.492230
1037.000000	95.433663
1036.000000	95.363040
1035.000000	95.290645
1034.000000	95.224175
1033.000000	95.167192
1032.000000	95.120706
1031.000000	95.083636
1030.000000	95.053987
1029.000000	95.032251
1028.000000	95.021482
1027.000000	95.022735
1026.000000	95.032498
1025.000000	95.046189
1024.000000	95.063052
1023.000000	95.085601
1022.000000	95.115840
1021.000000	95.153239
1020.000000	95.194903
1019.000000	95.236969
1018.000000	95.276913
1017.000000	95.315485
1016.000000	95.355693
1015.000000	95.399919
1014.000000	95.449731
1013.000000	95.507615
1012.000000	95.576071
1011.000000	95.654117
1010.000000	95.736412
1009.000000	95.817092
1008.000000	95.893400
1007.000000	95.965754
1006.000000	96.036014
1005.000000	96.105590
1004.000000	96.173624
1003.000000	96.236989
1002.000000	96.293279
1001.000000	96.342748
1000.000000	96.386541
999.000000	96.424358
998.000000	96.455853
997.000000	96.482861
996.000000	96.507382
995.000000	96.528628
994.000000	96.544208
993.000000	96.553892
992.000000	96.560204
991.000000	96.565702
990.000000	96.571485
989.000000	96.577478
988.000000	96.582272
987.000000	96.583462
986.000000	96.579934
985.000000	96.573472
984.000000	96.566260
983.000000	96.557423
982.000000	96.544174
981.000000	96.525770
980.000000	96.504434
979.000000	96.482053
978.000000	96.457785
977.000000	96.429613
976.000000	96.396704
975.000000	96.359713
974.000000	96.319674
973.000000	96.278142
972.000000	96.238805
971.000000	96.207937
970.000000	96.191092
969.000000	96.188229
968.000000	96.193786
967.000000	96.202817
966.000000	96.216722
965.000000	96.240285
964.000000	96.273178
963.000000	96.308414
962.000000	96.340576
961.000000	96.373281
960.000000	96.414951
959.000000	96.468609
958.000000	96.529471
957.000000	96.591801
956.000000	96.655187
955.000000	96.723061
954.000000	96.797457
953.000000	96.876683
952.000000	96.956425
951.000000	97.032128
950.000000	97.101093
949.000000	97.163497
948.000000	97.221733
947.000000	97.278576
946.000000	97.335005
945.000000	97.388756
944.000000	97.435895
943.000000	97.475158
942.000000	97.510421
941.000000	97.546434
940.000000	97.582636
939.000000	97.614226
938.000000	97.639156
937.000000	97.661316
936.000000	97.686093
935.000000	97.716027
934.000000	97.751315
933.000000	97.791004
932.000000	97.832105
931.000000	97.870378
930.000000	97.903608
929.000000	97.932214
928.000000	97.956663
927.000000	97.977775
926.000000	97.999903
925.000000	98.028815
924.000000	98.064585
923.000000	98.100569
922.000000	98.132161
921.000000	98.162646
920.000000	98.197715
919.000000	98.237639
918.000000	98.278197
917.000000	98.316662
916.000000	98.353343
915.000000	98.389447
914.000000	98.426129
913.000000	98.463872
912.000000	98.500934
911.000000	98.534599
910.000000	98.565198
909.000000	98.595916
908.000000	98.626997
907.000000	98.654280
906.000000	98.675820
905.000000	98.695479
904.000000	98.716641
903.000000	98.736262
902.000000	98.749862
901.000000	98.759714
900.000000	98.773547
899.000000	98.795564
898.000000	98.822248
897.000000	98.846176
896.000000	98.862154
895.000000	98.870404
894.000000	98.874985
893.000000	98.878372
892.000000	98.876812
891.000000	98.861520
890.000000	98.819322
889.000000	98.724782
888.000000	98.535347
887.000000	98.207173
886.000000	97.731162
885.000000	97.152040
884.000000	96.543831
883.000000	95.961412
882.000000	95.405054
881.000000	94.827281
880.000000	94.176109
879.000000	93.442496
878.000000	92.673839
877.000000	91.951345
876.000000	91.357123
875.000000	90.957094
874.000000	90.801434
873.000000	90.921285
872.000000	91.320143
871.000000	91.957354
870.000000	92.745181
869.000000	93.574814
868.000000	94.351847
867.000000	95.021219
866.000000	95.570335
865.000000	96.015781
864.000000	96.381528
863.000000	96.685957
862.000000	96.942138
861.000000	97.162016
860.000000	97.354433
859.000000	97.521489
858.000000	97.663290
857.000000	97.782307
856.000000	97.881311
855.000000	97.962366
854.000000	98.030253
853.000000	98.089127
852.000000	98.127923
851.000000	98.120539
850.000000	98.057453
849.000000	97.975584
848.000000	97.940818
847.000000	97.992021
846.000000	98.107882
845.000000	98.232669
844.000000	98.325604
843.000000	98.381898
842.000000	98.417447
841.000000	98.446231
840.000000	98.472291
839.000000	98.493307
838.000000	98.506286
837.000000	98.510790
836.000000	98.508726
835.000000	98.502544
834.000000	98.494792
833.000000	98.489180
832.000000	98.489630
831.000000	98.497648
830.000000	98.512859
829.000000	98.537113
828.000000	98.574530
827.000000	98.624262
826.000000	98.675744
825.000000	98.715461
824.000000	98.738228
823.000000	98.749157
822.000000	98.755471
821.000000	98.760199
820.000000	98.763817
819.000000	98.768011
818.000000	98.775746
817.000000	98.789033
816.000000	98.807581
815.000000	98.828546
814.000000	98.847267
813.000000	98.859808
812.000000	98.865868
811.000000	98.868022
810.000000	98.867266
809.000000	98.860917
808.000000	98.846814
807.000000	98.828241
806.000000	98.811456
805.000000	98.798402
804.000000	98.785040
803.000000	98.768033
802.000000	98.749684
801.000000	98.733738
800.000000	98.718741
799.000000	98.699073
798.000000	98.672487
797.000000	98.644115
796.000000	98.622210
795.000000	98.610460
794.000000	98.604022
793.000000	98.592795
792.000000	98.570132
791.000000	98.539680
790.000000	98.512524
789.000000	98.495998
788.000000	98.486381
787.000000	98.473900
786.000000	98.453581
785.000000	98.429339
784.000000	98.408545
783.000000	98.395332
782.000000	98.388763
781.000000	98.384647
780.000000	98.378259
779.000000	98.366991
778.000000	98.351292
777.000000	98.332350
776.000000	98.309552
775.000000	98.282271
774.000000	98.253744
773.000000	98.230154
772.000000	98.214634
771.000000	98.204205
770.000000	98.194172
769.000000	98.183734
768.000000	98.174902
767.000000	98.166870
766.000000	98.154510
765.000000	98.133478
764.000000	98.105152
763.000000	98.074926
762.000000	98.045972
761.000000	98.015911
760.000000	97.980222
759.000000	97.938202
758.000000	97.894358
757.000000	97.853728
756.000000	97.817114
755.000000	97.782442
754.000000	97.750575
753.000000	97.727633
752.000000	97.719635
751.000000	97.725128
750.000000	97.734540
749.000000	97.737726
748.000000	97.731693
747.000000	97.720681
746.000000	97.710282
745.000000	97.702684
744.000000	97.696365
743.000000	97.687878
742.000000	97.673647
741.000000	97.652355
740.000000	97.626893
739.000000	97.602379
738.000000	97.580721
737.000000	97.557838
736.000000	97.527339
735.000000	97.485748
734.000000	97.433004
733.000000	97.370352
732.000000	97.301497
731.000000	97.235009
730.000000	97.180735
729.000000	97.141223
728.000000	97.111157
727.000000	97.086429
726.000000	97.068339
725.000000	97.057324
724.000000	97.046134
723.000000	97.021944
722.000000	96.972752
721.000000	96.890415
720.000000	96.771002
719.000000	96.612409
718.000000	96.404418
717.000000	96.116960
716.000000	95.711163
715.000000	95.186212
714.000000	94.627538
713.000000	94.192779
712.000000	94.021541
711.000000	94.138379
710.000000	94.440557
709.000000	94.777501
708.000000	95.042116
707.000000	95.204591
706.000000	95.285398
705.000000	95.317170
704.000000	95.326563
703.000000	95.328683
702.000000	95.326850
701.000000	95.318632
700.000000	95.302559
699.000000	95.280458
698.000000	95.254367
697.000000	95.226682
696.000000	95.203401
695.000000	95.189767
694.000000	95.185273
693.000000	95.185883
692.000000	95.189251
691.000000	95.196222
690.000000	95.205534
689.000000	95.212697
688.000000	95.215383
687.000000	95.215511
686.000000	95.216884
685.000000	95.220583
684.000000	95.221069
683.000000	95.208646
682.000000	95.179037
681.000000	95.142584
680.000000	95.119843
679.000000	95.124201
678.000000	95.149331
677.000000	95.174078
676.000000	95.185645
675.000000	95.189420
674.000000	95.200330
673.000000	95.227560
672.000000	95.269463
671.000000	95.321577
670.000000	95.387298
669.000000	95.469182
668.000000	95.527364
667.000000	95.539107
666.000000	95.561359
665.000000	95.590510
664.000000	95.611589
663.000000	95.631077
662.000000	95.655550
661.000000	95.681989
660.000000	95.707493
659.000000	95.734917
658.000000	95.760384
657.000000	95.764074
656.000000	95.730525
655.000000	95.663945
654.000000	95.580736
653.000000	95.496820
652.000000	95.427094
651.000000	95.380061
650.000000	95.344429
649.000000	95.294892
648.000000	95.223312
647.000000	95.147877
646.000000	95.082366
645.000000	95.016124
644.000000	94.934703
643.000000	94.841709
642.000000	94.749372
641.000000	94.659959
640.000000	94.571397
639.000000	94.491238
638.000000	94.428462
637.000000	94.382032
636.000000	94.350689
635.000000	94.341740
634.000000	94.358659
633.000000	94.390762
632.000000	94.424448
631.000000	94.454281
630.000000	94.476271
629.000000	94.483357
628.000000	94.476156
627.000000	94.465701
626.000000	94.456037
625.000000	94.437701
624.000000	94.405332
623.000000	94.367230
622.000000	94.329279
621.000000	94.284165
620.000000	94.227560
619.000000	94.170614
618.000000	94.124132
617.000000	94.081799
616.000000	94.033122
615.000000	93.982556
614.000000	93.940784
613.000000	93.908567
612.000000	93.884148
611.000000	93.877175
610.000000	93.899502
609.000000	93.948185
608.000000	94.009653
607.000000	94.075479
606.000000	94.143900
605.000000	94.215910
604.000000	94.299459
603.000000	94.409599
602.000000	94.554479
601.000000	94.723365
600.000000	94.894593
599.000000	95.051175
598.000000	95.186018
597.000000	95.299180
596.000000	95.396827
595.000000	95.489774
594.000000	95.586623
593.000000	95.687385
592.000000	95.783410
591.000000	95.860421
590.000000	95.905602
589.000000	95.920476
588.000000	95.926876
587.000000	95.950658
586.000000	95.994393
585.000000	96.033944
584.000000	96.048430
583.000000	96.042991
582.000000	96.033784
581.000000	96.026012
580.000000	96.019833
579.000000	96.025176
578.000000	96.051475
577.000000	96.088286
576.000000	96.113785
575.000000	96.122346
574.000000	96.130835
573.000000	96.153664
572.000000	96.186513
571.000000	96.216636
570.000000	96.238384
569.000000	96.256501
568.000000	96.278431
567.000000	96.305301
566.000000	96.328915
565.000000	96.337948
564.000000	96.328155
563.000000	96.306137
562.000000	96.284318
561.000000	96.274651
560.000000	96.284682
559.000000	96.311194
558.000000	96.335771
557.000000	96.338553
556.000000	96.320931
555.000000	96.304134
554.000000	96.301953
553.000000	96.306806
552.000000	96.307502
551.000000	96.305276
550.000000	96.304111
549.000000	96.300356
548.000000	96.294440
547.000000	96.299850
546.000000	96.327562
545.000000	96.368853
544.000000	96.406423
543.000000	96.433152
542.000000	96.448694
541.000000	96.450972
540.000000	96.443817
539.000000	96.442850
538.000000	96.459740
537.000000	96.486205
536.000000	96.503585
535.000000	96.501781
534.000000	96.481172
533.000000	96.446027
532.000000	96.405661
531.000000	96.372988
530.000000	96.353393
529.000000	96.343967
528.000000	96.349576
527.000000	96.383747
526.000000	96.439255
525.000000	96.476723
524.000000	96.468592
523.000000	96.430415
522.000000	96.392310
521.000000	96.366834
520.000000	96.356673
519.000000	96.372655
518.000000	96.421271
517.000000	96.483990
516.000000	96.535249
515.000000	96.568848
514.000000	96.587673
513.000000	96.587117
512.000000	96.569425
511.000000	96.559524
510.000000	96.582827
509.000000	96.635276
508.000000	96.694774
507.000000	96.750894
506.000000	96.803930
505.000000	96.848491
504.000000	96.881433
503.000000	96.916827
502.000000	96.969051
501.000000	97.026191
500.000000	97.067162
499.000000	97.093819
498.000000	97.120410
497.000000	97.143353
496.000000	97.145063
495.000000	97.125008
494.000000	97.105446
493.000000	97.102955
492.000000	97.112567
491.000000	97.125562
490.000000	97.143655
489.000000	97.169259
488.000000	97.197119
487.000000	97.220738
486.000000	97.239221
485.000000	97.259694
484.000000	97.297572
483.000000	97.363976
482.000000	97.440865
481.000000	97.481301
480.000000	97.451202
479.000000	97.368685
478.000000	97.297647
477.000000	97.299493
476.000000	97.391041
475.000000	97.539211
474.000000	97.679896
473.000000	97.754743
472.000000	97.763655
471.000000	97.769528
470.000000	97.814335
469.000000	97.871193
468.000000	97.896826
467.000000	97.886925
466.000000	97.867533
465.000000	97.856047
464.000000	97.864700
463.000000	97.919084
462.000000	98.033787
461.000000	98.179986
460.000000	98.312244
459.000000	98.406949
458.000000	98.453449
457.000000	98.385952
456.000000	98.404591
455.000000	98.488355
454.000000	98.634500
453.000000	98.776310
452.000000	98.844583
451.000000	98.849397
450.000000	98.855089
