PE IR       SUBTECH     SPECTRUM    ASCII       PEDS        4.00        
   -1
3C-YYX-F010_1.ASC
23/09/07
11:00:51.00
23/09/07
11:30:09.00
uco
Sample 010 By uco Date Thursday, September 07 2023
450.000000
#HDR
-1
-1
#GR
cm-1
%T
1.0
0.0
4000.000000
-1.000000
3551
8
98.735454
83.869645
#DATA
4000.000000	98.662512
3999.000000	98.659939
3998.000000	98.656243
3997.000000	98.653844
3996.000000	98.653827
3995.000000	98.655034
3994.000000	98.655011
3993.000000	98.652135
3992.000000	98.646870
3991.000000	98.641103
3990.000000	98.636571
3989.000000	98.633901
3988.000000	98.632798
3987.000000	98.632588
3986.000000	98.632463
3985.000000	98.631839
3984.000000	98.630996
3983.000000	98.631145
3982.000000	98.633245
3981.000000	98.636564
3980.000000	98.638881
3979.000000	98.638467
3978.000000	98.635698
3977.000000	98.632585
3976.000000	98.630890
3975.000000	98.630901
3974.000000	98.631840
3973.000000	98.632955
3972.000000	98.634012
3971.000000	98.635076
3970.000000	98.636192
3969.000000	98.637273
3968.000000	98.638112
3967.000000	98.638463
3966.000000	98.638204
3965.000000	98.637413
3964.000000	98.636183
3963.000000	98.634327
3962.000000	98.631389
3961.000000	98.627028
3960.000000	98.621431
3959.000000	98.615460
3958.000000	98.610456
3957.000000	98.607716
3956.000000	98.607744
3955.000000	98.609846
3954.000000	98.612603
3953.000000	98.614974
3952.000000	98.616986
3951.000000	98.619362
3950.000000	98.622447
3949.000000	98.625554
3948.000000	98.627386
3947.000000	98.626995
3946.000000	98.624392
3945.000000	98.620397
3944.000000	98.616330
3943.000000	98.613746
3942.000000	98.613687
3941.000000	98.615993
3940.000000	98.619276
3939.000000	98.621459
3938.000000	98.620767
3937.000000	98.616708
3936.000000	98.610648
3935.000000	98.605422
3934.000000	98.604094
3933.000000	98.608499
3932.000000	98.617690
3931.000000	98.627608
3930.000000	98.633217
3929.000000	98.631800
3928.000000	98.624817
3927.000000	98.617030
3926.000000	98.613662
3925.000000	98.617035
3924.000000	98.624899
3923.000000	98.632423
3922.000000	98.635871
3921.000000	98.633937
3920.000000	98.627135
3919.000000	98.617390
3918.000000	98.608209
3917.000000	98.603624
3916.000000	98.605452
3915.000000	98.611603
3914.000000	98.617489
3913.000000	98.619365
3912.000000	98.616518
3911.000000	98.611223
3910.000000	98.606633
3909.000000	98.604098
3908.000000	98.602535
3907.000000	98.599790
3906.000000	98.594757
3905.000000	98.588970
3904.000000	98.586177
3903.000000	98.589479
3902.000000	98.598663
3901.000000	98.610384
3900.000000	98.620656
3899.000000	98.626886
3898.000000	98.628778
3897.000000	98.627916
3896.000000	98.626144
3895.000000	98.624399
3894.000000	98.622804
3893.000000	98.621422
3892.000000	98.620915
3891.000000	98.622001
3890.000000	98.624492
3889.000000	98.627264
3888.000000	98.628622
3887.000000	98.627085
3886.000000	98.622666
3885.000000	98.617225
3884.000000	98.613528
3883.000000	98.613286
3882.000000	98.616056
3881.000000	98.619412
3880.000000	98.620026
3879.000000	98.616286
3878.000000	98.610264
3877.000000	98.605634
3876.000000	98.604721
3875.000000	98.607702
3874.000000	98.612524
3873.000000	98.615947
3872.000000	98.615932
3871.000000	98.613442
3870.000000	98.611854
3869.000000	98.614047
3868.000000	98.619988
3867.000000	98.627021
3866.000000	98.631836
3865.000000	98.632872
3864.000000	98.631445
3863.000000	98.629853
3862.000000	98.628288
3861.000000	98.625313
3860.000000	98.620700
3859.000000	98.615740
3858.000000	98.611347
3857.000000	98.606751
3856.000000	98.600787
3855.000000	98.593305
3854.000000	98.585290
3853.000000	98.579586
3852.000000	98.579433
3851.000000	98.585046
3850.000000	98.593334
3849.000000	98.600484
3848.000000	98.604930
3847.000000	98.607184
3846.000000	98.608029
3845.000000	98.607642
3844.000000	98.606166
3843.000000	98.604238
3842.000000	98.602558
3841.000000	98.601676
3840.000000	98.602432
3839.000000	98.605954
3838.000000	98.612684
3837.000000	98.621398
3836.000000	98.629960
3835.000000	98.636421
3834.000000	98.639356
3833.000000	98.638378
3832.000000	98.634405
3831.000000	98.628955
3830.000000	98.623541
3829.000000	98.619152
3828.000000	98.616020
3827.000000	98.613796
3826.000000	98.611821
3825.000000	98.609587
3824.000000	98.607084
3823.000000	98.604961
3822.000000	98.604198
3821.000000	98.605010
3820.000000	98.605861
3819.000000	98.605657
3818.000000	98.605716
3817.000000	98.607608
3816.000000	98.610916
3815.000000	98.613191
3814.000000	98.613559
3813.000000	98.613597
3812.000000	98.614590
3811.000000	98.616707
3810.000000	98.619172
3809.000000	98.620337
3808.000000	98.618599
3807.000000	98.613880
3806.000000	98.607947
3805.000000	98.602772
3804.000000	98.599253
3803.000000	98.598807
3802.000000	98.603962
3801.000000	98.613636
3800.000000	98.622136
3799.000000	98.626451
3798.000000	98.627492
3797.000000	98.627130
3796.000000	98.626645
3795.000000	98.626000
3794.000000	98.624788
3793.000000	98.623248
3792.000000	98.621886
3791.000000	98.621023
3790.000000	98.620727
3789.000000	98.620709
3788.000000	98.620542
3787.000000	98.619854
3786.000000	98.618593
3785.000000	98.617280
3784.000000	98.616906
3783.000000	98.618424
3782.000000	98.622187
3781.000000	98.627206
3780.000000	98.631055
3779.000000	98.631177
3778.000000	98.627127
3777.000000	98.621334
3776.000000	98.617274
3775.000000	98.617134
3774.000000	98.620772
3773.000000	98.625982
3772.000000	98.629789
3771.000000	98.630684
3770.000000	98.630282
3769.000000	98.631819
3768.000000	98.636764
3767.000000	98.643467
3766.000000	98.648791
3765.000000	98.650281
3764.000000	98.647456
3763.000000	98.641454
3762.000000	98.634035
3761.000000	98.627008
3760.000000	98.622059
3759.000000	98.620193
3758.000000	98.621151
3757.000000	98.623711
3756.000000	98.626125
3755.000000	98.626513
3754.000000	98.624217
3753.000000	98.621348
3752.000000	98.621883
3751.000000	98.626678
3750.000000	98.630355
3749.000000	98.628798
3748.000000	98.625429
3747.000000	98.625647
3746.000000	98.631994
3745.000000	98.642049
3744.000000	98.648408
3743.000000	98.648497
3742.000000	98.647311
3741.000000	98.646638
3740.000000	98.644176
3739.000000	98.639710
3738.000000	98.635848
3737.000000	98.634477
3736.000000	98.634779
3735.000000	98.635352
3734.000000	98.636690
3733.000000	98.640331
3732.000000	98.646157
3731.000000	98.652293
3730.000000	98.657247
3729.000000	98.660849
3728.000000	98.663816
3727.000000	98.666636
3726.000000	98.668234
3725.000000	98.666664
3724.000000	98.661494
3723.000000	98.654660
3722.000000	98.648762
3721.000000	98.645649
3720.000000	98.646138
3719.000000	98.649646
3718.000000	98.654051
3717.000000	98.656621
3716.000000	98.655908
3715.000000	98.652733
3714.000000	98.649015
3713.000000	98.646787
3712.000000	98.647716
3711.000000	98.652121
3710.000000	98.657761
3709.000000	98.661331
3708.000000	98.661530
3707.000000	98.659615
3706.000000	98.658165
3705.000000	98.659306
3704.000000	98.663096
3703.000000	98.666729
3702.000000	98.666550
3701.000000	98.661942
3700.000000	98.656466
3699.000000	98.653724
3698.000000	98.653557
3697.000000	98.652593
3696.000000	98.647620
3695.000000	98.638601
3694.000000	98.628838
3693.000000	98.623223
3692.000000	98.625693
3691.000000	98.636673
3690.000000	98.650599
3689.000000	98.657887
3688.000000	98.653914
3687.000000	98.643906
3686.000000	98.634956
3685.000000	98.628680
3684.000000	98.623487
3683.000000	98.618456
3682.000000	98.613917
3681.000000	98.609754
3680.000000	98.604856
3679.000000	98.598173
3678.000000	98.590135
3677.000000	98.583239
3676.000000	98.580421
3675.000000	98.580809
3674.000000	98.579715
3673.000000	98.575533
3672.000000	98.570227
3671.000000	98.566653
3670.000000	98.566462
3669.000000	98.567474
3668.000000	98.566147
3667.000000	98.561845
3666.000000	98.555761
3665.000000	98.549121
3664.000000	98.542648
3663.000000	98.536597
3662.000000	98.531339
3661.000000	98.528016
3660.000000	98.528292
3659.000000	98.532575
3658.000000	98.538074
3657.000000	98.539277
3656.000000	98.532768
3655.000000	98.522136
3654.000000	98.514162
3653.000000	98.511055
3652.000000	98.508874
3651.000000	98.501235
3650.000000	98.485417
3649.000000	98.467360
3648.000000	98.455952
3647.000000	98.452523
3646.000000	98.452537
3645.000000	98.452737
3644.000000	98.452964
3643.000000	98.453888
3642.000000	98.454870
3641.000000	98.454007
3640.000000	98.450373
3639.000000	98.445373
3638.000000	98.440961
3637.000000	98.437024
3636.000000	98.431222
3635.000000	98.421672
3634.000000	98.409402
3633.000000	98.397700
3632.000000	98.389142
3631.000000	98.383945
3630.000000	98.380308
3629.000000	98.375319
3628.000000	98.367224
3627.000000	98.357456
3626.000000	98.348793
3625.000000	98.341837
3624.000000	98.336205
3623.000000	98.332260
3622.000000	98.330148
3621.000000	98.328235
3620.000000	98.323059
3619.000000	98.311974
3618.000000	98.296415
3617.000000	98.281095
3616.000000	98.269722
3615.000000	98.262477
3614.000000	98.256589
3613.000000	98.248389
3612.000000	98.235781
3611.000000	98.219306
3610.000000	98.201176
3609.000000	98.184945
3608.000000	98.174844
3607.000000	98.172443
3606.000000	98.174871
3605.000000	98.177466
3604.000000	98.177295
3603.000000	98.173721
3602.000000	98.167459
3601.000000	98.159820
3600.000000	98.152044
3599.000000	98.144234
3598.000000	98.134652
3597.000000	98.120966
3596.000000	98.102869
3595.000000	98.083769
3594.000000	98.068206
3593.000000	98.057620
3592.000000	98.049234
3591.000000	98.039386
3590.000000	98.026496
3589.000000	98.011905
3588.000000	97.998492
3587.000000	97.987905
3586.000000	97.979342
3585.000000	97.971929
3584.000000	97.965878
3583.000000	97.960482
3582.000000	97.953401
3581.000000	97.942741
3580.000000	97.929460
3579.000000	97.916997
3578.000000	97.907920
3577.000000	97.901715
3576.000000	97.895447
3575.000000	97.886133
3574.000000	97.872348
3573.000000	97.855093
3572.000000	97.837609
3571.000000	97.823618
3570.000000	97.814366
3569.000000	97.806904
3568.000000	97.795760
3567.000000	97.778698
3566.000000	97.760093
3565.000000	97.745878
3564.000000	97.737323
3563.000000	97.731342
3562.000000	97.724056
3561.000000	97.713527
3560.000000	97.700193
3559.000000	97.685521
3558.000000	97.670763
3557.000000	97.656973
3556.000000	97.645152
3555.000000	97.635331
3554.000000	97.625540
3553.000000	97.612690
3552.000000	97.595556
3551.000000	97.576464
3550.000000	97.559214
3549.000000	97.545920
3548.000000	97.536199
3547.000000	97.528714
3546.000000	97.522844
3545.000000	97.518681
3544.000000	97.515481
3543.000000	97.510843
3542.000000	97.501906
3541.000000	97.487582
3540.000000	97.469567
3539.000000	97.451024
3538.000000	97.434139
3537.000000	97.418947
3536.000000	97.404266
3535.000000	97.389377
3534.000000	97.374638
3533.000000	97.361130
3532.000000	97.349987
3531.000000	97.341526
3530.000000	97.334476
3529.000000	97.326544
3528.000000	97.316440
3527.000000	97.305105
3526.000000	97.294352
3525.000000	97.284687
3524.000000	97.274993
3523.000000	97.264034
3522.000000	97.251672
3521.000000	97.238701
3520.000000	97.226078
3519.000000	97.214356
3518.000000	97.203374
3517.000000	97.192395
3516.000000	97.180875
3515.000000	97.169175
3514.000000	97.158106
3513.000000	97.147780
3512.000000	97.137436
3511.000000	97.126659
3510.000000	97.116235
3509.000000	97.107185
3508.000000	97.099245
3507.000000	97.091032
3506.000000	97.081564
3505.000000	97.070772
3504.000000	97.058711
3503.000000	97.045176
3502.000000	97.030718
3501.000000	97.017375
3500.000000	97.007341
3499.000000	97.000963
3498.000000	96.996543
3497.000000	96.991752
3496.000000	96.984732
3495.000000	96.974125
3494.000000	96.959285
3493.000000	96.941252
3492.000000	96.922865
3491.000000	96.907073
3490.000000	96.895007
3489.000000	96.885778
3488.000000	96.877690
3487.000000	96.869191
3486.000000	96.859200
3485.000000	96.847475
3484.000000	96.835036
3483.000000	96.823869
3482.000000	96.815637
3481.000000	96.810331
3480.000000	96.806202
3479.000000	96.801135
3478.000000	96.794304
3477.000000	96.786514
3476.000000	96.778945
3475.000000	96.771685
3474.000000	96.763915
3473.000000	96.755324
3472.000000	96.746306
3471.000000	96.736490
3470.000000	96.724319
3469.000000	96.709135
3468.000000	96.692963
3467.000000	96.679006
3466.000000	96.668589
3465.000000	96.660714
3464.000000	96.654261
3463.000000	96.649125
3462.000000	96.644816
3461.000000	96.639311
3460.000000	96.630408
3459.000000	96.617886
3458.000000	96.603755
3457.000000	96.590634
3456.000000	96.580145
3455.000000	96.572327
3454.000000	96.565946
3453.000000	96.559464
3452.000000	96.552176
3451.000000	96.544846
3450.000000	96.539177
3449.000000	96.536350
3448.000000	96.535546
3447.000000	96.533712
3446.000000	96.527368
3445.000000	96.515337
3444.000000	96.499690
3443.000000	96.484270
3442.000000	96.472381
3441.000000	96.465201
3440.000000	96.461557
3439.000000	96.458860
3438.000000	96.454701
3437.000000	96.448214
3436.000000	96.440157
3435.000000	96.431709
3434.000000	96.423465
3433.000000	96.415709
3432.000000	96.409001
3431.000000	96.403747
3430.000000	96.399307
3429.000000	96.394041
3428.000000	96.386379
3427.000000	96.375675
3426.000000	96.362498
3425.000000	96.348641
3424.000000	96.336487
3423.000000	96.327356
3422.000000	96.320072
3421.000000	96.311706
3420.000000	96.300267
3419.000000	96.286584
3418.000000	96.273429
3417.000000	96.263128
3416.000000	96.256028
3415.000000	96.250601
3414.000000	96.244674
3413.000000	96.236791
3412.000000	96.226800
3411.000000	96.215497
3410.000000	96.204183
3409.000000	96.194582
3408.000000	96.188358
3407.000000	96.185653
3406.000000	96.184049
3405.000000	96.179776
3404.000000	96.170564
3403.000000	96.157498
3402.000000	96.144100
3401.000000	96.133658
3400.000000	96.126900
3399.000000	96.121477
3398.000000	96.113562
3397.000000	96.100754
3396.000000	96.084047
3395.000000	96.067041
3394.000000	96.053151
3393.000000	96.043461
3392.000000	96.036775
3391.000000	96.031175
3390.000000	96.025413
3389.000000	96.019186
3388.000000	96.012637
3387.000000	96.005863
3386.000000	95.998818
3385.000000	95.991325
3384.000000	95.982938
3383.000000	95.973039
3382.000000	95.961628
3381.000000	95.950037
3380.000000	95.940174
3379.000000	95.932586
3378.000000	95.925633
3377.000000	95.916920
3376.000000	95.905333
3375.000000	95.891579
3374.000000	95.877339
3373.000000	95.864317
3372.000000	95.853434
3371.000000	95.844061
3370.000000	95.834086
3369.000000	95.821438
3368.000000	95.805756
3367.000000	95.788397
3366.000000	95.771075
3365.000000	95.754977
3364.000000	95.740898
3363.000000	95.729276
3362.000000	95.719632
3361.000000	95.710287
3360.000000	95.699075
3359.000000	95.684574
3358.000000	95.666887
3357.000000	95.647392
3356.000000	95.627679
3355.000000	95.608604
3354.000000	95.590347
3353.000000	95.573079
3352.000000	95.557107
3351.000000	95.542338
3350.000000	95.528161
3349.000000	95.514025
3348.000000	95.499741
3347.000000	95.485170
3346.000000	95.470182
3345.000000	95.454989
3344.000000	95.439834
3343.000000	95.424193
3342.000000	95.407100
3341.000000	95.388640
3340.000000	95.370351
3339.000000	95.353759
3338.000000	95.339176
3337.000000	95.326111
3336.000000	95.313815
3335.000000	95.300870
3334.000000	95.285455
3333.000000	95.267161
3332.000000	95.247901
3331.000000	95.230105
3330.000000	95.214572
3329.000000	95.200582
3328.000000	95.187088
3327.000000	95.172814
3326.000000	95.156244
3325.000000	95.137122
3324.000000	95.117628
3323.000000	95.100650
3322.000000	95.087025
3321.000000	95.075539
3320.000000	95.064936
3319.000000	95.054540
3318.000000	95.043385
3317.000000	95.030537
3316.000000	95.016570
3315.000000	95.003243
3314.000000	94.991261
3313.000000	94.979586
3312.000000	94.967213
3311.000000	94.954401
3310.000000	94.941778
3309.000000	94.929372
3308.000000	94.917213
3307.000000	94.905904
3306.000000	94.895745
3305.000000	94.885822
3304.000000	94.874613
3303.000000	94.861357
3302.000000	94.846701
3301.000000	94.832411
3300.000000	94.820505
3299.000000	94.812154
3298.000000	94.807118
3297.000000	94.804221
3296.000000	94.801965
3295.000000	94.798406
3294.000000	94.791389
3293.000000	94.780480
3292.000000	94.768468
3291.000000	94.759316
3290.000000	94.754068
3289.000000	94.749823
3288.000000	94.743360
3287.000000	94.734878
3286.000000	94.727580
3285.000000	94.724328
3284.000000	94.725126
3283.000000	94.727201
3282.000000	94.727286
3281.000000	94.724643
3280.000000	94.722344
3279.000000	94.724665
3278.000000	94.732565
3277.000000	94.742304
3276.000000	94.749423
3275.000000	94.753813
3274.000000	94.759555
3273.000000	94.769930
3272.000000	94.783509
3271.000000	94.795529
3270.000000	94.802614
3269.000000	94.805561
3268.000000	94.807935
3267.000000	94.812729
3266.000000	94.820644
3265.000000	94.831075
3264.000000	94.843639
3263.000000	94.858071
3262.000000	94.873210
3261.000000	94.887037
3260.000000	94.898146
3259.000000	94.907018
3258.000000	94.915948
3257.000000	94.927840
3256.000000	94.944466
3255.000000	94.965030
3254.000000	94.986399
3253.000000	95.005443
3252.000000	95.021336
3251.000000	95.035317
3250.000000	95.048495
3249.000000	95.060682
3248.000000	95.071471
3247.000000	95.081396
3246.000000	95.091349
3245.000000	95.101122
3244.000000	95.109326
3243.000000	95.115082
3242.000000	95.119518
3241.000000	95.125399
3240.000000	95.135109
3239.000000	95.148855
3238.000000	95.164758
3237.000000	95.180493
3236.000000	95.194718
3235.000000	95.207326
3234.000000	95.219044
3233.000000	95.230878
3232.000000	95.243065
3231.000000	95.254143
3230.000000	95.261766
3229.000000	95.265210
3228.000000	95.266806
3227.000000	95.270258
3226.000000	95.277636
3225.000000	95.288201
3224.000000	95.299424
3223.000000	95.308696
3222.000000	95.315085
3221.000000	95.320617
3220.000000	95.329341
3219.000000	95.343422
3218.000000	95.359958
3217.000000	95.373073
3216.000000	95.379430
3215.000000	95.381078
3214.000000	95.382650
3213.000000	95.386759
3212.000000	95.392750
3211.000000	95.398946
3210.000000	95.404918
3209.000000	95.411329
3208.000000	95.418494
3207.000000	95.425877
3206.000000	95.433208
3205.000000	95.441449
3204.000000	95.451832
3203.000000	95.463811
3202.000000	95.474886
3201.000000	95.483075
3200.000000	95.489109
3199.000000	95.495781
3198.000000	95.505430
3197.000000	95.518302
3196.000000	95.532342
3195.000000	95.544039
3194.000000	95.550698
3193.000000	95.553325
3192.000000	95.556787
3191.000000	95.565488
3190.000000	95.579051
3189.000000	95.593367
3188.000000	95.605582
3187.000000	95.616404
3186.000000	95.627885
3185.000000	95.640981
3184.000000	95.655896
3183.000000	95.672845
3182.000000	95.691096
3181.000000	95.708216
3180.000000	95.721510
3179.000000	95.729982
3178.000000	95.734807
3177.000000	95.738758
3176.000000	95.745658
3175.000000	95.758933
3174.000000	95.779148
3173.000000	95.803051
3172.000000	95.825712
3171.000000	95.843746
3170.000000	95.856362
3169.000000	95.864503
3168.000000	95.870092
3167.000000	95.875617
3166.000000	95.883165
3165.000000	95.893382
3164.000000	95.905742
3163.000000	95.919628
3162.000000	95.934646
3161.000000	95.950158
3160.000000	95.965322
3159.000000	95.979824
3158.000000	95.993976
3157.000000	96.007719
3156.000000	96.019958
3155.000000	96.029581
3154.000000	96.037305
3153.000000	96.046034
3152.000000	96.058533
3151.000000	96.074510
3150.000000	96.090408
3149.000000	96.102644
3148.000000	96.110837
3147.000000	96.117644
3146.000000	96.125967
3145.000000	96.136965
3144.000000	96.150274
3143.000000	96.164833
3142.000000	96.179182
3141.000000	96.191797
3140.000000	96.201848
3139.000000	96.209436
3138.000000	96.215106
3137.000000	96.219558
3136.000000	96.223602
3135.000000	96.227684
3134.000000	96.231555
3133.000000	96.235273
3132.000000	96.240312
3131.000000	96.248261
3130.000000	96.258215
3129.000000	96.267030
3128.000000	96.273074
3127.000000	96.278553
3126.000000	96.286891
3125.000000	96.298448
3124.000000	96.310088
3123.000000	96.318476
3122.000000	96.322620
3121.000000	96.323603
3120.000000	96.323334
3119.000000	96.323908
3118.000000	96.326684
3117.000000	96.331153
3116.000000	96.335081
3115.000000	96.336456
3114.000000	96.335109
3113.000000	96.332359
3112.000000	96.329648
3111.000000	96.327920
3110.000000	96.327669
3109.000000	96.328809
3108.000000	96.330437
3107.000000	96.331310
3106.000000	96.330850
3105.000000	96.329612
3104.000000	96.328643
3103.000000	96.328243
3102.000000	96.327106
3101.000000	96.322742
3100.000000	96.313510
3099.000000	96.300945
3098.000000	96.289923
3097.000000	96.285508
3096.000000	96.288886
3095.000000	96.296248
3094.000000	96.301949
3093.000000	96.302610
3092.000000	96.298272
3091.000000	96.290698
3090.000000	96.281812
3089.000000	96.273521
3088.000000	96.267457
3087.000000	96.263836
3086.000000	96.260930
3085.000000	96.256485
3084.000000	96.249877
3083.000000	96.242698
3082.000000	96.237387
3081.000000	96.235364
3080.000000	96.236150
3079.000000	96.237787
3078.000000	96.238083
3077.000000	96.235678
3076.000000	96.230346
3075.000000	96.222977
3074.000000	96.215813
3073.000000	96.212147
3072.000000	96.214414
3071.000000	96.221798
3070.000000	96.230177
3069.000000	96.235075
3068.000000	96.234712
3067.000000	96.230520
3066.000000	96.225606
3065.000000	96.223179
3064.000000	96.225363
3063.000000	96.232283
3062.000000	96.242202
3061.000000	96.253036
3060.000000	96.263581
3059.000000	96.273116
3058.000000	96.280723
3057.000000	96.285948
3056.000000	96.289805
3055.000000	96.294194
3054.000000	96.300329
3053.000000	96.308250
3052.000000	96.317479
3051.000000	96.327389
3050.000000	96.337274
3049.000000	96.347035
3048.000000	96.357608
3047.000000	96.369822
3046.000000	96.382907
3045.000000	96.395104
3044.000000	96.405761
3043.000000	96.415825
3042.000000	96.426054
3041.000000	96.435716
3040.000000	96.443772
3039.000000	96.450757
3038.000000	96.458708
3037.000000	96.469096
3036.000000	96.481120
3035.000000	96.492132
3034.000000	96.499815
3033.000000	96.504090
3032.000000	96.506857
3031.000000	96.509922
3030.000000	96.513541
3029.000000	96.517229
3028.000000	96.521374
3027.000000	96.527325
3026.000000	96.535959
3025.000000	96.546592
3024.000000	96.557198
3023.000000	96.565638
3022.000000	96.571176
3021.000000	96.575229
3020.000000	96.580131
3019.000000	96.586607
3018.000000	96.592947
3017.000000	96.597123
3016.000000	96.599044
3015.000000	96.599993
3014.000000	96.600504
3013.000000	96.599829
3012.000000	96.596945
3011.000000	96.591059
3010.000000	96.581657
3009.000000	96.569322
3008.000000	96.556370
3007.000000	96.545381
3006.000000	96.537031
3005.000000	96.530081
3004.000000	96.523099
3003.000000	96.515147
3002.000000	96.505135
3001.000000	96.492150
3000.000000	96.476631
2999.000000	96.459986
2998.000000	96.442665
2997.000000	96.423669
2996.000000	96.402093
2995.000000	96.378071
2994.000000	96.351828
2993.000000	96.323049
2992.000000	96.291680
2991.000000	96.258148
2990.000000	96.222216
2989.000000	96.182480
2988.000000	96.137900
2987.000000	96.089183
2986.000000	96.038027
2985.000000	95.985537
2984.000000	95.931723
2983.000000	95.875919
2982.000000	95.817122
2981.000000	95.754296
2980.000000	95.687151
2979.000000	95.616508
2978.000000	95.543695
2977.000000	95.469526
2976.000000	95.393492
2975.000000	95.313754
2974.000000	95.228133
2973.000000	95.135842
2972.000000	95.038170
2971.000000	94.937040
2970.000000	94.833470
2969.000000	94.727988
2968.000000	94.621854
2967.000000	94.516479
2966.000000	94.412147
2965.000000	94.309240
2964.000000	94.210932
2963.000000	94.123141
2962.000000	94.050722
2961.000000	93.994796
2960.000000	93.954255
2959.000000	93.928570
2958.000000	93.918418
2957.000000	93.924167
2956.000000	93.945176
2955.000000	93.979675
2954.000000	94.024503
2953.000000	94.075058
2952.000000	94.126097
2951.000000	94.172962
2950.000000	94.211452
2949.000000	94.237546
2948.000000	94.247715
2947.000000	94.239903
2946.000000	94.214061
2945.000000	94.172070
2944.000000	94.117323
2943.000000	94.052994
2942.000000	93.980015
2941.000000	93.896514
2940.000000	93.800235
2939.000000	93.691541
2938.000000	93.573942
2937.000000	93.452330
2936.000000	93.330954
2935.000000	93.213132
2934.000000	93.101812
2933.000000	92.999830
2932.000000	92.909336
2931.000000	92.830930
2930.000000	92.763724
2929.000000	92.706371
2928.000000	92.658502
2927.000000	92.621103
2926.000000	92.595576
2925.000000	92.582591
2924.000000	92.581747
2923.000000	92.592450
2922.000000	92.614722
2921.000000	92.649038
2920.000000	92.695451
2919.000000	92.753173
2918.000000	92.821889
2917.000000	92.903338
2916.000000	93.000776
2915.000000	93.115653
2914.000000	93.244247
2913.000000	93.378019
2912.000000	93.507794
2911.000000	93.628383
2910.000000	93.739745
2909.000000	93.844441
2908.000000	93.944574
2907.000000	94.040887
2906.000000	94.134223
2905.000000	94.226627
2904.000000	94.320241
2903.000000	94.414976
2902.000000	94.508245
2901.000000	94.597730
2900.000000	94.684231
2899.000000	94.771085
2898.000000	94.860565
2897.000000	94.951143
2896.000000	95.038450
2895.000000	95.118477
2894.000000	95.190094
2893.000000	95.254983
2892.000000	95.315542
2891.000000	95.372752
2890.000000	95.425592
2889.000000	95.472101
2888.000000	95.510536
2887.000000	95.539626
2886.000000	95.558704
2885.000000	95.568121
2884.000000	95.569046
2883.000000	95.562173
2882.000000	95.546926
2881.000000	95.522504
2880.000000	95.489142
2879.000000	95.447777
2878.000000	95.399173
2877.000000	95.344717
2876.000000	95.287855
2875.000000	95.233609
2874.000000	95.186760
2873.000000	95.150891
2872.000000	95.128554
2871.000000	95.120329
2870.000000	95.122969
2869.000000	95.129440
2868.000000	95.131872
2867.000000	95.124801
2866.000000	95.106319
2865.000000	95.077475
2864.000000	95.040649
2863.000000	94.997517
2862.000000	94.947883
2861.000000	94.891361
2860.000000	94.830460
2859.000000	94.771058
2858.000000	94.719099
2857.000000	94.677370
2856.000000	94.645962
2855.000000	94.624876
2854.000000	94.616109
2853.000000	94.623883
2852.000000	94.653749
2851.000000	94.710971
2850.000000	94.798289
2849.000000	94.914512
2848.000000	95.054690
2847.000000	95.211036
2846.000000	95.373845
2845.000000	95.533280
2844.000000	95.681598
2843.000000	95.814720
2842.000000	95.931720
2841.000000	96.033271
2840.000000	96.121066
2839.000000	96.197642
2838.000000	96.265591
2837.000000	96.326481
2836.000000	96.380530
2835.000000	96.427217
2834.000000	96.466252
2833.000000	96.498348
2832.000000	96.525504
2831.000000	96.550373
2830.000000	96.575051
2829.000000	96.600435
2828.000000	96.626298
2827.000000	96.651404
2826.000000	96.673714
2825.000000	96.691339
2824.000000	96.704084
2823.000000	96.714006
2822.000000	96.724421
2821.000000	96.738113
2820.000000	96.755720
2819.000000	96.774938
2818.000000	96.791670
2817.000000	96.803089
2816.000000	96.810081
2815.000000	96.816290
2814.000000	96.824870
2813.000000	96.836664
2812.000000	96.850955
2811.000000	96.866576
2810.000000	96.882213
2809.000000	96.896995
2808.000000	96.911390
2807.000000	96.926520
2806.000000	96.942083
2805.000000	96.955929
2804.000000	96.966296
2803.000000	96.973677
2802.000000	96.979885
2801.000000	96.986296
2800.000000	96.993714
2799.000000	97.002930
2798.000000	97.014089
2797.000000	97.025831
2796.000000	97.036055
2795.000000	97.043636
2794.000000	97.049003
2793.000000	97.053490
2792.000000	97.058634
2791.000000	97.065616
2790.000000	97.074503
2789.000000	97.084160
2788.000000	97.093444
2787.000000	97.102321
2786.000000	97.111347
2785.000000	97.120341
2784.000000	97.128204
2783.000000	97.134097
2782.000000	97.138366
2781.000000	97.142267
2780.000000	97.146950
2779.000000	97.152688
2778.000000	97.158943
2777.000000	97.165173
2776.000000	97.171288
2775.000000	97.176990
2774.000000	97.181154
2773.000000	97.182998
2772.000000	97.183995
2771.000000	97.187302
2770.000000	97.194378
2769.000000	97.202982
2768.000000	97.209533
2767.000000	97.213027
2766.000000	97.215761
2765.000000	97.220424
2764.000000	97.227425
2763.000000	97.235038
2762.000000	97.241236
2761.000000	97.245085
2760.000000	97.247057
2759.000000	97.248604
2758.000000	97.251227
2757.000000	97.255474
2756.000000	97.260700
2755.000000	97.265880
2754.000000	97.270651
2753.000000	97.275424
2752.000000	97.280394
2751.000000	97.284621
2750.000000	97.286488
2749.000000	97.285341
2748.000000	97.282588
2747.000000	97.280895
2746.000000	97.282244
2745.000000	97.286750
2744.000000	97.293035
2743.000000	97.299381
2742.000000	97.304621
2741.000000	97.308340
2740.000000	97.310596
2739.000000	97.311609
2738.000000	97.311873
2737.000000	97.312389
2736.000000	97.314261
2735.000000	97.317855
2734.000000	97.322666
2733.000000	97.328103
2732.000000	97.333819
2731.000000	97.339151
2730.000000	97.343212
2729.000000	97.346269
2728.000000	97.350211
2727.000000	97.356505
2726.000000	97.364066
2725.000000	97.370197
2724.000000	97.373590
2723.000000	97.375427
2722.000000	97.377588
2721.000000	97.380814
2720.000000	97.384866
2719.000000	97.389445
2718.000000	97.394392
2717.000000	97.399486
2716.000000	97.404430
2715.000000	97.408762
2714.000000	97.411664
2713.000000	97.412343
2712.000000	97.410939
2711.000000	97.408952
2710.000000	97.408636
2709.000000	97.411688
2708.000000	97.417903
2707.000000	97.424961
2706.000000	97.430299
2705.000000	97.433670
2704.000000	97.437122
2703.000000	97.441939
2702.000000	97.446731
2701.000000	97.449569
2700.000000	97.450899
2699.000000	97.452659
2698.000000	97.455246
2697.000000	97.457360
2696.000000	97.458632
2695.000000	97.460219
2694.000000	97.462306
2693.000000	97.463068
2692.000000	97.461233
2691.000000	97.458285
2690.000000	97.456887
2689.000000	97.457940
2688.000000	97.460237
2687.000000	97.462374
2686.000000	97.463970
2685.000000	97.465227
2684.000000	97.466135
2683.000000	97.466285
2682.000000	97.465459
2681.000000	97.464562
2680.000000	97.465677
2679.000000	97.470341
2678.000000	97.477547
2677.000000	97.484101
2676.000000	97.487319
2675.000000	97.486943
2674.000000	97.484562
2673.000000	97.482072
2672.000000	97.480955
2671.000000	97.481933
2670.000000	97.484488
2669.000000	97.487072
2668.000000	97.488398
2667.000000	97.488385
2666.000000	97.487675
2665.000000	97.486716
2664.000000	97.485750
2663.000000	97.485336
2662.000000	97.486257
2661.000000	97.488635
2660.000000	97.491235
2659.000000	97.492010
2658.000000	97.489978
2657.000000	97.486758
2656.000000	97.485729
2655.000000	97.489238
2654.000000	97.496988
2653.000000	97.507202
2652.000000	97.518068
2651.000000	97.527451
2650.000000	97.532817
2649.000000	97.533576
2648.000000	97.532992
2647.000000	97.535692
2646.000000	97.543032
2645.000000	97.552300
2644.000000	97.560400
2643.000000	97.566552
2642.000000	97.571322
2641.000000	97.575068
2640.000000	97.578258
2639.000000	97.581920
2638.000000	97.586736
2637.000000	97.592363
2636.000000	97.597924
2635.000000	97.602280
2634.000000	97.604001
2633.000000	97.602685
2632.000000	97.600612
2631.000000	97.601483
2630.000000	97.606839
2629.000000	97.615021
2628.000000	97.623967
2627.000000	97.633290
2626.000000	97.642914
2625.000000	97.651442
2624.000000	97.657198
2623.000000	97.659835
2622.000000	97.659949
2621.000000	97.658158
2620.000000	97.655438
2619.000000	97.653474
2618.000000	97.653778
2617.000000	97.656893
2616.000000	97.662596
2615.000000	97.670003
2614.000000	97.677686
2613.000000	97.685134
2612.000000	97.693885
2611.000000	97.705042
2610.000000	97.715446
2609.000000	97.719045
2608.000000	97.713462
2607.000000	97.703447
2606.000000	97.696342
2605.000000	97.695792
2604.000000	97.700944
2603.000000	97.709361
2602.000000	97.718180
2601.000000	97.723707
2600.000000	97.723122
2599.000000	97.717460
2598.000000	97.711774
2597.000000	97.711707
2596.000000	97.719693
2595.000000	97.733529
2594.000000	97.747692
2593.000000	97.756716
2592.000000	97.758672
2591.000000	97.755991
2590.000000	97.752949
2589.000000	97.752383
2588.000000	97.754283
2587.000000	97.756713
2586.000000	97.758070
2585.000000	97.758747
2584.000000	97.760222
2583.000000	97.762152
2582.000000	97.761889
2581.000000	97.758441
2580.000000	97.755637
2579.000000	97.758790
2578.000000	97.768323
2577.000000	97.779166
2576.000000	97.786425
2575.000000	97.789442
2574.000000	97.789933
2573.000000	97.788887
2572.000000	97.786597
2571.000000	97.784006
2570.000000	97.782693
2569.000000	97.784286
2568.000000	97.789966
2567.000000	97.799095
2566.000000	97.808172
2565.000000	97.812859
2564.000000	97.811890
2563.000000	97.808110
2562.000000	97.805704
2561.000000	97.807305
2560.000000	97.813006
2559.000000	97.820452
2558.000000	97.826215
2557.000000	97.828570
2556.000000	97.828493
2555.000000	97.826736
2554.000000	97.821819
2553.000000	97.813513
2552.000000	97.806299
2551.000000	97.805371
2550.000000	97.809747
2549.000000	97.813399
2548.000000	97.812961
2547.000000	97.810338
2546.000000	97.807822
2545.000000	97.805388
2544.000000	97.803774
2543.000000	97.805362
2542.000000	97.809994
2541.000000	97.813694
2540.000000	97.813705
2539.000000	97.811414
2538.000000	97.808642
2537.000000	97.804857
2536.000000	97.800560
2535.000000	97.799571
2534.000000	97.804231
2533.000000	97.810649
2532.000000	97.811793
2531.000000	97.804129
2530.000000	97.789263
2529.000000	97.771406
2528.000000	97.755695
2527.000000	97.746675
2526.000000	97.744898
2525.000000	97.745702
2524.000000	97.743689
2523.000000	97.737926
2522.000000	97.731449
2521.000000	97.727193
2520.000000	97.726450
2519.000000	97.729819
2518.000000	97.736556
2517.000000	97.743144
2516.000000	97.745210
2515.000000	97.741963
2514.000000	97.737907
2513.000000	97.739156
2512.000000	97.747729
2511.000000	97.759487
2510.000000	97.768353
2509.000000	97.773111
2508.000000	97.778743
2507.000000	97.789465
2506.000000	97.801855
2505.000000	97.808042
2504.000000	97.805499
2503.000000	97.800555
2502.000000	97.801395
2501.000000	97.810416
2500.000000	97.824457
2499.000000	97.839383
2498.000000	97.852607
2497.000000	97.863166
2496.000000	97.871272
2495.000000	97.876846
2494.000000	97.877942
2493.000000	97.872937
2492.000000	97.865222
2491.000000	97.862724
2490.000000	97.870595
2489.000000	97.885921
2488.000000	97.901745
2487.000000	97.914713
2486.000000	97.926458
2485.000000	97.938640
2484.000000	97.949187
2483.000000	97.954067
2482.000000	97.951800
2481.000000	97.945794
2480.000000	97.942225
2479.000000	97.944824
2478.000000	97.951676
2477.000000	97.957967
2476.000000	97.961376
2475.000000	97.963657
2474.000000	97.967236
2473.000000	97.972315
2472.000000	97.977636
2471.000000	97.982355
2470.000000	97.986458
2469.000000	97.990509
2468.000000	97.995118
2467.000000	97.999538
2466.000000	98.001046
2465.000000	97.997388
2464.000000	97.989829
2463.000000	97.982163
2462.000000	97.977042
2461.000000	97.974826
2460.000000	97.975075
2459.000000	97.976624
2458.000000	97.976783
2457.000000	97.973526
2456.000000	97.968659
2455.000000	97.966171
2454.000000	97.967319
2453.000000	97.970407
2452.000000	97.975214
2451.000000	97.983833
2450.000000	97.995917
2449.000000	98.006747
2448.000000	98.012117
2447.000000	98.012686
2446.000000	98.011988
2445.000000	98.012495
2444.000000	98.015079
2443.000000	98.019578
2442.000000	98.023844
2441.000000	98.024177
2440.000000	98.018970
2439.000000	98.010904
2438.000000	98.004358
2437.000000	98.001772
2436.000000	98.003075
2435.000000	98.006671
2434.000000	98.009939
2433.000000	98.010651
2432.000000	98.009429
2431.000000	98.009597
2430.000000	98.013570
2429.000000	98.020296
2428.000000	98.026561
2427.000000	98.029612
2426.000000	98.028496
2425.000000	98.024611
2424.000000	98.021209
2423.000000	98.020500
2422.000000	98.020809
2421.000000	98.018416
2420.000000	98.012315
2419.000000	98.005269
2418.000000	98.000204
2417.000000	97.998058
2416.000000	97.999455
2415.000000	98.005561
2414.000000	98.015738
2413.000000	98.026383
2412.000000	98.033777
2411.000000	98.037220
2410.000000	98.038635
2409.000000	98.040118
2408.000000	98.042204
2407.000000	98.043502
2406.000000	98.042044
2405.000000	98.037840
2404.000000	98.033631
2403.000000	98.031744
2402.000000	98.031229
2401.000000	98.029996
2400.000000	98.028594
2399.000000	98.029199
2398.000000	98.031409
2397.000000	98.032171
2396.000000	98.030106
2395.000000	98.027429
2394.000000	98.027250
2393.000000	98.031010
2392.000000	98.038323
2391.000000	98.046895
2390.000000	98.052766
2389.000000	98.053532
2388.000000	98.051814
2387.000000	98.052829
2386.000000	98.058510
2385.000000	98.066060
2384.000000	98.072109
2383.000000	98.075898
2382.000000	98.077621
2381.000000	98.077493
2380.000000	98.076668
2379.000000	98.076256
2378.000000	98.074717
2377.000000	98.069115
2376.000000	98.060342
2375.000000	98.053457
2374.000000	98.051378
2373.000000	98.051301
2372.000000	98.049876
2371.000000	98.048350
2370.000000	98.049832
2369.000000	98.054336
2368.000000	98.058604
2367.000000	98.060681
2366.000000	98.061869
2365.000000	98.063844
2364.000000	98.064596
2363.000000	98.058095
2362.000000	98.040584
2361.000000	98.017665
2360.000000	98.002107
2359.000000	98.001916
2358.000000	98.013902
2357.000000	98.029174
2356.000000	98.038773
2355.000000	98.038101
2354.000000	98.031292
2353.000000	98.025989
2352.000000	98.024694
2351.000000	98.024482
2350.000000	98.023558
2349.000000	98.021073
2348.000000	98.017601
2347.000000	98.015407
2346.000000	98.014645
2345.000000	98.011658
2344.000000	98.006296
2343.000000	98.005242
2342.000000	98.010573
2341.000000	98.017100
2340.000000	98.018887
2339.000000	98.014288
2338.000000	98.005634
2337.000000	97.996039
2336.000000	97.987607
2335.000000	97.982493
2334.000000	97.983848
2333.000000	97.992340
2332.000000	98.002654
2331.000000	98.007704
2330.000000	98.006194
2329.000000	98.000962
2328.000000	97.992376
2327.000000	97.975954
2326.000000	97.949703
2325.000000	97.921022
2324.000000	97.903674
2323.000000	97.906709
2322.000000	97.924311
2321.000000	97.942083
2320.000000	97.951865
2319.000000	97.957322
2318.000000	97.964477
2317.000000	97.973394
2316.000000	97.981196
2315.000000	97.987318
2314.000000	97.993418
2313.000000	98.000662
2312.000000	98.010225
2311.000000	98.023312
2310.000000	98.038925
2309.000000	98.052589
2308.000000	98.060718
2307.000000	98.063964
2306.000000	98.065141
2305.000000	98.065125
2304.000000	98.062789
2303.000000	98.057347
2302.000000	98.049611
2301.000000	98.041583
2300.000000	98.035885
2299.000000	98.033849
2298.000000	98.034120
2297.000000	98.034129
2296.000000	98.032792
2295.000000	98.030502
2294.000000	98.027594
2293.000000	98.024976
2292.000000	98.025263
2291.000000	98.030674
2290.000000	98.039807
2289.000000	98.048792
2288.000000	98.054695
2287.000000	98.055988
2286.000000	98.051537
2285.000000	98.043091
2284.000000	98.037177
2283.000000	98.039844
2282.000000	98.050237
2281.000000	98.062997
2280.000000	98.074834
2279.000000	98.083565
2278.000000	98.083980
2277.000000	98.073219
2276.000000	98.059394
2275.000000	98.055808
2274.000000	98.065836
2273.000000	98.080941
2272.000000	98.094342
2271.000000	98.108449
2270.000000	98.127350
2269.000000	98.149904
2268.000000	98.172164
2267.000000	98.189192
2266.000000	98.193069
2265.000000	98.178028
2264.000000	98.150825
2263.000000	98.128425
2262.000000	98.121894
2261.000000	98.128031
2260.000000	98.136888
2259.000000	98.140884
2258.000000	98.136392
2257.000000	98.125890
2256.000000	98.120528
2255.000000	98.131551
2254.000000	98.156009
2253.000000	98.178405
2252.000000	98.188493
2251.000000	98.189343
2250.000000	98.187314
2249.000000	98.184166
2248.000000	98.181176
2247.000000	98.180755
2246.000000	98.180400
2245.000000	98.173873
2244.000000	98.161480
2243.000000	98.151227
2242.000000	98.148203
2241.000000	98.151389
2240.000000	98.160869
2239.000000	98.177098
2238.000000	98.191905
2237.000000	98.193577
2236.000000	98.184512
2235.000000	98.181540
2234.000000	98.193881
2233.000000	98.212518
2232.000000	98.225091
2231.000000	98.228869
2230.000000	98.224241
2229.000000	98.209795
2228.000000	98.191725
2227.000000	98.185497
2226.000000	98.199403
2225.000000	98.225605
2224.000000	98.253601
2223.000000	98.281435
2222.000000	98.307057
2221.000000	98.320785
2220.000000	98.316123
2219.000000	98.299110
2218.000000	98.279469
2217.000000	98.261866
2216.000000	98.251041
2215.000000	98.253791
2214.000000	98.268333
2213.000000	98.282385
2212.000000	98.289723
2211.000000	98.298594
2210.000000	98.315106
2209.000000	98.329000
2208.000000	98.326736
2207.000000	98.311342
2206.000000	98.298752
2205.000000	98.297781
2204.000000	98.300578
2203.000000	98.291058
2202.000000	98.261414
2201.000000	98.224562
2200.000000	98.208351
2199.000000	98.229006
2198.000000	98.272794
2197.000000	98.313733
2196.000000	98.345906
2195.000000	98.382117
2194.000000	98.422111
2193.000000	98.443462
2192.000000	98.431018
2191.000000	98.397571
2190.000000	98.366131
2189.000000	98.348239
2188.000000	98.346463
2187.000000	98.361605
2186.000000	98.386951
2185.000000	98.408802
2184.000000	98.424047
2183.000000	98.445787
2182.000000	98.480485
2181.000000	98.510157
2180.000000	98.508918
2179.000000	98.470711
2178.000000	98.414746
2177.000000	98.371863
2176.000000	98.365316
2175.000000	98.391961
2174.000000	98.421233
2173.000000	98.423992
2172.000000	98.402285
2171.000000	98.379845
2170.000000	98.369073
2169.000000	98.360825
2168.000000	98.341902
2167.000000	98.308063
2166.000000	98.265273
2165.000000	98.234802
2164.000000	98.247409
2163.000000	98.308323
2162.000000	98.377414
2161.000000	98.414201
2160.000000	98.437128
2159.000000	98.497650
2158.000000	98.589645
2157.000000	98.646363
2156.000000	98.635594
2155.000000	98.590882
2154.000000	98.550640
2153.000000	98.522786
2152.000000	98.505660
2151.000000	98.500869
2150.000000	98.501365
2149.000000	98.496147
2148.000000	98.492028
2147.000000	98.503869
2146.000000	98.520650
2145.000000	98.509567
2144.000000	98.461141
2143.000000	98.403763
2142.000000	98.367615
2141.000000	98.357954
2140.000000	98.367054
2139.000000	98.389118
2138.000000	98.415359
2137.000000	98.433685
2136.000000	98.441382
2135.000000	98.443795
2134.000000	98.437812
2133.000000	98.414746
2132.000000	98.380467
2131.000000	98.353412
2130.000000	98.340445
2129.000000	98.331979
2128.000000	98.322085
2127.000000	98.316422
2126.000000	98.317233
2125.000000	98.316327
2124.000000	98.308440
2123.000000	98.297532
2122.000000	98.285778
2121.000000	98.270011
2120.000000	98.253488
2119.000000	98.246300
2118.000000	98.247932
2117.000000	98.243282
2116.000000	98.223322
2115.000000	98.197578
2114.000000	98.178417
2113.000000	98.165625
2112.000000	98.154711
2111.000000	98.148546
2110.000000	98.149498
2109.000000	98.149565
2108.000000	98.140269
2107.000000	98.127097
2106.000000	98.124677
2105.000000	98.141356
2104.000000	98.173779
2103.000000	98.210465
2102.000000	98.235806
2101.000000	98.238009
2100.000000	98.220658
2099.000000	98.201450
2098.000000	98.196358
2097.000000	98.208813
2096.000000	98.233827
2095.000000	98.263035
2094.000000	98.284466
2093.000000	98.288978
2092.000000	98.280475
2091.000000	98.270063
2090.000000	98.259077
2089.000000	98.238752
2088.000000	98.208326
2087.000000	98.181860
2086.000000	98.173372
2085.000000	98.185290
2084.000000	98.212404
2083.000000	98.245687
2082.000000	98.270661
2081.000000	98.275338
2080.000000	98.264291
2079.000000	98.252970
2078.000000	98.246668
2077.000000	98.239506
2076.000000	98.234475
2075.000000	98.244426
2074.000000	98.267563
2073.000000	98.283111
2072.000000	98.280527
2071.000000	98.273919
2070.000000	98.277577
2069.000000	98.285319
2068.000000	98.286985
2067.000000	98.288253
2066.000000	98.299523
2065.000000	98.318006
2064.000000	98.333776
2063.000000	98.343502
2062.000000	98.347687
2061.000000	98.346071
2060.000000	98.343564
2059.000000	98.348117
2058.000000	98.357650
2057.000000	98.364135
2056.000000	98.372771
2055.000000	98.395972
2054.000000	98.422823
2053.000000	98.421802
2052.000000	98.385920
2051.000000	98.348829
2050.000000	98.341538
2049.000000	98.354655
2048.000000	98.363732
2047.000000	98.373141
2046.000000	98.402192
2045.000000	98.442028
2044.000000	98.460748
2043.000000	98.444297
2042.000000	98.408768
2041.000000	98.381418
2040.000000	98.383971
2039.000000	98.421091
2038.000000	98.472357
2037.000000	98.508953
2036.000000	98.529690
2035.000000	98.561913
2034.000000	98.615024
2033.000000	98.662549
2032.000000	98.686552
2031.000000	98.703197
2030.000000	98.720164
2029.000000	98.709837
2028.000000	98.654846
2027.000000	98.589262
2026.000000	98.561859
2025.000000	98.582535
2024.000000	98.626308
2023.000000	98.667218
2022.000000	98.687293
2021.000000	98.674908
2020.000000	98.640089
2019.000000	98.612270
2018.000000	98.605187
2017.000000	98.601682
2016.000000	98.586180
2015.000000	98.568500
2014.000000	98.559975
2013.000000	98.555332
2012.000000	98.553626
2011.000000	98.571175
2010.000000	98.616394
2009.000000	98.672150
2008.000000	98.715386
2007.000000	98.735454
2006.000000	98.723564
2005.000000	98.674856
2004.000000	98.611819
2003.000000	98.573283
2002.000000	98.570880
2001.000000	98.577115
2000.000000	98.565107
1999.000000	98.536032
1998.000000	98.503504
1997.000000	98.479626
1996.000000	98.480526
1995.000000	98.516496
1994.000000	98.566242
1993.000000	98.586842
1992.000000	98.565476
1991.000000	98.536134
1990.000000	98.524370
1989.000000	98.511717
1988.000000	98.475783
1987.000000	98.431700
1986.000000	98.409948
1985.000000	98.416438
1984.000000	98.435237
1983.000000	98.450868
1982.000000	98.450219
1981.000000	98.422813
1980.000000	98.384273
1979.000000	98.378288
1978.000000	98.431162
1977.000000	98.515907
1976.000000	98.582968
1975.000000	98.614000
1974.000000	98.623875
1973.000000	98.634517
1972.000000	98.661540
1971.000000	98.701123
1970.000000	98.720529
1969.000000	98.687037
1968.000000	98.614949
1967.000000	98.557653
1966.000000	98.544709
1965.000000	98.558844
1964.000000	98.579453
1963.000000	98.608831
1962.000000	98.646968
1961.000000	98.676668
1960.000000	98.688298
1959.000000	98.691288
1958.000000	98.690006
1957.000000	98.675424
1956.000000	98.648573
1955.000000	98.625858
1954.000000	98.613869
1953.000000	98.605010
1952.000000	98.600657
1951.000000	98.614663
1950.000000	98.645200
1949.000000	98.667290
1948.000000	98.666896
1947.000000	98.657079
1946.000000	98.649087
1945.000000	98.632833
1944.000000	98.599915
1943.000000	98.565138
1942.000000	98.547605
1941.000000	98.547809
1940.000000	98.557964
1939.000000	98.573371
1938.000000	98.583311
1937.000000	98.571664
1936.000000	98.539275
1935.000000	98.510510
1934.000000	98.505579
1933.000000	98.519917
1932.000000	98.535839
1931.000000	98.544271
1930.000000	98.542628
1929.000000	98.526466
1928.000000	98.503459
1927.000000	98.493701
1926.000000	98.509337
1925.000000	98.537347
1924.000000	98.556989
1923.000000	98.567827
1922.000000	98.581859
1921.000000	98.599077
1920.000000	98.605750
1919.000000	98.592875
1918.000000	98.567237
1917.000000	98.542108
1916.000000	98.525591
1915.000000	98.517270
1914.000000	98.512925
1913.000000	98.513169
1912.000000	98.522591
1911.000000	98.541066
1910.000000	98.556785
1909.000000	98.555463
1908.000000	98.539958
1907.000000	98.523691
1906.000000	98.514472
1905.000000	98.509710
1904.000000	98.507186
1903.000000	98.509913
1902.000000	98.513257
1901.000000	98.508137
1900.000000	98.501199
1899.000000	98.509924
1898.000000	98.537273
1897.000000	98.563284
1896.000000	98.570016
1895.000000	98.566086
1894.000000	98.571662
1893.000000	98.590957
1892.000000	98.610848
1891.000000	98.618117
1890.000000	98.609466
1889.000000	98.592265
1888.000000	98.581388
1887.000000	98.586238
1886.000000	98.599862
1885.000000	98.609128
1884.000000	98.610811
1883.000000	98.610307
1882.000000	98.606244
1881.000000	98.592342
1880.000000	98.576096
1879.000000	98.573550
1878.000000	98.586650
1877.000000	98.599937
1876.000000	98.600279
1875.000000	98.592750
1874.000000	98.590887
1873.000000	98.599761
1872.000000	98.616237
1871.000000	98.636469
1870.000000	98.656173
1869.000000	98.668548
1868.000000	98.669739
1867.000000	98.663862
1866.000000	98.651430
1865.000000	98.627427
1864.000000	98.597170
1863.000000	98.576894
1862.000000	98.573942
1861.000000	98.579497
1860.000000	98.585572
1859.000000	98.594646
1858.000000	98.607328
1857.000000	98.615704
1856.000000	98.616441
1855.000000	98.616772
1854.000000	98.621974
1853.000000	98.625810
1852.000000	98.627169
1851.000000	98.630376
1850.000000	98.618216
1849.000000	98.617672
1848.000000	98.613480
1847.000000	98.611097
1846.000000	98.614997
1845.000000	98.619464
1844.000000	98.679020
1843.000000	98.653463
1842.000000	98.652025
1841.000000	98.654537
1840.000000	98.645080
1839.000000	98.630456
1838.000000	98.622828
1837.000000	98.618572
1836.000000	98.611858
1835.000000	98.613926
1834.000000	98.635014
1833.000000	98.663482
1832.000000	98.679267
1831.000000	98.675399
1830.000000	98.666325
1829.000000	98.666952
1828.000000	98.673078
1827.000000	98.669701
1826.000000	98.647967
1825.000000	98.619349
1824.000000	98.604416
1823.000000	98.609238
1822.000000	98.620174
1821.000000	98.624024
1820.000000	98.623155
1819.000000	98.624741
1818.000000	98.628259
1817.000000	98.626350
1816.000000	98.620413
1815.000000	98.622709
1814.000000	98.633094
1813.000000	98.638362
1812.000000	98.628705
1811.000000	98.611031
1810.000000	98.598670
1809.000000	98.589221
1808.000000	98.574126
1807.000000	98.556134
1806.000000	98.542921
1805.000000	98.533377
1804.000000	98.518991
1803.000000	98.496573
1802.000000	98.465746
1801.000000	98.431522
1800.000000	98.401358
1799.000000	98.381021
1798.000000	98.371647
1797.000000	98.370611
1796.000000	98.378825
1795.000000	98.396701
1794.000000	98.413829
1793.000000	98.421819
1792.000000	98.427288
1791.000000	98.444796
1790.000000	98.477598
1789.000000	98.512252
1788.000000	98.535547
1787.000000	98.546768
1786.000000	98.552256
1785.000000	98.556692
1784.000000	98.564747
1783.000000	98.581728
1782.000000	98.595970
1781.000000	98.598593
1780.000000	98.596348
1779.000000	98.601376
1778.000000	98.616076
1777.000000	98.632886
1776.000000	98.656029
1775.000000	98.688620
1774.000000	98.712643
1773.000000	98.708221
1772.000000	98.685138
1771.000000	98.666013
1770.000000	98.646244
1769.000000	98.598304
1768.000000	98.517809
1767.000000	98.446103
1766.000000	98.414726
1765.000000	98.401164
1764.000000	98.358805
1763.000000	98.269060
1762.000000	98.148912
1761.000000	98.026915
1760.000000	97.907506
1759.000000	97.767468
1758.000000	97.567789
1757.000000	97.290316
1756.000000	96.984424
1755.000000	96.716020
1754.000000	96.477354
1753.000000	96.198424
1752.000000	95.831172
1751.000000	95.404617
1750.000000	94.990051
1749.000000	94.606772
1748.000000	94.247983
1747.000000	93.935828
1746.000000	93.677327
1745.000000	93.452092
1744.000000	93.252279
1743.000000	93.100729
1742.000000	93.008315
1741.000000	92.950583
1740.000000	92.919528
1739.000000	92.954267
1738.000000	93.066726
1737.000000	93.211177
1736.000000	93.352136
1735.000000	93.524916
1734.000000	93.793183
1733.000000	94.104642
1732.000000	94.380874
1731.000000	94.630725
1730.000000	94.885343
1729.000000	95.152164
1728.000000	95.424233
1727.000000	95.695125
1726.000000	95.955021
1725.000000	96.199743
1724.000000	96.430523
1723.000000	96.654847
1722.000000	96.872717
1721.000000	97.068549
1720.000000	97.234790
1719.000000	97.387204
1718.000000	97.547864
1717.000000	97.689316
1716.000000	97.769022
1715.000000	97.799993
1714.000000	97.807995
1713.000000	97.802158
1712.000000	97.790667
1711.000000	97.784809
1710.000000	97.785227
1709.000000	97.782812
1708.000000	97.771606
1707.000000	97.742112
1706.000000	97.688388
1705.000000	97.626805
1704.000000	97.594062
1703.000000	97.588972
1702.000000	97.543053
1701.000000	97.388686
1700.000000	97.196541
1699.000000	97.116256
1698.000000	97.106454
1697.000000	97.008210
1696.000000	96.768909
1695.000000	96.510978
1694.000000	96.353579
1693.000000	96.260830
1692.000000	96.159548
1691.000000	96.036262
1690.000000	95.910866
1689.000000	95.805624
1688.000000	95.742915
1687.000000	95.713948
1686.000000	95.660593
1685.000000	95.500854
1684.000000	95.243954
1683.000000	95.025436
1682.000000	94.883037
1681.000000	94.744540
1680.000000	94.584083
1679.000000	94.441775
1678.000000	94.331133
1677.000000	94.204191
1676.000000	94.015313
1675.000000	93.805035
1674.000000	93.651557
1673.000000	93.555616
1672.000000	93.454173
1671.000000	93.306383
1670.000000	93.108357
1669.000000	92.878225
1668.000000	92.661798
1667.000000	92.495657
1666.000000	92.366165
1665.000000	92.228318
1664.000000	92.046511
1663.000000	91.835548
1662.000000	91.636602
1661.000000	91.463329
1660.000000	91.303991
1659.000000	91.154262
1658.000000	91.029311
1657.000000	90.944498
1656.000000	90.890559
1655.000000	90.816903
1654.000000	90.661206
1653.000000	90.426193
1652.000000	90.245080
1651.000000	90.191345
1650.000000	90.186072
1649.000000	90.154311
1648.000000	90.088221
1647.000000	90.011944
1646.000000	89.955031
1645.000000	89.916021
1644.000000	89.888524
1643.000000	89.872806
1642.000000	89.867210
1641.000000	89.871693
1640.000000	89.894755
1639.000000	89.940622
1638.000000	89.997968
1637.000000	90.037921
1636.000000	90.049835
1635.000000	90.048731
1634.000000	90.059768
1633.000000	90.086105
1632.000000	90.113153
1631.000000	90.146336
1630.000000	90.199126
1629.000000	90.276436
1628.000000	90.375235
1627.000000	90.490534
1626.000000	90.611470
1625.000000	90.730246
1624.000000	90.854153
1623.000000	90.999832
1622.000000	91.160613
1621.000000	91.316993
1620.000000	91.464942
1619.000000	91.608094
1618.000000	91.756631
1617.000000	91.922966
1616.000000	92.098732
1615.000000	92.255195
1614.000000	92.382676
1613.000000	92.492455
1612.000000	92.605677
1611.000000	92.739157
1610.000000	92.885794
1609.000000	93.027137
1608.000000	93.156467
1607.000000	93.278327
1606.000000	93.389713
1605.000000	93.488141
1604.000000	93.579032
1603.000000	93.663025
1602.000000	93.735393
1601.000000	93.796382
1600.000000	93.854585
1599.000000	93.915070
1598.000000	93.973387
1597.000000	94.025818
1596.000000	94.074028
1595.000000	94.117540
1594.000000	94.149697
1593.000000	94.168038
1592.000000	94.179241
1591.000000	94.188359
1590.000000	94.191592
1589.000000	94.185418
1588.000000	94.173671
1587.000000	94.159751
1586.000000	94.141698
1585.000000	94.116439
1584.000000	94.090103
1583.000000	94.061238
1582.000000	94.022131
1581.000000	93.982131
1580.000000	93.964235
1579.000000	93.968483
1578.000000	93.961867
1577.000000	93.909360
1576.000000	93.815394
1575.000000	93.726029
1574.000000	93.665786
1573.000000	93.621965
1572.000000	93.572965
1571.000000	93.502328
1570.000000	93.406836
1569.000000	93.302783
1568.000000	93.218493
1567.000000	93.149143
1566.000000	93.064652
1565.000000	92.957233
1564.000000	92.865057
1563.000000	92.822256
1562.000000	92.813457
1561.000000	92.783137
1560.000000	92.672194
1559.000000	92.469914
1558.000000	92.243165
1557.000000	92.068500
1556.000000	91.926496
1555.000000	91.766220
1554.000000	91.594136
1553.000000	91.444611
1552.000000	91.322597
1551.000000	91.197091
1550.000000	91.061243
1549.000000	90.938013
1548.000000	90.848446
1547.000000	90.781457
1546.000000	90.715628
1545.000000	90.655017
1544.000000	90.622263
1543.000000	90.620112
1542.000000	90.624620
1541.000000	90.600126
1540.000000	90.527781
1539.000000	90.429736
1538.000000	90.356839
1537.000000	90.324918
1536.000000	90.308402
1535.000000	90.297153
1534.000000	90.296661
1533.000000	90.313566
1532.000000	90.336700
1531.000000	90.358527
1530.000000	90.379736
1529.000000	90.399214
1528.000000	90.421369
1527.000000	90.454830
1526.000000	90.500149
1525.000000	90.552573
1524.000000	90.604469
1523.000000	90.643061
1522.000000	90.660629
1521.000000	90.660027
1520.000000	90.658346
1519.000000	90.665401
1518.000000	90.663636
1517.000000	90.645210
1516.000000	90.629245
1515.000000	90.637059
1514.000000	90.660288
1513.000000	90.683614
1512.000000	90.716601
1511.000000	90.786450
1510.000000	90.895889
1509.000000	91.018007
1508.000000	91.127747
1507.000000	91.216672
1506.000000	91.246074
1505.000000	91.227638
1504.000000	91.222199
1503.000000	91.230116
1502.000000	91.241628
1501.000000	91.255094
1500.000000	91.276661
1499.000000	91.311063
1498.000000	91.344832
1497.000000	91.352284
1496.000000	91.332139
1495.000000	91.322755
1494.000000	91.339226
1493.000000	91.356754
1492.000000	91.354719
1491.000000	91.342005
1490.000000	91.331996
1489.000000	91.308133
1488.000000	91.253508
1487.000000	91.182850
1486.000000	91.110402
1485.000000	91.030140
1484.000000	90.943196
1483.000000	90.849701
1482.000000	90.743984
1481.000000	90.623901
1480.000000	90.499901
1479.000000	90.379053
1478.000000	90.248786
1477.000000	90.099843
1476.000000	89.947193
1475.000000	89.807422
1474.000000	89.643931
1473.000000	89.400565
1472.000000	89.097976
1471.000000	88.823959
1470.000000	88.606636
1469.000000	88.415414
1468.000000	88.232836
1467.000000	88.063551
1466.000000	87.900897
1465.000000	87.733224
1464.000000	87.579227
1463.000000	87.464338
1462.000000	87.383037
1461.000000	87.311331
1460.000000	87.238497
1459.000000	87.150310
1458.000000	87.002114
1457.000000	86.762592
1456.000000	86.522650
1455.000000	86.376443
1454.000000	86.282308
1453.000000	86.184102
1452.000000	86.085460
1451.000000	86.008614
1450.000000	85.946150
1449.000000	85.871767
1448.000000	85.786858
1447.000000	85.722272
1446.000000	85.679194
1445.000000	85.636901
1444.000000	85.585404
1443.000000	85.525512
1442.000000	85.460983
1441.000000	85.396451
1440.000000	85.338513
1439.000000	85.275638
1438.000000	85.177638
1437.000000	85.032031
1436.000000	84.893686
1435.000000	84.823044
1434.000000	84.798405
1433.000000	84.770845
1432.000000	84.728594
1431.000000	84.681035
1430.000000	84.620192
1429.000000	84.528342
1428.000000	84.416311
1427.000000	84.313858
1426.000000	84.221519
1425.000000	84.133095
1424.000000	84.070445
1423.000000	84.053056
1422.000000	84.056340
1421.000000	84.035616
1420.000000	83.981428
1419.000000	83.928593
1418.000000	83.899320
1417.000000	83.880585
1416.000000	83.869645
1415.000000	83.877671
1414.000000	83.906515
1413.000000	83.951219
1412.000000	84.014657
1411.000000	84.101611
1410.000000	84.204521
1409.000000	84.311450
1408.000000	84.421596
1407.000000	84.542150
1406.000000	84.667717
1405.000000	84.788387
1404.000000	84.905966
1403.000000	85.022146
1402.000000	85.126393
1401.000000	85.208437
1400.000000	85.279243
1399.000000	85.358981
1398.000000	85.446087
1397.000000	85.524508
1396.000000	85.593719
1395.000000	85.668134
1394.000000	85.750798
1393.000000	85.839059
1392.000000	85.936803
1391.000000	86.044427
1390.000000	86.154996
1389.000000	86.265914
1388.000000	86.386327
1387.000000	86.522049
1386.000000	86.657947
1385.000000	86.779598
1384.000000	86.892886
1383.000000	87.008380
1382.000000	87.128241
1381.000000	87.249298
1380.000000	87.376578
1379.000000	87.519822
1378.000000	87.678799
1377.000000	87.845916
1376.000000	88.020442
1375.000000	88.206259
1374.000000	88.393256
1373.000000	88.563161
1372.000000	88.712174
1371.000000	88.847826
1370.000000	88.972251
1369.000000	89.088798
1368.000000	89.205978
1367.000000	89.326865
1366.000000	89.446007
1365.000000	89.559470
1364.000000	89.670316
1363.000000	89.777788
1362.000000	89.870065
1361.000000	89.941202
1360.000000	90.001314
1359.000000	90.060426
1358.000000	90.119141
1357.000000	90.176620
1356.000000	90.235220
1355.000000	90.295637
1354.000000	90.354758
1353.000000	90.411367
1352.000000	90.466463
1351.000000	90.520253
1350.000000	90.567758
1349.000000	90.606305
1348.000000	90.637078
1347.000000	90.658323
1346.000000	90.665248
1345.000000	90.658375
1344.000000	90.645317
1343.000000	90.630101
1342.000000	90.607270
1341.000000	90.569504
1340.000000	90.517013
1339.000000	90.457395
1338.000000	90.400523
1337.000000	90.355930
1336.000000	90.330784
1335.000000	90.327526
1334.000000	90.344697
1333.000000	90.381134
1332.000000	90.436026
1331.000000	90.504770
1330.000000	90.579359
1329.000000	90.655748
1328.000000	90.735501
1327.000000	90.818428
1326.000000	90.898311
1325.000000	90.970046
1324.000000	91.034313
1323.000000	91.092939
1322.000000	91.145956
1321.000000	91.195008
1320.000000	91.244502
1319.000000	91.296715
1318.000000	91.350219
1317.000000	91.405159
1316.000000	91.465197
1315.000000	91.532204
1314.000000	91.603654
1313.000000	91.676422
1312.000000	91.748912
1311.000000	91.819176
1310.000000	91.885321
1309.000000	91.949259
1308.000000	92.015349
1307.000000	92.085156
1306.000000	92.155894
1305.000000	92.225510
1304.000000	92.294438
1303.000000	92.362547
1302.000000	92.429058
1301.000000	92.495503
1300.000000	92.564608
1299.000000	92.635798
1298.000000	92.705754
1297.000000	92.772413
1296.000000	92.834658
1295.000000	92.888532
1294.000000	92.929416
1293.000000	92.957803
1292.000000	92.978457
1291.000000	92.994183
1290.000000	93.003637
1289.000000	93.005752
1288.000000	93.002619
1287.000000	92.997822
1286.000000	92.994579
1285.000000	92.994962
1284.000000	92.998786
1283.000000	93.003693
1282.000000	93.008207
1281.000000	93.013087
1280.000000	93.017479
1279.000000	93.015869
1278.000000	93.002353
1277.000000	92.975854
1276.000000	92.938445
1275.000000	92.889839
1274.000000	92.827661
1273.000000	92.751472
1272.000000	92.662264
1271.000000	92.559517
1270.000000	92.441371
1269.000000	92.308175
1268.000000	92.163448
1267.000000	92.011101
1266.000000	91.854443
1265.000000	91.696510
1264.000000	91.539290
1263.000000	91.382710
1262.000000	91.226570
1261.000000	91.073557
1260.000000	90.928114
1259.000000	90.791721
1258.000000	90.662670
1257.000000	90.543099
1256.000000	90.442128
1255.000000	90.369144
1254.000000	90.324881
1253.000000	90.300491
1252.000000	90.284218
1251.000000	90.265808
1250.000000	90.238544
1249.000000	90.201613
1248.000000	90.159295
1247.000000	90.115192
1246.000000	90.068669
1245.000000	90.019021
1244.000000	89.970396
1243.000000	89.929183
1242.000000	89.898591
1241.000000	89.879153
1240.000000	89.872702
1239.000000	89.882391
1238.000000	89.909584
1237.000000	89.955131
1236.000000	90.020737
1235.000000	90.105175
1234.000000	90.201836
1233.000000	90.303655
1232.000000	90.410520
1231.000000	90.527955
1230.000000	90.660847
1229.000000	90.812155
1228.000000	90.983844
1227.000000	91.175470
1226.000000	91.381711
1225.000000	91.593660
1224.000000	91.802143
1223.000000	91.999439
1222.000000	92.181439
1221.000000	92.348766
1220.000000	92.503329
1219.000000	92.643450
1218.000000	92.766444
1217.000000	92.873577
1216.000000	92.967480
1215.000000	93.046524
1214.000000	93.106662
1213.000000	93.150093
1212.000000	93.184883
1211.000000	93.214879
1210.000000	93.235919
1209.000000	93.242780
1208.000000	93.236049
1207.000000	93.219688
1206.000000	93.196420
1205.000000	93.168543
1204.000000	93.139647
1203.000000	93.113193
1202.000000	93.090989
1201.000000	93.074452
1200.000000	93.064742
1199.000000	93.059663
1198.000000	93.053407
1197.000000	93.042039
1196.000000	93.027154
1195.000000	93.011834
1194.000000	92.995100
1193.000000	92.973191
1192.000000	92.945030
1191.000000	92.913652
1190.000000	92.882818
1189.000000	92.853671
1188.000000	92.824061
1187.000000	92.789462
1186.000000	92.744841
1185.000000	92.687742
1184.000000	92.619149
1183.000000	92.540999
1182.000000	92.453761
1181.000000	92.356742
1180.000000	92.250747
1179.000000	92.138908
1178.000000	92.025294
1177.000000	91.913421
1176.000000	91.804838
1175.000000	91.698152
1174.000000	91.590101
1173.000000	91.479522
1172.000000	91.369563
1171.000000	91.264809
1170.000000	91.167273
1169.000000	91.077215
1168.000000	90.996362
1167.000000	90.926666
1166.000000	90.867581
1165.000000	90.817674
1164.000000	90.778895
1163.000000	90.756611
1162.000000	90.754686
1161.000000	90.774775
1160.000000	90.818377
1159.000000	90.885976
1158.000000	90.975721
1157.000000	91.084969
1156.000000	91.213560
1155.000000	91.361367
1154.000000	91.524971
1153.000000	91.701722
1152.000000	91.893310
1151.000000	92.101863
1150.000000	92.323400
1149.000000	92.549872
1148.000000	92.776859
1147.000000	93.004592
1146.000000	93.232934
1145.000000	93.458618
1144.000000	93.677203
1143.000000	93.884998
1142.000000	94.080164
1141.000000	94.263014
1140.000000	94.434572
1139.000000	94.594844
1138.000000	94.742264
1137.000000	94.875387
1136.000000	94.992791
1135.000000	95.091835
1134.000000	95.170738
1133.000000	95.230671
1132.000000	95.275232
1131.000000	95.307149
1130.000000	95.326863
1129.000000	95.335363
1128.000000	95.336192
1127.000000	95.334494
1126.000000	95.332994
1125.000000	95.328696
1124.000000	95.315478
1123.000000	95.290453
1122.000000	95.256894
1121.000000	95.218533
1120.000000	95.171703
1119.000000	95.107335
1118.000000	95.019647
1117.000000	94.909981
1116.000000	94.781632
1115.000000	94.634928
1114.000000	94.471072
1113.000000	94.298153
1112.000000	94.131278
1111.000000	93.986108
1110.000000	93.872694
1109.000000	93.793981
1108.000000	93.748385
1107.000000	93.731410
1106.000000	93.734680
1105.000000	93.747937
1104.000000	93.762733
1103.000000	93.774536
1102.000000	93.779920
1101.000000	93.772967
1100.000000	93.747100
1099.000000	93.700598
1098.000000	93.639726
1097.000000	93.573941
1096.000000	93.509819
1095.000000	93.450662
1094.000000	93.400363
1093.000000	93.364686
1092.000000	93.349378
1091.000000	93.357990
1090.000000	93.391717
1089.000000	93.448037
1088.000000	93.519482
1087.000000	93.597372
1086.000000	93.678363
1085.000000	93.766910
1084.000000	93.867987
1083.000000	93.979187
1082.000000	94.092585
1081.000000	94.202093
1080.000000	94.305978
1079.000000	94.403885
1078.000000	94.496350
1077.000000	94.586907
1076.000000	94.680119
1075.000000	94.775701
1074.000000	94.866601
1073.000000	94.943795
1072.000000	95.001302
1071.000000	95.038529
1070.000000	95.059466
1069.000000	95.069488
1068.000000	95.072270
1067.000000	95.069636
1066.000000	95.064214
1065.000000	95.058812
1064.000000	95.053352
1063.000000	95.046133
1062.000000	95.038881
1061.000000	95.036671
1060.000000	95.041025
1059.000000	95.047658
1058.000000	95.053817
1057.000000	95.063860
1056.000000	95.083204
1055.000000	95.110048
1054.000000	95.138594
1053.000000	95.168370
1052.000000	95.204875
1051.000000	95.250080
1050.000000	95.297206
1049.000000	95.336881
1048.000000	95.365455
1047.000000	95.386005
1046.000000	95.403122
1045.000000	95.417565
1044.000000	95.425067
1043.000000	95.421097
1042.000000	95.406303
1041.000000	95.385306
1040.000000	95.359542
1039.000000	95.324000
1038.000000	95.273382
1037.000000	95.208666
1036.000000	95.136400
1035.000000	95.064427
1034.000000	94.999790
1033.000000	94.947056
1032.000000	94.905240
1031.000000	94.869122
1030.000000	94.836822
1029.000000	94.814818
1028.000000	94.811435
1027.000000	94.826607
1026.000000	94.851466
1025.000000	94.876880
1024.000000	94.899536
1023.000000	94.920807
1022.000000	94.944526
1021.000000	94.975389
1020.000000	95.014691
1019.000000	95.057175
1018.000000	95.095790
1017.000000	95.130392
1016.000000	95.168150
1015.000000	95.214890
1014.000000	95.270212
1013.000000	95.331664
1012.000000	95.399486
1011.000000	95.474675
1010.000000	95.554986
1009.000000	95.635663
1008.000000	95.713026
1007.000000	95.786332
1006.000000	95.856764
1005.000000	95.924716
1004.000000	95.987392
1003.000000	96.040485
1002.000000	96.083959
1001.000000	96.124106
1000.000000	96.167560
999.000000	96.213949
998.000000	96.256826
997.000000	96.290711
996.000000	96.314319
995.000000	96.329117
994.000000	96.338395
993.000000	96.347092
992.000000	96.358771
991.000000	96.371680
990.000000	96.380330
989.000000	96.381415
988.000000	96.376687
987.000000	96.370399
986.000000	96.365629
985.000000	96.362467
984.000000	96.357807
983.000000	96.347552
982.000000	96.331239
981.000000	96.313676
980.000000	96.299496
979.000000	96.286138
978.000000	96.264787
977.000000	96.228893
976.000000	96.179972
975.000000	96.125577
974.000000	96.073822
973.000000	96.030260
972.000000	95.997353
971.000000	95.975024
970.000000	95.962123
969.000000	95.957949
968.000000	95.962341
967.000000	95.974355
966.000000	95.992992
965.000000	96.019021
964.000000	96.053789
963.000000	96.095979
962.000000	96.141513
961.000000	96.188013
960.000000	96.236894
959.000000	96.289472
958.000000	96.343884
957.000000	96.398319
956.000000	96.456258
955.000000	96.525130
954.000000	96.608880
953.000000	96.703228
952.000000	96.798110
951.000000	96.884002
950.000000	96.956523
949.000000	97.017114
948.000000	97.071059
947.000000	97.124474
946.000000	97.180946
945.000000	97.238827
944.000000	97.292319
943.000000	97.336380
942.000000	97.371379
941.000000	97.401807
940.000000	97.430689
939.000000	97.457272
938.000000	97.480239
937.000000	97.501586
936.000000	97.526119
935.000000	97.557991
934.000000	97.597880
933.000000	97.642450
932.000000	97.686401
931.000000	97.726012
930.000000	97.760669
929.000000	97.790631
928.000000	97.814953
927.000000	97.834062
926.000000	97.852984
925.000000	97.878148
924.000000	97.910712
923.000000	97.945859
922.000000	97.979188
921.000000	98.010576
920.000000	98.041333
919.000000	98.071277
918.000000	98.100732
917.000000	98.132709
916.000000	98.170531
915.000000	98.214228
914.000000	98.260031
913.000000	98.302469
912.000000	98.337525
911.000000	98.365918
910.000000	98.393031
909.000000	98.422944
908.000000	98.453000
907.000000	98.477628
906.000000	98.496698
905.000000	98.515378
904.000000	98.535569
903.000000	98.552659
902.000000	98.562724
901.000000	98.568823
900.000000	98.578379
899.000000	98.597081
898.000000	98.626248
897.000000	98.661514
896.000000	98.692920
895.000000	98.710439
894.000000	98.712311
893.000000	98.705367
892.000000	98.695505
891.000000	98.679659
890.000000	98.642789
889.000000	98.554927
888.000000	98.373383
887.000000	98.059978
886.000000	97.611278
885.000000	97.070940
884.000000	96.505176
883.000000	95.961027
882.000000	95.436807
881.000000	94.888355
880.000000	94.267625
879.000000	93.567692
878.000000	92.836970
877.000000	92.156235
876.000000	91.603645
875.000000	91.238017
874.000000	91.103469
873.000000	91.229536
872.000000	91.621391
871.000000	92.240741
870.000000	93.002611
869.000000	93.802219
868.000000	94.549677
867.000000	95.192627
866.000000	95.718507
865.000000	96.142606
864.000000	96.487979
863.000000	96.772659
862.000000	97.009071
861.000000	97.208190
860.000000	97.378847
859.000000	97.524786
858.000000	97.648006
857.000000	97.751368
856.000000	97.837048
855.000000	97.907177
854.000000	97.967120
853.000000	98.020742
852.000000	98.056651
851.000000	98.050594
850.000000	97.995225
849.000000	97.924080
848.000000	97.892959
847.000000	97.932631
846.000000	98.025351
845.000000	98.128459
844.000000	98.211799
843.000000	98.270817
842.000000	98.314427
841.000000	98.349777
840.000000	98.377274
839.000000	98.393845
838.000000	98.398730
837.000000	98.395690
836.000000	98.389083
835.000000	98.380007
834.000000	98.369214
833.000000	98.362437
832.000000	98.367724
831.000000	98.386966
830.000000	98.414579
829.000000	98.446201
828.000000	98.483796
827.000000	98.528545
826.000000	98.572753
825.000000	98.603955
824.000000	98.616158
823.000000	98.614527
822.000000	98.610229
821.000000	98.612805
820.000000	98.625483
819.000000	98.643905
818.000000	98.659465
817.000000	98.666314
816.000000	98.665859
815.000000	98.664421
814.000000	98.667298
813.000000	98.675230
812.000000	98.684982
811.000000	98.691220
810.000000	98.688895
809.000000	98.676478
808.000000	98.658000
807.000000	98.640870
806.000000	98.630134
805.000000	98.624185
804.000000	98.616311
803.000000	98.601190
802.000000	98.579870
801.000000	98.557772
800.000000	98.538003
799.000000	98.518414
798.000000	98.496404
797.000000	98.474513
796.000000	98.457924
795.000000	98.446667
794.000000	98.434131
793.000000	98.415005
792.000000	98.391616
791.000000	98.370038
790.000000	98.352495
789.000000	98.336882
788.000000	98.321650
787.000000	98.306757
786.000000	98.290555
785.000000	98.270695
784.000000	98.249386
783.000000	98.233282
782.000000	98.225344
781.000000	98.219831
780.000000	98.208503
779.000000	98.189844
778.000000	98.169096
777.000000	98.150432
776.000000	98.132426
775.000000	98.111042
774.000000	98.084654
773.000000	98.055978
772.000000	98.030814
771.000000	98.014285
770.000000	98.006214
769.000000	98.000816
768.000000	97.992841
767.000000	97.982900
766.000000	97.974268
765.000000	97.965465
764.000000	97.949828
763.000000	97.922915
762.000000	97.887039
761.000000	97.847411
760.000000	97.806879
759.000000	97.766001
758.000000	97.725419
757.000000	97.685880
756.000000	97.647936
755.000000	97.614151
754.000000	97.590095
753.000000	97.579831
752.000000	97.579949
751.000000	97.580260
750.000000	97.571822
749.000000	97.554484
748.000000	97.536191
747.000000	97.524493
746.000000	97.518869
745.000000	97.511878
744.000000	97.497813
743.000000	97.478541
742.000000	97.459727
741.000000	97.443180
740.000000	97.425654
739.000000	97.404245
738.000000	97.379200
737.000000	97.350847
736.000000	97.317363
735.000000	97.277402
734.000000	97.232110
733.000000	97.182717
732.000000	97.129238
731.000000	97.073920
730.000000	97.022941
729.000000	96.980218
728.000000	96.942868
727.000000	96.906293
726.000000	96.870439
725.000000	96.837820
724.000000	96.806209
723.000000	96.766881
722.000000	96.709989
721.000000	96.629644
720.000000	96.523838
719.000000	96.388418
718.000000	96.207028
717.000000	95.945583
716.000000	95.568211
715.000000	95.079761
714.000000	94.563527
713.000000	94.163273
712.000000	94.002900
711.000000	94.104601
710.000000	94.379428
709.000000	94.692858
708.000000	94.941669
707.000000	95.089010
706.000000	95.151198
705.000000	95.166502
704.000000	95.168801
703.000000	95.171824
702.000000	95.170609
701.000000	95.157352
700.000000	95.132721
699.000000	95.104017
698.000000	95.076531
697.000000	95.052165
696.000000	95.033827
695.000000	95.023350
694.000000	95.018977
693.000000	95.017815
692.000000	95.018260
691.000000	95.020010
690.000000	95.022036
689.000000	95.024059
688.000000	95.027321
687.000000	95.029963
686.000000	95.027882
685.000000	95.021149
684.000000	95.013436
683.000000	95.004637
682.000000	94.989638
681.000000	94.967821
680.000000	94.947699
679.000000	94.938418
678.000000	94.940566
677.000000	94.947094
676.000000	94.955757
675.000000	94.970316
674.000000	94.993908
673.000000	95.025094
672.000000	95.060271
671.000000	95.097053
670.000000	95.137774
669.000000	95.187281
668.000000	95.226231
667.000000	95.242241
666.000000	95.275420
665.000000	95.313038
664.000000	95.339547
663.000000	95.362310
662.000000	95.385306
661.000000	95.400930
660.000000	95.404967
659.000000	95.404058
658.000000	95.401907
657.000000	95.389451
656.000000	95.362498
655.000000	95.328593
654.000000	95.290181
653.000000	95.238685
652.000000	95.174403
651.000000	95.112063
650.000000	95.058845
649.000000	95.003258
648.000000	94.937987
647.000000	94.872621
646.000000	94.811254
645.000000	94.739863
644.000000	94.649011
643.000000	94.550726
642.000000	94.461439
641.000000	94.381065
640.000000	94.302923
639.000000	94.231351
638.000000	94.173453
637.000000	94.127858
636.000000	94.095647
635.000000	94.087544
634.000000	94.108129
633.000000	94.145855
632.000000	94.186478
631.000000	94.222182
630.000000	94.241955
629.000000	94.232765
628.000000	94.200683
627.000000	94.173222
626.000000	94.167122
625.000000	94.169385
624.000000	94.161203
623.000000	94.142637
622.000000	94.121359
621.000000	94.094382
620.000000	94.056338
619.000000	94.011263
618.000000	93.962395
617.000000	93.903875
616.000000	93.837944
615.000000	93.785573
614.000000	93.761254
613.000000	93.750696
612.000000	93.731488
611.000000	93.706852
610.000000	93.700995
609.000000	93.727752
608.000000	93.779607
607.000000	93.842584
606.000000	93.908645
605.000000	93.980601
604.000000	94.073221
603.000000	94.201609
602.000000	94.360362
601.000000	94.520878
600.000000	94.657179
599.000000	94.768789
598.000000	94.873839
597.000000	94.986442
596.000000	95.107692
595.000000	95.229702
594.000000	95.339343
593.000000	95.424226
592.000000	95.481136
591.000000	95.516147
590.000000	95.536262
589.000000	95.547817
588.000000	95.562981
587.000000	95.593915
586.000000	95.635415
585.000000	95.666714
584.000000	95.678631
583.000000	95.683886
582.000000	95.691108
581.000000	95.687625
580.000000	95.663508
579.000000	95.637925
578.000000	95.640776
577.000000	95.677814
576.000000	95.731081
575.000000	95.783831
574.000000	95.829832
573.000000	95.862980
572.000000	95.875456
571.000000	95.867568
570.000000	95.850130
569.000000	95.837514
568.000000	95.844350
567.000000	95.880484
566.000000	95.935848
565.000000	95.978584
564.000000	95.983546
563.000000	95.959279
562.000000	95.937177
561.000000	95.936215
560.000000	95.947641
559.000000	95.952017
558.000000	95.939617
557.000000	95.915622
556.000000	95.895646
555.000000	95.894346
554.000000	95.911272
553.000000	95.931735
552.000000	95.946364
551.000000	95.961108
550.000000	95.982645
549.000000	96.006049
548.000000	96.025548
547.000000	96.044338
546.000000	96.063978
545.000000	96.075681
544.000000	96.075160
543.000000	96.074293
542.000000	96.084102
541.000000	96.095293
540.000000	96.089171
539.000000	96.061767
538.000000	96.026494
537.000000	95.999308
536.000000	95.990497
535.000000	96.001927
534.000000	96.022510
533.000000	96.032791
532.000000	96.022028
531.000000	95.994959
530.000000	95.960493
529.000000	95.927881
528.000000	95.917958
527.000000	95.957530
526.000000	96.041607
525.000000	96.117396
524.000000	96.135490
523.000000	96.095806
522.000000	96.030467
521.000000	95.974273
520.000000	95.958529
519.000000	96.001573
518.000000	96.084729
517.000000	96.159349
516.000000	96.200757
515.000000	96.229956
514.000000	96.270652
513.000000	96.318817
512.000000	96.364749
511.000000	96.412512
510.000000	96.461623
509.000000	96.495791
508.000000	96.511663
507.000000	96.533296
506.000000	96.571280
505.000000	96.597962
504.000000	96.593446
503.000000	96.586446
502.000000	96.614479
501.000000	96.660632
500.000000	96.682984
499.000000	96.686618
498.000000	96.712933
497.000000	96.773661
496.000000	96.834230
495.000000	96.861127
494.000000	96.853383
493.000000	96.824256
492.000000	96.785894
491.000000	96.758490
490.000000	96.763196
489.000000	96.796920
488.000000	96.834181
487.000000	96.855600
486.000000	96.860725
485.000000	96.858597
484.000000	96.861718
483.000000	96.885942
482.000000	96.936124
481.000000	96.998556
480.000000	97.060114
479.000000	97.120410
478.000000	97.175285
477.000000	97.207542
476.000000	97.215299
475.000000	97.230058
474.000000	97.282113
473.000000	97.360836
472.000000	97.433867
471.000000	97.501123
470.000000	97.582800
469.000000	97.665384
468.000000	97.711611
467.000000	97.708811
466.000000	97.679119
465.000000	97.648470
464.000000	97.636993
463.000000	97.676151
462.000000	97.788545
461.000000	97.947500
460.000000	98.099051
459.000000	98.209067
458.000000	98.213227
457.000000	98.225081
456.000000	98.245404
455.000000	98.322941
454.000000	98.468758
453.000000	98.628604
452.000000	98.719642
451.000000	98.713790
450.000000	98.653624
