PE IR       SUBTECH     SPECTRUM    ASCII       PEDS        4.00        
   -1
3C-XXX-F019_1.ASC
23/09/07
10:51:49.00
23/09/07
11:30:09.00
uco
Sample 019 By uco Date Thursday, September 07 2023
450.000000
#HDR
-1
-1
#GR
cm-1
%T
1.0
0.0
4000.000000
-1.000000
3551
8
98.996341
86.413690
#DATA
4000.000000	98.921049
3999.000000	98.920757
3998.000000	98.916547
3997.000000	98.911894
3996.000000	98.909649
3995.000000	98.910252
3994.000000	98.912114
3993.000000	98.915756
3992.000000	98.915418
3991.000000	98.913214
3990.000000	98.909079
3989.000000	98.903393
3988.000000	98.897478
3987.000000	98.893255
3986.000000	98.892065
3985.000000	98.893876
3984.000000	98.897631
3983.000000	98.902119
3982.000000	98.906317
3981.000000	98.909251
3980.000000	98.909986
3979.000000	98.908034
3978.000000	98.903737
3977.000000	98.898184
3976.000000	98.892802
3975.000000	98.888925
3974.000000	98.887429
3973.000000	98.888397
3972.000000	98.890958
3971.000000	98.893519
3970.000000	98.894612
3969.000000	98.894002
3968.000000	98.893125
3967.000000	98.894062
3966.000000	98.897600
3965.000000	98.902289
3964.000000	98.905513
3963.000000	98.905607
3962.000000	98.903155
3961.000000	98.900244
3960.000000	98.898503
3959.000000	98.897931
3958.000000	98.897240
3957.000000	98.895155
3956.000000	98.891547
3955.000000	98.887489
3954.000000	98.884377
3953.000000	98.883174
3952.000000	98.884314
3951.000000	98.887791
3950.000000	98.892799
3949.000000	98.897494
3948.000000	98.899849
3947.000000	98.898952
3946.000000	98.895491
3945.000000	98.891139
3944.000000	98.887863
3943.000000	98.887441
3942.000000	98.890492
3941.000000	98.895508
3940.000000	98.899439
3939.000000	98.899658
3938.000000	98.895634
3937.000000	98.889073
3936.000000	98.882684
3935.000000	98.878925
3934.000000	98.879319
3933.000000	98.884084
3932.000000	98.891720
3931.000000	98.899138
3930.000000	98.903173
3929.000000	98.902336
3928.000000	98.897295
3927.000000	98.890332
3926.000000	98.884367
3925.000000	98.881522
3924.000000	98.881788
3923.000000	98.883264
3922.000000	98.883862
3921.000000	98.882251
3920.000000	98.877761
3919.000000	98.870868
3918.000000	98.864346
3917.000000	98.862383
3916.000000	98.866827
3915.000000	98.874673
3914.000000	98.880202
3913.000000	98.879376
3912.000000	98.872421
3911.000000	98.863440
3910.000000	98.857467
3909.000000	98.857095
3908.000000	98.861347
3907.000000	98.867167
3906.000000	98.871924
3905.000000	98.875271
3904.000000	98.879036
3903.000000	98.884866
3902.000000	98.891806
3901.000000	98.896848
3900.000000	98.897607
3899.000000	98.893972
3898.000000	98.887998
3897.000000	98.882125
3896.000000	98.877553
3895.000000	98.873827
3894.000000	98.869648
3893.000000	98.865028
3892.000000	98.863229
3891.000000	98.868444
3890.000000	98.879949
3889.000000	98.891796
3888.000000	98.898235
3887.000000	98.897833
3886.000000	98.893792
3885.000000	98.890339
3884.000000	98.888232
3883.000000	98.884880
3882.000000	98.878515
3881.000000	98.871094
3880.000000	98.866997
3879.000000	98.868264
3878.000000	98.872724
3877.000000	98.877393
3876.000000	98.881475
3875.000000	98.885738
3874.000000	98.889449
3873.000000	98.889105
3872.000000	98.881910
3871.000000	98.870685
3870.000000	98.863663
3869.000000	98.866181
3868.000000	98.874667
3867.000000	98.882395
3866.000000	98.886657
3865.000000	98.888581
3864.000000	98.890017
3863.000000	98.891400
3862.000000	98.891807
3861.000000	98.890442
3860.000000	98.887627
3859.000000	98.884420
3858.000000	98.881468
3857.000000	98.878330
3856.000000	98.874049
3855.000000	98.868600
3854.000000	98.863634
3853.000000	98.861528
3852.000000	98.861267
3851.000000	98.859807
3850.000000	98.857042
3849.000000	98.855411
3848.000000	98.856633
3847.000000	98.860223
3846.000000	98.863986
3845.000000	98.865795
3844.000000	98.865395
3843.000000	98.864288
3842.000000	98.864229
3841.000000	98.866397
3840.000000	98.871022
3839.000000	98.876711
3838.000000	98.880704
3837.000000	98.881360
3836.000000	98.880100
3835.000000	98.879273
3834.000000	98.879662
3833.000000	98.880765
3832.000000	98.882032
3831.000000	98.882874
3830.000000	98.882066
3829.000000	98.878098
3828.000000	98.871396
3827.000000	98.865499
3826.000000	98.863945
3825.000000	98.865912
3824.000000	98.866758
3823.000000	98.863240
3822.000000	98.857327
3821.000000	98.854727
3820.000000	98.856853
3819.000000	98.858541
3818.000000	98.856269
3817.000000	98.852816
3816.000000	98.853285
3815.000000	98.857527
3814.000000	98.860553
3813.000000	98.860067
3812.000000	98.858429
3811.000000	98.858605
3810.000000	98.860552
3809.000000	98.862020
3808.000000	98.862422
3807.000000	98.864234
3806.000000	98.868914
3805.000000	98.873311
3804.000000	98.872911
3803.000000	98.867488
3802.000000	98.862520
3801.000000	98.863454
3800.000000	98.868170
3799.000000	98.870976
3798.000000	98.870434
3797.000000	98.869681
3796.000000	98.871059
3795.000000	98.872439
3794.000000	98.870400
3793.000000	98.864918
3792.000000	98.859442
3791.000000	98.857278
3790.000000	98.858874
3789.000000	98.862165
3788.000000	98.864911
3787.000000	98.866229
3786.000000	98.866557
3785.000000	98.866744
3784.000000	98.867011
3783.000000	98.866716
3782.000000	98.865155
3781.000000	98.862427
3780.000000	98.859473
3779.000000	98.857223
3778.000000	98.855580
3777.000000	98.854238
3776.000000	98.854180
3775.000000	98.857010
3774.000000	98.862241
3773.000000	98.866335
3772.000000	98.865697
3771.000000	98.861067
3770.000000	98.858117
3769.000000	98.861957
3768.000000	98.871756
3767.000000	98.882518
3766.000000	98.890111
3765.000000	98.892764
3764.000000	98.890121
3763.000000	98.882769
3762.000000	98.873003
3761.000000	98.864559
3760.000000	98.860382
3759.000000	98.860911
3758.000000	98.864526
3757.000000	98.869418
3756.000000	98.874217
3755.000000	98.878227
3754.000000	98.882150
3753.000000	98.887895
3752.000000	98.896188
3751.000000	98.904078
3750.000000	98.906709
3749.000000	98.902311
3748.000000	98.892640
3747.000000	98.880598
3746.000000	98.871410
3745.000000	98.872378
3744.000000	98.884248
3743.000000	98.896425
3742.000000	98.899997
3741.000000	98.895454
3740.000000	98.888084
3739.000000	98.883378
3738.000000	98.885427
3737.000000	98.896444
3736.000000	98.914295
3735.000000	98.930337
3734.000000	98.935812
3733.000000	98.931018
3732.000000	98.923743
3731.000000	98.919610
3730.000000	98.917565
3729.000000	98.914316
3728.000000	98.909822
3727.000000	98.907334
3726.000000	98.908605
3725.000000	98.910950
3724.000000	98.910636
3723.000000	98.906980
3722.000000	98.901922
3721.000000	98.897254
3720.000000	98.893536
3719.000000	98.891442
3718.000000	98.892152
3717.000000	98.895706
3716.000000	98.900107
3715.000000	98.902623
3714.000000	98.901295
3713.000000	98.895735
3712.000000	98.888006
3711.000000	98.882534
3710.000000	98.882024
3709.000000	98.884792
3708.000000	98.887746
3707.000000	98.889384
3706.000000	98.889966
3705.000000	98.890305
3704.000000	98.890687
3703.000000	98.890619
3702.000000	98.889953
3701.000000	98.889775
3700.000000	98.891177
3699.000000	98.893932
3698.000000	98.897355
3697.000000	98.901003
3696.000000	98.903976
3695.000000	98.904710
3694.000000	98.902447
3693.000000	98.898450
3692.000000	98.894927
3691.000000	98.893099
3690.000000	98.892193
3689.000000	98.890932
3688.000000	98.889187
3687.000000	98.887311
3686.000000	98.885359
3685.000000	98.883503
3684.000000	98.882155
3683.000000	98.881181
3682.000000	98.879804
3681.000000	98.877770
3680.000000	98.875297
3679.000000	98.870939
3678.000000	98.861782
3677.000000	98.848143
3676.000000	98.838007
3675.000000	98.840126
3674.000000	98.850371
3673.000000	98.857922
3672.000000	98.859088
3671.000000	98.858149
3670.000000	98.859471
3669.000000	98.860738
3668.000000	98.856583
3667.000000	98.846498
3666.000000	98.834664
3665.000000	98.825433
3664.000000	98.820296
3663.000000	98.818082
3662.000000	98.817272
3661.000000	98.817898
3660.000000	98.820762
3659.000000	98.825217
3658.000000	98.828560
3657.000000	98.828276
3656.000000	98.825371
3655.000000	98.823783
3654.000000	98.825897
3653.000000	98.830761
3652.000000	98.835398
3651.000000	98.834908
3650.000000	98.823746
3649.000000	98.802884
3648.000000	98.782484
3647.000000	98.770998
3646.000000	98.767781
3645.000000	98.767562
3644.000000	98.766353
3643.000000	98.763267
3642.000000	98.759113
3641.000000	98.754587
3640.000000	98.750074
3639.000000	98.746456
3638.000000	98.744457
3637.000000	98.743121
3636.000000	98.740230
3635.000000	98.734802
3634.000000	98.728338
3633.000000	98.722943
3632.000000	98.719160
3631.000000	98.716361
3630.000000	98.714235
3629.000000	98.712585
3628.000000	98.710028
3627.000000	98.704562
3626.000000	98.696015
3625.000000	98.686390
3624.000000	98.678411
3623.000000	98.673406
3622.000000	98.670198
3621.000000	98.665818
3620.000000	98.657752
3619.000000	98.646994
3618.000000	98.637728
3617.000000	98.632312
3616.000000	98.628894
3615.000000	98.623919
3614.000000	98.615344
3613.000000	98.604133
3612.000000	98.593069
3611.000000	98.583696
3610.000000	98.575182
3609.000000	98.566477
3608.000000	98.558533
3607.000000	98.553523
3606.000000	98.552182
3605.000000	98.553306
3604.000000	98.555387
3603.000000	98.557139
3602.000000	98.557061
3601.000000	98.553478
3600.000000	98.545379
3599.000000	98.533302
3598.000000	98.518651
3597.000000	98.502312
3596.000000	98.484956
3595.000000	98.468617
3594.000000	98.456474
3593.000000	98.450099
3592.000000	98.447563
3591.000000	98.445238
3590.000000	98.440650
3589.000000	98.433644
3588.000000	98.425531
3587.000000	98.417458
3586.000000	98.409409
3585.000000	98.401053
3584.000000	98.392491
3583.000000	98.383492
3582.000000	98.373204
3581.000000	98.361245
3580.000000	98.348976
3579.000000	98.339127
3578.000000	98.333612
3577.000000	98.331661
3576.000000	98.329849
3575.000000	98.324267
3574.000000	98.313209
3573.000000	98.298763
3572.000000	98.285647
3571.000000	98.278117
3570.000000	98.277233
3569.000000	98.280038
3568.000000	98.280483
3567.000000	98.273167
3566.000000	98.257831
3565.000000	98.238791
3564.000000	98.220373
3563.000000	98.204647
3562.000000	98.191882
3561.000000	98.181303
3560.000000	98.171334
3559.000000	98.160102
3558.000000	98.146865
3557.000000	98.133096
3556.000000	98.121354
3555.000000	98.112602
3554.000000	98.104990
3553.000000	98.096030
3552.000000	98.085900
3551.000000	98.077244
3550.000000	98.071568
3549.000000	98.067418
3548.000000	98.062175
3547.000000	98.054728
3546.000000	98.046192
3545.000000	98.038176
3544.000000	98.030593
3543.000000	98.021469
3542.000000	98.008535
3541.000000	97.991367
3540.000000	97.972372
3539.000000	97.955455
3538.000000	97.942957
3537.000000	97.933760
3536.000000	97.924712
3535.000000	97.913834
3534.000000	97.901706
3533.000000	97.890294
3532.000000	97.881473
3531.000000	97.876402
3530.000000	97.875121
3529.000000	97.876189
3528.000000	97.877140
3527.000000	97.875596
3526.000000	97.870063
3525.000000	97.860053
3524.000000	97.846250
3523.000000	97.830615
3522.000000	97.815299
3521.000000	97.801109
3520.000000	97.787571
3519.000000	97.774499
3518.000000	97.762607
3517.000000	97.752247
3516.000000	97.742466
3515.000000	97.732179
3514.000000	97.721763
3513.000000	97.712557
3512.000000	97.705003
3511.000000	97.698234
3510.000000	97.691695
3509.000000	97.686195
3508.000000	97.682667
3507.000000	97.680609
3506.000000	97.678559
3505.000000	97.675383
3504.000000	97.670377
3503.000000	97.662630
3502.000000	97.651386
3501.000000	97.637122
3500.000000	97.621467
3499.000000	97.606127
3498.000000	97.592520
3497.000000	97.582112
3496.000000	97.575652
3495.000000	97.571423
3494.000000	97.565287
3493.000000	97.553860
3492.000000	97.537690
3491.000000	97.520762
3490.000000	97.507092
3489.000000	97.498073
3488.000000	97.492589
3487.000000	97.488394
3486.000000	97.482944
3485.000000	97.473998
3484.000000	97.461088
3483.000000	97.447014
3482.000000	97.436973
3481.000000	97.434512
3480.000000	97.438005
3479.000000	97.441751
3478.000000	97.440822
3477.000000	97.434480
3476.000000	97.425345
3475.000000	97.416257
3474.000000	97.408322
3473.000000	97.401221
3472.000000	97.394060
3471.000000	97.385631
3470.000000	97.374956
3469.000000	97.362521
3468.000000	97.350525
3467.000000	97.341049
3466.000000	97.334004
3465.000000	97.327550
3464.000000	97.320480
3463.000000	97.313611
3462.000000	97.308485
3461.000000	97.304947
3460.000000	97.300399
3459.000000	97.291755
3458.000000	97.278233
3457.000000	97.262197
3456.000000	97.247399
3455.000000	97.236401
3454.000000	97.229687
3453.000000	97.226638
3452.000000	97.226424
3451.000000	97.227925
3450.000000	97.229699
3449.000000	97.230483
3448.000000	97.229325
3447.000000	97.225106
3446.000000	97.216668
3445.000000	97.204057
3444.000000	97.189260
3443.000000	97.175378
3442.000000	97.165137
3441.000000	97.159909
3440.000000	97.159336
3439.000000	97.161297
3438.000000	97.162544
3437.000000	97.160177
3436.000000	97.152942
3435.000000	97.141323
3434.000000	97.126981
3433.000000	97.112301
3432.000000	97.099584
3431.000000	97.089808
3430.000000	97.082296
3429.000000	97.076070
3428.000000	97.071171
3427.000000	97.068026
3426.000000	97.065957
3425.000000	97.063093
3424.000000	97.057752
3423.000000	97.049415
3422.000000	97.038639
3421.000000	97.026761
3420.000000	97.015622
3419.000000	97.006784
3418.000000	97.000671
3417.000000	96.996648
3416.000000	96.993728
3415.000000	96.990902
3414.000000	96.987026
3413.000000	96.980970
3412.000000	96.972030
3411.000000	96.960190
3410.000000	96.946410
3409.000000	96.933005
3408.000000	96.923080
3407.000000	96.918418
3406.000000	96.917560
3405.000000	96.916415
3404.000000	96.911275
3403.000000	96.901572
3402.000000	96.890101
3401.000000	96.880693
3400.000000	96.875084
3399.000000	96.871211
3398.000000	96.864552
3397.000000	96.851936
3396.000000	96.834481
3395.000000	96.816767
3394.000000	96.803087
3393.000000	96.794401
3392.000000	96.788345
3391.000000	96.781768
3390.000000	96.773414
3389.000000	96.764577
3388.000000	96.757449
3387.000000	96.752831
3386.000000	96.749326
3385.000000	96.744527
3384.000000	96.736723
3383.000000	96.725697
3382.000000	96.712712
3381.000000	96.700061
3380.000000	96.689899
3379.000000	96.682745
3378.000000	96.677252
3377.000000	96.671674
3376.000000	96.665151
3375.000000	96.657413
3374.000000	96.648137
3373.000000	96.637396
3372.000000	96.626175
3371.000000	96.615490
3370.000000	96.605127
3369.000000	96.593990
3368.000000	96.581631
3367.000000	96.568760
3366.000000	96.556270
3365.000000	96.544413
3364.000000	96.533005
3363.000000	96.521889
3362.000000	96.511045
3361.000000	96.500505
3360.000000	96.490107
3359.000000	96.479153
3358.000000	96.466548
3357.000000	96.451557
3356.000000	96.434326
3355.000000	96.415687
3354.000000	96.396986
3353.000000	96.380171
3352.000000	96.367075
3351.000000	96.357794
3350.000000	96.350276
3349.000000	96.342162
3348.000000	96.332520
3347.000000	96.321270
3346.000000	96.307863
3345.000000	96.291697
3344.000000	96.273468
3343.000000	96.254989
3342.000000	96.237744
3341.000000	96.222427
3340.000000	96.209395
3339.000000	96.198237
3338.000000	96.187028
3337.000000	96.173461
3336.000000	96.157260
3335.000000	96.140670
3334.000000	96.126184
3333.000000	96.114454
3332.000000	96.104531
3331.000000	96.095150
3330.000000	96.085272
3329.000000	96.074067
3328.000000	96.061001
3327.000000	96.045916
3326.000000	96.028981
3325.000000	96.010864
3324.000000	95.992910
3323.000000	95.976688
3322.000000	95.963152
3321.000000	95.952335
3320.000000	95.943483
3319.000000	95.935147
3318.000000	95.925588
3317.000000	95.913903
3316.000000	95.900861
3315.000000	95.888230
3314.000000	95.877253
3313.000000	95.867889
3312.000000	95.858925
3311.000000	95.848378
3310.000000	95.834645
3309.000000	95.818400
3308.000000	95.803027
3307.000000	95.791860
3306.000000	95.784801
3305.000000	95.778400
3304.000000	95.769216
3303.000000	95.756580
3302.000000	95.742547
3301.000000	95.730178
3300.000000	95.721797
3299.000000	95.717638
3298.000000	95.715730
3297.000000	95.713648
3296.000000	95.710543
3295.000000	95.707007
3294.000000	95.703244
3293.000000	95.698532
3292.000000	95.692489
3291.000000	95.685685
3290.000000	95.678715
3289.000000	95.671617
3288.000000	95.664611
3287.000000	95.658528
3286.000000	95.653970
3285.000000	95.650697
3284.000000	95.648136
3283.000000	95.645922
3282.000000	95.643790
3281.000000	95.641755
3280.000000	95.640878
3279.000000	95.642935
3278.000000	95.648718
3277.000000	95.657104
3276.000000	95.666301
3275.000000	95.675715
3274.000000	95.685939
3273.000000	95.697229
3272.000000	95.708418
3271.000000	95.717301
3270.000000	95.722250
3269.000000	95.723918
3268.000000	95.725297
3267.000000	95.729337
3266.000000	95.736151
3265.000000	95.743122
3264.000000	95.748248
3263.000000	95.752710
3262.000000	95.759610
3261.000000	95.770495
3260.000000	95.783639
3259.000000	95.795738
3258.000000	95.805199
3257.000000	95.813939
3256.000000	95.825876
3255.000000	95.843070
3254.000000	95.863187
3253.000000	95.881353
3252.000000	95.894602
3251.000000	95.903910
3250.000000	95.912029
3249.000000	95.920539
3248.000000	95.929678
3247.000000	95.939641
3246.000000	95.950437
3245.000000	95.960629
3244.000000	95.967862
3243.000000	95.971392
3242.000000	95.973229
3241.000000	95.976321
3240.000000	95.982240
3239.000000	95.991255
3238.000000	96.003845
3237.000000	96.020621
3236.000000	96.040331
3235.000000	96.059166
3234.000000	96.073314
3233.000000	96.081955
3232.000000	96.086945
3231.000000	96.089817
3230.000000	96.090447
3229.000000	96.088948
3228.000000	96.087359
3227.000000	96.088143
3226.000000	96.091685
3225.000000	96.096600
3224.000000	96.102186
3223.000000	96.109431
3222.000000	96.119519
3221.000000	96.132361
3220.000000	96.146635
3219.000000	96.160190
3218.000000	96.170280
3217.000000	96.174886
3216.000000	96.174934
3215.000000	96.174619
3214.000000	96.178125
3213.000000	96.185841
3212.000000	96.194423
3211.000000	96.200604
3210.000000	96.204215
3209.000000	96.207165
3208.000000	96.210534
3207.000000	96.213848
3206.000000	96.217220
3205.000000	96.222663
3204.000000	96.232028
3203.000000	96.244071
3202.000000	96.255048
3201.000000	96.262445
3200.000000	96.267079
3199.000000	96.271225
3198.000000	96.275940
3197.000000	96.281114
3196.000000	96.286921
3195.000000	96.293828
3194.000000	96.301694
3193.000000	96.310158
3192.000000	96.319601
3191.000000	96.330528
3190.000000	96.342207
3189.000000	96.353124
3188.000000	96.362770
3187.000000	96.371971
3186.000000	96.381653
3185.000000	96.392374
3184.000000	96.404871
3183.000000	96.419462
3182.000000	96.434637
3181.000000	96.447659
3180.000000	96.457178
3179.000000	96.464293
3178.000000	96.470790
3177.000000	96.477627
3176.000000	96.485780
3175.000000	96.496905
3174.000000	96.511655
3173.000000	96.527940
3172.000000	96.542099
3171.000000	96.551782
3170.000000	96.557183
3169.000000	96.560128
3168.000000	96.562883
3167.000000	96.567405
3166.000000	96.574664
3165.000000	96.584341
3164.000000	96.595586
3163.000000	96.607915
3162.000000	96.621177
3161.000000	96.635097
3160.000000	96.649308
3159.000000	96.663447
3158.000000	96.676650
3157.000000	96.687366
3156.000000	96.694583
3155.000000	96.699394
3154.000000	96.704797
3153.000000	96.713504
3152.000000	96.725686
3151.000000	96.738730
3150.000000	96.749386
3149.000000	96.756826
3148.000000	96.763767
3147.000000	96.774053
3146.000000	96.788752
3145.000000	96.805016
3144.000000	96.818825
3143.000000	96.828281
3142.000000	96.834036
3141.000000	96.837728
3140.000000	96.841057
3139.000000	96.845696
3138.000000	96.852535
3137.000000	96.860697
3136.000000	96.867958
3135.000000	96.872590
3134.000000	96.874789
3133.000000	96.876557
3132.000000	96.880326
3131.000000	96.887036
3130.000000	96.894958
3129.000000	96.900927
3128.000000	96.903700
3127.000000	96.905961
3126.000000	96.911991
3125.000000	96.923131
3124.000000	96.936128
3123.000000	96.945959
3122.000000	96.949689
3121.000000	96.947888
3120.000000	96.943520
3119.000000	96.940044
3118.000000	96.939590
3117.000000	96.942074
3116.000000	96.946047
3115.000000	96.950477
3114.000000	96.954977
3113.000000	96.958147
3112.000000	96.957130
3111.000000	96.950269
3110.000000	96.939978
3109.000000	96.931669
3108.000000	96.929274
3107.000000	96.932137
3106.000000	96.936227
3105.000000	96.937814
3104.000000	96.935947
3103.000000	96.932220
3102.000000	96.928648
3101.000000	96.925578
3100.000000	96.921575
3099.000000	96.915687
3098.000000	96.909561
3097.000000	96.906407
3096.000000	96.907634
3095.000000	96.911185
3094.000000	96.913637
3093.000000	96.913155
3092.000000	96.909892
3091.000000	96.904595
3090.000000	96.898135
3089.000000	96.891902
3088.000000	96.887107
3087.000000	96.883399
3086.000000	96.879102
3085.000000	96.873179
3084.000000	96.866323
3083.000000	96.859969
3082.000000	96.855005
3081.000000	96.851638
3080.000000	96.849730
3079.000000	96.848721
3078.000000	96.847718
3077.000000	96.846038
3076.000000	96.843449
3075.000000	96.839969
3074.000000	96.836079
3073.000000	96.833091
3072.000000	96.832358
3071.000000	96.833685
3070.000000	96.835328
3069.000000	96.836022
3068.000000	96.836341
3067.000000	96.837596
3066.000000	96.840123
3065.000000	96.843270
3064.000000	96.846360
3063.000000	96.849044
3062.000000	96.851482
3061.000000	96.854869
3060.000000	96.860991
3059.000000	96.870222
3058.000000	96.880510
3057.000000	96.889324
3056.000000	96.896212
3055.000000	96.902461
3054.000000	96.908671
3053.000000	96.913946
3052.000000	96.917454
3051.000000	96.919765
3050.000000	96.922466
3049.000000	96.927134
3048.000000	96.934570
3047.000000	96.944301
3046.000000	96.954771
3045.000000	96.964594
3044.000000	96.973644
3043.000000	96.982513
3042.000000	96.991255
3041.000000	96.999345
3040.000000	97.006611
3039.000000	97.013389
3038.000000	97.019937
3037.000000	97.026542
3036.000000	97.034092
3035.000000	97.043492
3034.000000	97.054264
3033.000000	97.064507
3032.000000	97.072553
3031.000000	97.078188
3030.000000	97.082280
3029.000000	97.085983
3028.000000	97.090435
3027.000000	97.096186
3026.000000	97.102367
3025.000000	97.107050
3024.000000	97.109070
3023.000000	97.109379
3022.000000	97.110367
3021.000000	97.114028
3020.000000	97.120677
3019.000000	97.128890
3018.000000	97.136438
3017.000000	97.141593
3016.000000	97.143884
3015.000000	97.143788
3014.000000	97.141979
3013.000000	97.139031
3012.000000	97.135278
3011.000000	97.130384
3010.000000	97.123387
3009.000000	97.113780
3008.000000	97.102484
3007.000000	97.091320
3006.000000	97.081734
3005.000000	97.074227
3004.000000	97.068254
3003.000000	97.062015
3002.000000	97.053033
3001.000000	97.040096
3000.000000	97.024409
2999.000000	97.008018
2998.000000	96.991471
2997.000000	96.974043
2996.000000	96.955635
2995.000000	96.936840
2994.000000	96.917008
2993.000000	96.893994
2992.000000	96.866556
2991.000000	96.835758
2990.000000	96.803297
2989.000000	96.769254
2988.000000	96.732338
2987.000000	96.691750
2986.000000	96.648155
2985.000000	96.603315
2984.000000	96.559009
2983.000000	96.515630
2982.000000	96.471254
2981.000000	96.422529
2980.000000	96.367286
2979.000000	96.306118
2978.000000	96.241358
2977.000000	96.174933
2976.000000	96.107292
2975.000000	96.037751
2974.000000	95.965099
2973.000000	95.888090
2972.000000	95.805916
2971.000000	95.718538
2970.000000	95.627056
2969.000000	95.534126
2968.000000	95.443595
2967.000000	95.358523
2966.000000	95.278972
2965.000000	95.202387
2964.000000	95.126780
2963.000000	95.053711
2962.000000	94.987991
2961.000000	94.934947
2960.000000	94.897903
2959.000000	94.877393
2958.000000	94.871889
2957.000000	94.878808
2956.000000	94.895666
2955.000000	94.920794
2954.000000	94.953464
2953.000000	94.992825
2952.000000	95.036020
2951.000000	95.077439
2950.000000	95.110243
2949.000000	95.129399
2948.000000	95.133019
2947.000000	95.121402
2946.000000	95.095784
2945.000000	95.058278
2944.000000	95.011528
2943.000000	94.956547
2942.000000	94.891538
2941.000000	94.814101
2940.000000	94.724948
2939.000000	94.628390
2938.000000	94.529237
2937.000000	94.430393
2936.000000	94.333170
2935.000000	94.238629
2934.000000	94.147917
2933.000000	94.062388
2932.000000	93.983999
2931.000000	93.914713
2930.000000	93.854964
2929.000000	93.803176
2928.000000	93.757742
2927.000000	93.719251
2926.000000	93.690428
2925.000000	93.674177
2924.000000	93.671765
2923.000000	93.682637
2922.000000	93.705253
2921.000000	93.738185
2920.000000	93.780775
2919.000000	93.832914
2918.000000	93.894918
2917.000000	93.967995
2916.000000	94.054434
2915.000000	94.155829
2914.000000	94.269955
2913.000000	94.389741
2912.000000	94.506202
2911.000000	94.613215
2910.000000	94.709896
2909.000000	94.799169
2908.000000	94.884642
2907.000000	94.968207
2906.000000	95.049670
2905.000000	95.128049
2904.000000	95.203463
2903.000000	95.277829
2902.000000	95.353651
2901.000000	95.431976
2900.000000	95.511787
2899.000000	95.591262
2898.000000	95.669084
2897.000000	95.744371
2896.000000	95.815810
2895.000000	95.881651
2894.000000	95.940901
2893.000000	95.994234
2892.000000	96.043394
2891.000000	96.089850
2890.000000	96.133995
2889.000000	96.175077
2888.000000	96.211113
2887.000000	96.239082
2886.000000	96.256403
2885.000000	96.262798
2884.000000	96.260431
2883.000000	96.251844
2882.000000	96.238048
2881.000000	96.218487
2880.000000	96.191858
2879.000000	96.156769
2878.000000	96.112837
2877.000000	96.062457
2876.000000	96.010921
2875.000000	95.963857
2874.000000	95.924769
2873.000000	95.895191
2872.000000	95.876095
2871.000000	95.867583
2870.000000	95.867407
2869.000000	95.871027
2868.000000	95.873422
2867.000000	95.870558
2866.000000	95.859880
2865.000000	95.840653
2864.000000	95.813669
2863.000000	95.779770
2862.000000	95.738874
2861.000000	95.691553
2860.000000	95.641114
2859.000000	95.592580
2858.000000	95.549439
2857.000000	95.512657
2856.000000	95.482910
2855.000000	95.462069
2854.000000	95.452465
2853.000000	95.456228
2852.000000	95.476438
2851.000000	95.517877
2850.000000	95.585094
2849.000000	95.679441
2848.000000	95.797575
2847.000000	95.931791
2846.000000	96.071789
2845.000000	96.208061
2844.000000	96.335062
2843.000000	96.451528
2842.000000	96.557522
2841.000000	96.651755
2840.000000	96.732494
2839.000000	96.799906
2838.000000	96.856457
2837.000000	96.905201
2836.000000	96.948164
2835.000000	96.986057
2834.000000	97.018841
2833.000000	97.046577
2832.000000	97.070160
2831.000000	97.091233
2830.000000	97.111217
2829.000000	97.130628
2828.000000	97.149185
2827.000000	97.166201
2826.000000	97.181171
2825.000000	97.194628
2824.000000	97.208342
2823.000000	97.223693
2822.000000	97.239750
2821.000000	97.253970
2820.000000	97.265093
2819.000000	97.274459
2818.000000	97.284069
2817.000000	97.294325
2816.000000	97.304213
2815.000000	97.312837
2814.000000	97.320150
2813.000000	97.326921
2812.000000	97.334691
2811.000000	97.345092
2810.000000	97.358457
2809.000000	97.373448
2808.000000	97.388538
2807.000000	97.403182
2806.000000	97.417032
2805.000000	97.428908
2804.000000	97.437586
2803.000000	97.443266
2802.000000	97.447478
2801.000000	97.451851
2800.000000	97.457492
2799.000000	97.464871
2798.000000	97.473300
2797.000000	97.480869
2796.000000	97.486005
2795.000000	97.489231
2794.000000	97.492676
2793.000000	97.497887
2792.000000	97.504723
2791.000000	97.512244
2790.000000	97.519892
2789.000000	97.527633
2788.000000	97.535651
2787.000000	97.544263
2786.000000	97.553703
2785.000000	97.563638
2784.000000	97.573029
2783.000000	97.580714
2782.000000	97.586107
2781.000000	97.589341
2780.000000	97.590883
2779.000000	97.591285
2778.000000	97.591454
2777.000000	97.592945
2776.000000	97.597347
2775.000000	97.604821
2774.000000	97.613488
2773.000000	97.620942
2772.000000	97.626388
2771.000000	97.630748
2770.000000	97.634694
2769.000000	97.637552
2768.000000	97.638597
2767.000000	97.638700
2766.000000	97.639917
2765.000000	97.643568
2764.000000	97.649178
2763.000000	97.655149
2762.000000	97.660136
2761.000000	97.663903
2760.000000	97.667167
2759.000000	97.670622
2758.000000	97.674018
2757.000000	97.676437
2756.000000	97.677676
2755.000000	97.679127
2754.000000	97.682872
2753.000000	97.689692
2752.000000	97.697949
2751.000000	97.704553
2750.000000	97.707290
2749.000000	97.706437
2748.000000	97.704178
2747.000000	97.702522
2746.000000	97.702182
2745.000000	97.703411
2744.000000	97.706899
2743.000000	97.712909
2742.000000	97.719951
2741.000000	97.725440
2740.000000	97.727956
2739.000000	97.728247
2738.000000	97.728095
2737.000000	97.728932
2736.000000	97.731489
2735.000000	97.735796
2734.000000	97.741089
2733.000000	97.746415
2732.000000	97.751591
2731.000000	97.756959
2730.000000	97.762092
2729.000000	97.765788
2728.000000	97.767972
2727.000000	97.770661
2726.000000	97.776002
2725.000000	97.783607
2724.000000	97.790631
2723.000000	97.794448
2722.000000	97.794764
2721.000000	97.793387
2720.000000	97.792703
2719.000000	97.794393
2718.000000	97.798821
2717.000000	97.805023
2716.000000	97.811247
2715.000000	97.815818
2714.000000	97.817879
2713.000000	97.817709
2712.000000	97.816635
2711.000000	97.816545
2710.000000	97.819064
2709.000000	97.824615
2708.000000	97.831884
2707.000000	97.838399
2706.000000	97.842295
2705.000000	97.843836
2704.000000	97.844849
2703.000000	97.846511
2702.000000	97.848174
2701.000000	97.848705
2700.000000	97.848338
2699.000000	97.848407
2698.000000	97.849613
2697.000000	97.851358
2696.000000	97.852664
2695.000000	97.852997
2694.000000	97.852180
2693.000000	97.850255
2692.000000	97.847697
2691.000000	97.845348
2690.000000	97.843957
2689.000000	97.843926
2688.000000	97.845305
2687.000000	97.847717
2686.000000	97.850537
2685.000000	97.853437
2684.000000	97.856355
2683.000000	97.858623
2682.000000	97.859039
2681.000000	97.857704
2680.000000	97.857019
2679.000000	97.859403
2678.000000	97.864233
2677.000000	97.868452
2676.000000	97.870168
2675.000000	97.870176
2674.000000	97.869730
2673.000000	97.868597
2672.000000	97.866332
2671.000000	97.864087
2670.000000	97.863678
2669.000000	97.865372
2668.000000	97.867815
2667.000000	97.869912
2666.000000	97.871650
2665.000000	97.873024
2664.000000	97.873250
2663.000000	97.871710
2662.000000	97.869144
2661.000000	97.867113
2660.000000	97.866152
2659.000000	97.865001
2658.000000	97.862179
2657.000000	97.858237
2656.000000	97.855988
2655.000000	97.858338
2654.000000	97.866103
2653.000000	97.877674
2652.000000	97.889909
2651.000000	97.899339
2650.000000	97.903917
2649.000000	97.904855
2648.000000	97.906222
2647.000000	97.911550
2646.000000	97.920665
2645.000000	97.930288
2644.000000	97.937214
2643.000000	97.940308
2642.000000	97.940356
2641.000000	97.939451
2640.000000	97.940297
2639.000000	97.944626
2638.000000	97.951795
2637.000000	97.959509
2636.000000	97.965839
2635.000000	97.970063
2634.000000	97.972287
2633.000000	97.973503
2632.000000	97.975666
2631.000000	97.980352
2630.000000	97.987307
2629.000000	97.995229
2628.000000	98.003570
2627.000000	98.012293
2626.000000	98.020199
2625.000000	98.025028
2624.000000	98.025383
2623.000000	98.021645
2622.000000	98.015566
2621.000000	98.010337
2620.000000	98.010091
2619.000000	98.016938
2618.000000	98.028235
2617.000000	98.038697
2616.000000	98.045482
2615.000000	98.049639
2614.000000	98.053055
2613.000000	98.056434
2612.000000	98.060426
2611.000000	98.065724
2610.000000	98.070858
2609.000000	98.072480
2608.000000	98.069544
2607.000000	98.065569
2606.000000	98.065035
2605.000000	98.068698
2604.000000	98.073698
2603.000000	98.076976
2602.000000	98.077287
2601.000000	98.074953
2600.000000	98.071367
2599.000000	98.068501
2598.000000	98.067952
2597.000000	98.070537
2596.000000	98.076806
2595.000000	98.086938
2594.000000	98.099443
2593.000000	98.110737
2592.000000	98.116988
2591.000000	98.116626
2590.000000	98.111311
2589.000000	98.104910
2588.000000	98.101106
2587.000000	98.101192
2586.000000	98.104268
2585.000000	98.109645
2584.000000	98.117746
2583.000000	98.127671
2582.000000	98.135669
2581.000000	98.138255
2580.000000	98.135983
2579.000000	98.132110
2578.000000	98.128541
2577.000000	98.125656
2576.000000	98.125082
2575.000000	98.129027
2574.000000	98.136474
2573.000000	98.143052
2572.000000	98.145639
2571.000000	98.145148
2570.000000	98.144575
2569.000000	98.146403
2568.000000	98.151789
2567.000000	98.159577
2566.000000	98.165881
2565.000000	98.167445
2564.000000	98.166072
2563.000000	98.167030
2562.000000	98.172515
2561.000000	98.179201
2560.000000	98.182779
2559.000000	98.182307
2558.000000	98.179567
2557.000000	98.177151
2556.000000	98.178004
2555.000000	98.183691
2554.000000	98.191563
2553.000000	98.196142
2552.000000	98.194580
2551.000000	98.188694
2550.000000	98.181162
2549.000000	98.172769
2548.000000	98.164466
2547.000000	98.158771
2546.000000	98.157292
2545.000000	98.159540
2544.000000	98.165541
2543.000000	98.176161
2542.000000	98.188549
2541.000000	98.194796
2540.000000	98.189140
2539.000000	98.175027
2538.000000	98.161850
2537.000000	98.155675
2536.000000	98.155808
2535.000000	98.159305
2534.000000	98.165093
2533.000000	98.172661
2532.000000	98.178941
2531.000000	98.178537
2530.000000	98.167888
2529.000000	98.149463
2528.000000	98.131308
2527.000000	98.120932
2526.000000	98.119105
2525.000000	98.120501
2524.000000	98.120043
2523.000000	98.117183
2522.000000	98.114389
2521.000000	98.113973
2520.000000	98.116984
2519.000000	98.122711
2518.000000	98.127811
2517.000000	98.128028
2516.000000	98.122823
2515.000000	98.117184
2514.000000	98.117326
2513.000000	98.124967
2512.000000	98.136388
2511.000000	98.146211
2510.000000	98.151363
2509.000000	98.152518
2508.000000	98.152747
2507.000000	98.154597
2506.000000	98.158396
2505.000000	98.163571
2504.000000	98.170649
2503.000000	98.180492
2502.000000	98.192321
2501.000000	98.204419
2500.000000	98.216307
2499.000000	98.228013
2498.000000	98.237460
2497.000000	98.241293
2496.000000	98.238748
2495.000000	98.232568
2494.000000	98.225926
2493.000000	98.220796
2492.000000	98.219309
2491.000000	98.223229
2490.000000	98.230891
2489.000000	98.237666
2488.000000	98.241640
2487.000000	98.246766
2486.000000	98.258194
2485.000000	98.275552
2484.000000	98.292476
2483.000000	98.302455
2482.000000	98.304343
2481.000000	98.302753
2480.000000	98.303558
2479.000000	98.308183
2478.000000	98.312246
2477.000000	98.310754
2476.000000	98.304137
2475.000000	98.298053
2474.000000	98.297723
2473.000000	98.303938
2472.000000	98.313733
2471.000000	98.322612
2470.000000	98.326521
2469.000000	98.324428
2468.000000	98.319556
2467.000000	98.316445
2466.000000	98.316868
2465.000000	98.320040
2464.000000	98.325513
2463.000000	98.332765
2462.000000	98.338794
2461.000000	98.339983
2460.000000	98.336859
2459.000000	98.333612
2458.000000	98.332150
2457.000000	98.329994
2456.000000	98.325085
2455.000000	98.319649
2454.000000	98.317791
2453.000000	98.321655
2452.000000	98.330839
2451.000000	98.342986
2450.000000	98.353947
2449.000000	98.359874
2448.000000	98.360445
2447.000000	98.358205
2446.000000	98.354548
2445.000000	98.349224
2444.000000	98.343867
2443.000000	98.341956
2442.000000	98.343973
2441.000000	98.346251
2440.000000	98.346494
2439.000000	98.346963
2438.000000	98.349986
2437.000000	98.353550
2436.000000	98.354208
2435.000000	98.351924
2434.000000	98.349138
2433.000000	98.346987
2432.000000	98.345358
2431.000000	98.345341
2430.000000	98.348714
2429.000000	98.355186
2428.000000	98.361937
2427.000000	98.365908
2426.000000	98.365874
2425.000000	98.363029
2424.000000	98.360193
2423.000000	98.359586
2422.000000	98.360894
2421.000000	98.362518
2420.000000	98.364547
2419.000000	98.368859
2418.000000	98.376194
2417.000000	98.384924
2416.000000	98.392727
2415.000000	98.397363
2414.000000	98.396109
2413.000000	98.387754
2412.000000	98.376265
2411.000000	98.369390
2410.000000	98.371541
2409.000000	98.379668
2408.000000	98.387347
2407.000000	98.391019
2406.000000	98.390857
2405.000000	98.387787
2404.000000	98.382268
2403.000000	98.375364
2402.000000	98.369234
2401.000000	98.366359
2400.000000	98.368348
2399.000000	98.374486
2398.000000	98.381200
2397.000000	98.384262
2396.000000	98.382377
2395.000000	98.378166
2394.000000	98.375638
2393.000000	98.377421
2392.000000	98.383714
2391.000000	98.392353
2390.000000	98.399922
2389.000000	98.404405
2388.000000	98.406900
2387.000000	98.409415
2386.000000	98.411996
2385.000000	98.413620
2384.000000	98.415364
2383.000000	98.420350
2382.000000	98.429797
2381.000000	98.441477
2380.000000	98.451880
2379.000000	98.458311
2378.000000	98.459526
2377.000000	98.456661
2376.000000	98.453532
2375.000000	98.452867
2374.000000	98.452305
2373.000000	98.447237
2372.000000	98.438229
2371.000000	98.431891
2370.000000	98.433735
2369.000000	98.443393
2368.000000	98.455938
2367.000000	98.464716
2366.000000	98.463414
2365.000000	98.450545
2364.000000	98.432893
2363.000000	98.419888
2362.000000	98.415144
2361.000000	98.416203
2360.000000	98.419721
2359.000000	98.424472
2358.000000	98.429261
2357.000000	98.431832
2356.000000	98.429804
2355.000000	98.423057
2354.000000	98.417516
2353.000000	98.419120
2352.000000	98.424973
2351.000000	98.426957
2350.000000	98.422118
2349.000000	98.414053
2348.000000	98.407713
2347.000000	98.406110
2346.000000	98.406380
2345.000000	98.402421
2344.000000	98.396123
2343.000000	98.395943
2342.000000	98.403564
2341.000000	98.411087
2340.000000	98.410936
2339.000000	98.403083
2338.000000	98.392827
2337.000000	98.384435
2336.000000	98.379207
2335.000000	98.377386
2334.000000	98.379484
2333.000000	98.384628
2332.000000	98.389505
2331.000000	98.391558
2330.000000	98.390569
2329.000000	98.386311
2328.000000	98.374805
2327.000000	98.351728
2326.000000	98.319434
2325.000000	98.289521
2324.000000	98.276916
2323.000000	98.287183
2322.000000	98.310097
2321.000000	98.328424
2320.000000	98.334686
2319.000000	98.335068
2318.000000	98.337783
2317.000000	98.344483
2316.000000	98.352901
2315.000000	98.361531
2314.000000	98.368293
2313.000000	98.370739
2312.000000	98.370415
2311.000000	98.373465
2310.000000	98.383349
2309.000000	98.396483
2308.000000	98.407775
2307.000000	98.416350
2306.000000	98.422867
2305.000000	98.425048
2304.000000	98.420519
2303.000000	98.411062
2302.000000	98.400742
2301.000000	98.391760
2300.000000	98.385373
2299.000000	98.384144
2298.000000	98.389001
2297.000000	98.396019
2296.000000	98.399015
2295.000000	98.395278
2294.000000	98.386370
2293.000000	98.375387
2292.000000	98.365710
2291.000000	98.360518
2290.000000	98.360385
2289.000000	98.362090
2288.000000	98.362331
2287.000000	98.361307
2286.000000	98.360731
2285.000000	98.360016
2284.000000	98.357793
2283.000000	98.355873
2282.000000	98.358511
2281.000000	98.367017
2280.000000	98.377154
2279.000000	98.382735
2278.000000	98.381784
2277.000000	98.379242
2276.000000	98.382360
2275.000000	98.392266
2274.000000	98.401895
2273.000000	98.405175
2272.000000	98.406229
2271.000000	98.414846
2270.000000	98.433695
2269.000000	98.455377
2268.000000	98.471937
2267.000000	98.481444
2266.000000	98.484546
2265.000000	98.481426
2264.000000	98.474624
2263.000000	98.469130
2262.000000	98.466635
2261.000000	98.463700
2260.000000	98.457372
2259.000000	98.448882
2258.000000	98.441394
2257.000000	98.438565
2256.000000	98.445008
2255.000000	98.461900
2254.000000	98.481556
2253.000000	98.492918
2252.000000	98.493700
2251.000000	98.491292
2250.000000	98.492053
2249.000000	98.496962
2248.000000	98.506688
2247.000000	98.520926
2246.000000	98.531691
2245.000000	98.528058
2244.000000	98.511458
2243.000000	98.497093
2242.000000	98.496203
2241.000000	98.505097
2240.000000	98.514365
2239.000000	98.519565
2238.000000	98.519002
2237.000000	98.511432
2236.000000	98.501987
2235.000000	98.501668
2234.000000	98.514629
2233.000000	98.532318
2232.000000	98.543546
2231.000000	98.542409
2230.000000	98.524369
2229.000000	98.487817
2228.000000	98.446320
2227.000000	98.426494
2226.000000	98.442862
2225.000000	98.481518
2224.000000	98.516810
2223.000000	98.537263
2222.000000	98.547906
2221.000000	98.556148
2220.000000	98.565856
2219.000000	98.579028
2218.000000	98.592859
2217.000000	98.598282
2216.000000	98.589371
2215.000000	98.571873
2214.000000	98.557668
2213.000000	98.554844
2212.000000	98.566267
2211.000000	98.590949
2210.000000	98.620651
2209.000000	98.640906
2208.000000	98.642950
2207.000000	98.631767
2206.000000	98.617449
2205.000000	98.602016
2204.000000	98.578833
2203.000000	98.543097
2202.000000	98.501605
2201.000000	98.473257
2200.000000	98.475349
2199.000000	98.504128
2198.000000	98.534489
2197.000000	98.547862
2196.000000	98.554636
2195.000000	98.575473
2194.000000	98.606507
2193.000000	98.622719
2192.000000	98.616309
2191.000000	98.609189
2190.000000	98.620400
2189.000000	98.642829
2188.000000	98.662342
2187.000000	98.681352
2186.000000	98.708859
2185.000000	98.741375
2184.000000	98.769399
2183.000000	98.792161
2182.000000	98.810926
2181.000000	98.816353
2180.000000	98.797876
2179.000000	98.760672
2178.000000	98.722793
2177.000000	98.699791
2176.000000	98.696755
2175.000000	98.707873
2174.000000	98.718621
2173.000000	98.715301
2172.000000	98.698089
2171.000000	98.680209
2170.000000	98.672531
2169.000000	98.673046
2168.000000	98.670844
2167.000000	98.657059
2166.000000	98.635464
2165.000000	98.626306
2164.000000	98.648910
2163.000000	98.690173
2162.000000	98.707158
2161.000000	98.681722
2160.000000	98.659981
2159.000000	98.701693
2158.000000	98.793781
2157.000000	98.866514
2156.000000	98.887863
2155.000000	98.882279
2154.000000	98.871848
2153.000000	98.854469
2152.000000	98.831745
2151.000000	98.816670
2150.000000	98.811819
2149.000000	98.808304
2148.000000	98.807967
2147.000000	98.819662
2146.000000	98.832038
2145.000000	98.818624
2144.000000	98.776023
2143.000000	98.730601
2142.000000	98.701723
2141.000000	98.683043
2140.000000	98.665724
2139.000000	98.656750
2138.000000	98.663805
2137.000000	98.680659
2136.000000	98.698298
2135.000000	98.716252
2134.000000	98.733879
2133.000000	98.743712
2132.000000	98.741321
2131.000000	98.730413
2130.000000	98.714015
2129.000000	98.692388
2128.000000	98.671872
2127.000000	98.662874
2126.000000	98.664875
2125.000000	98.664585
2124.000000	98.653655
2123.000000	98.637746
2122.000000	98.623968
2121.000000	98.610189
2120.000000	98.592478
2119.000000	98.573338
2118.000000	98.555860
2117.000000	98.537769
2116.000000	98.517265
2115.000000	98.498154
2114.000000	98.483912
2113.000000	98.472871
2112.000000	98.463812
2111.000000	98.460279
2110.000000	98.464994
2109.000000	98.475346
2108.000000	98.487682
2107.000000	98.500631
2106.000000	98.512131
2105.000000	98.519965
2104.000000	98.527104
2103.000000	98.538682
2102.000000	98.551414
2101.000000	98.554857
2100.000000	98.545803
2099.000000	98.533489
2098.000000	98.529117
2097.000000	98.537797
2096.000000	98.560017
2095.000000	98.589484
2094.000000	98.609430
2093.000000	98.605102
2092.000000	98.582587
2091.000000	98.562313
2090.000000	98.552494
2089.000000	98.542522
2088.000000	98.525390
2087.000000	98.511706
2086.000000	98.513666
2085.000000	98.527744
2084.000000	98.541404
2083.000000	98.547670
2082.000000	98.546381
2081.000000	98.540392
2080.000000	98.537065
2079.000000	98.543954
2078.000000	98.557024
2077.000000	98.562595
2076.000000	98.556784
2075.000000	98.551898
2074.000000	98.558232
2073.000000	98.571695
2072.000000	98.584894
2071.000000	98.597699
2070.000000	98.608753
2069.000000	98.609671
2068.000000	98.597951
2067.000000	98.585320
2066.000000	98.585301
2065.000000	98.600779
2064.000000	98.627337
2063.000000	98.657127
2062.000000	98.675868
2061.000000	98.671726
2060.000000	98.654133
2059.000000	98.647959
2058.000000	98.662651
2057.000000	98.683403
2056.000000	98.696794
2055.000000	98.704208
2054.000000	98.702281
2053.000000	98.676034
2052.000000	98.626946
2051.000000	98.585358
2050.000000	98.577213
2049.000000	98.592927
2048.000000	98.608616
2047.000000	98.625367
2046.000000	98.659412
2045.000000	98.704136
2044.000000	98.731810
2043.000000	98.726703
2042.000000	98.695532
2041.000000	98.655181
2040.000000	98.625915
2039.000000	98.622828
2038.000000	98.639985
2037.000000	98.657291
2036.000000	98.675476
2035.000000	98.722992
2034.000000	98.809480
2033.000000	98.898194
2032.000000	98.951740
2031.000000	98.977526
2030.000000	98.996341
2029.000000	98.995914
2028.000000	98.953158
2027.000000	98.881048
2026.000000	98.818660
2025.000000	98.788053
2024.000000	98.784306
2023.000000	98.795791
2022.000000	98.812713
2021.000000	98.826938
2020.000000	98.843326
2019.000000	98.877949
2018.000000	98.928071
2017.000000	98.959944
2016.000000	98.949226
2015.000000	98.914461
2014.000000	98.886904
2013.000000	98.869859
2012.000000	98.849325
2011.000000	98.827515
2010.000000	98.824033
2009.000000	98.850971
2008.000000	98.900520
2007.000000	98.949614
2006.000000	98.968648
2005.000000	98.940606
2004.000000	98.880959
2003.000000	98.824839
2002.000000	98.788524
2001.000000	98.757918
2000.000000	98.717709
1999.000000	98.673701
1998.000000	98.643407
1997.000000	98.640002
1996.000000	98.669153
1995.000000	98.724859
1994.000000	98.780606
1993.000000	98.801170
1992.000000	98.779890
1991.000000	98.750778
1990.000000	98.745974
1989.000000	98.759148
1988.000000	98.763408
1987.000000	98.746999
1986.000000	98.720329
1985.000000	98.701946
1984.000000	98.705371
1983.000000	98.727479
1982.000000	98.743972
1981.000000	98.732205
1980.000000	98.705950
1979.000000	98.707910
1978.000000	98.759391
1977.000000	98.834434
1976.000000	98.895588
1975.000000	98.930995
1974.000000	98.941812
1973.000000	98.928551
1972.000000	98.906237
1971.000000	98.901241
1970.000000	98.917987
1969.000000	98.930758
1968.000000	98.918625
1967.000000	98.889957
1966.000000	98.864107
1965.000000	98.851727
1964.000000	98.861399
1963.000000	98.898987
1962.000000	98.948511
1961.000000	98.976276
1960.000000	98.967671
1959.000000	98.940718
1958.000000	98.914932
1957.000000	98.890001
1956.000000	98.861874
1955.000000	98.835229
1954.000000	98.812816
1953.000000	98.792105
1952.000000	98.779548
1951.000000	98.791444
1950.000000	98.829287
1949.000000	98.870885
1948.000000	98.895621
1947.000000	98.901752
1946.000000	98.893124
1945.000000	98.867866
1944.000000	98.830641
1943.000000	98.800217
1942.000000	98.790581
1941.000000	98.796595
1940.000000	98.808792
1939.000000	98.824751
1938.000000	98.837714
1937.000000	98.832816
1936.000000	98.806472
1935.000000	98.776341
1934.000000	98.762386
1933.000000	98.766556
1932.000000	98.777149
1931.000000	98.785763
1930.000000	98.787041
1929.000000	98.777268
1928.000000	98.762732
1927.000000	98.757786
1926.000000	98.769158
1925.000000	98.785104
1924.000000	98.793042
1923.000000	98.797767
1922.000000	98.809870
1921.000000	98.826628
1920.000000	98.834442
1919.000000	98.825897
1918.000000	98.806843
1917.000000	98.789379
1916.000000	98.782532
1915.000000	98.786324
1914.000000	98.793326
1913.000000	98.796703
1912.000000	98.797042
1911.000000	98.800846
1910.000000	98.808278
1909.000000	98.811772
1908.000000	98.805932
1907.000000	98.791840
1906.000000	98.774923
1905.000000	98.761537
1904.000000	98.761388
1903.000000	98.779646
1902.000000	98.803817
1901.000000	98.815810
1900.000000	98.814354
1899.000000	98.812376
1898.000000	98.815072
1897.000000	98.813483
1896.000000	98.805206
1895.000000	98.804551
1894.000000	98.820816
1893.000000	98.842695
1892.000000	98.853482
1891.000000	98.849748
1890.000000	98.839495
1889.000000	98.831434
1888.000000	98.830806
1887.000000	98.838066
1886.000000	98.846454
1885.000000	98.847288
1884.000000	98.841414
1883.000000	98.838030
1882.000000	98.838358
1881.000000	98.834267
1880.000000	98.825023
1879.000000	98.820920
1878.000000	98.828961
1877.000000	98.842093
1876.000000	98.849038
1875.000000	98.850577
1874.000000	98.856079
1873.000000	98.869680
1872.000000	98.887125
1871.000000	98.900725
1870.000000	98.903919
1869.000000	98.896885
1868.000000	98.889524
1867.000000	98.889405
1866.000000	98.889745
1865.000000	98.880938
1864.000000	98.867135
1863.000000	98.861229
1862.000000	98.865919
1861.000000	98.870354
1860.000000	98.867485
1859.000000	98.862684
1858.000000	98.861744
1857.000000	98.863610
1856.000000	98.867377
1855.000000	98.876279
1854.000000	98.887260
1853.000000	98.890936
1852.000000	98.886382
1851.000000	98.878979
1850.000000	98.873039
1849.000000	98.871797
1848.000000	98.881495
1847.000000	98.904936
1846.000000	98.929845
1845.000000	98.936709
1844.000000	98.921803
1843.000000	98.903815
1842.000000	98.894611
1841.000000	98.886929
1840.000000	98.874845
1839.000000	98.864165
1838.000000	98.860840
1837.000000	98.859943
1836.000000	98.859317
1835.000000	98.869103
1834.000000	98.894408
1833.000000	98.924858
1832.000000	98.944663
1831.000000	98.946438
1830.000000	98.937768
1829.000000	98.928091
1828.000000	98.918086
1827.000000	98.905146
1826.000000	98.890009
1825.000000	98.877696
1824.000000	98.871450
1823.000000	98.870025
1822.000000	98.869218
1821.000000	98.867064
1820.000000	98.865624
1819.000000	98.867589
1818.000000	98.872745
1817.000000	98.876633
1816.000000	98.880399
1815.000000	98.889112
1814.000000	98.899257
1813.000000	98.900388
1812.000000	98.886586
1811.000000	98.867690
1810.000000	98.855640
1809.000000	98.846432
1808.000000	98.832706
1807.000000	98.817533
1806.000000	98.807497
1805.000000	98.800041
1804.000000	98.788700
1803.000000	98.771134
1802.000000	98.747751
1801.000000	98.721214
1800.000000	98.693776
1799.000000	98.669363
1798.000000	98.652297
1797.000000	98.645964
1796.000000	98.655033
1795.000000	98.677500
1794.000000	98.700724
1793.000000	98.713045
1792.000000	98.717439
1791.000000	98.728459
1790.000000	98.749984
1789.000000	98.771538
1788.000000	98.786712
1787.000000	98.798998
1786.000000	98.813922
1785.000000	98.829442
1784.000000	98.843872
1783.000000	98.856892
1782.000000	98.862752
1781.000000	98.860794
1780.000000	98.856678
1779.000000	98.859554
1778.000000	98.872696
1777.000000	98.894128
1776.000000	98.924451
1775.000000	98.956205
1774.000000	98.971883
1773.000000	98.960937
1772.000000	98.936385
1771.000000	98.916612
1770.000000	98.894101
1769.000000	98.846616
1768.000000	98.778862
1767.000000	98.724999
1766.000000	98.702959
1765.000000	98.690820
1764.000000	98.655858
1763.000000	98.585346
1762.000000	98.489669
1761.000000	98.386542
1760.000000	98.280333
1759.000000	98.158190
1758.000000	97.990608
1757.000000	97.761785
1756.000000	97.506699
1755.000000	97.275224
1754.000000	97.064008
1753.000000	96.822968
1752.000000	96.515574
1751.000000	96.162978
1750.000000	95.817165
1749.000000	95.491281
1748.000000	95.184328
1747.000000	94.916842
1746.000000	94.697056
1745.000000	94.509477
1744.000000	94.348478
1743.000000	94.234452
1742.000000	94.174572
1741.000000	94.141050
1740.000000	94.122096
1739.000000	94.152726
1738.000000	94.247557
1737.000000	94.372905
1736.000000	94.499013
1735.000000	94.649383
1734.000000	94.863997
1733.000000	95.107628
1732.000000	95.332789
1731.000000	95.551729
1730.000000	95.782130
1729.000000	96.021020
1728.000000	96.259335
1727.000000	96.490039
1726.000000	96.709703
1725.000000	96.916590
1724.000000	97.111813
1723.000000	97.304504
1722.000000	97.494455
1721.000000	97.665882
1720.000000	97.806802
1719.000000	97.923697
1718.000000	98.032037
1717.000000	98.120582
1716.000000	98.172809
1715.000000	98.201182
1714.000000	98.214288
1713.000000	98.207838
1712.000000	98.189432
1711.000000	98.176346
1710.000000	98.174856
1709.000000	98.178941
1708.000000	98.177413
1707.000000	98.155237
1706.000000	98.106439
1705.000000	98.051340
1704.000000	98.025307
1703.000000	98.024958
1702.000000	97.998236
1701.000000	97.886323
1700.000000	97.721719
1699.000000	97.606966
1698.000000	97.530691
1697.000000	97.393813
1696.000000	97.181087
1695.000000	96.988831
1694.000000	96.877787
1693.000000	96.802803
1692.000000	96.712874
1691.000000	96.606516
1690.000000	96.503075
1689.000000	96.418718
1688.000000	96.363143
1687.000000	96.324891
1686.000000	96.268342
1685.000000	96.131608
1684.000000	95.923655
1683.000000	95.748674
1682.000000	95.623376
1681.000000	95.491054
1680.000000	95.350990
1679.000000	95.239099
1678.000000	95.159348
1677.000000	95.065475
1676.000000	94.920227
1675.000000	94.752541
1674.000000	94.619734
1673.000000	94.525356
1672.000000	94.427810
1671.000000	94.298482
1670.000000	94.128619
1669.000000	93.930852
1668.000000	93.743557
1667.000000	93.597387
1666.000000	93.485721
1665.000000	93.372284
1664.000000	93.224564
1663.000000	93.047074
1662.000000	92.870072
1661.000000	92.710329
1660.000000	92.564185
1659.000000	92.434979
1658.000000	92.338654
1657.000000	92.283576
1656.000000	92.248550
1655.000000	92.190327
1654.000000	92.056815
1653.000000	91.855904
1652.000000	91.699600
1651.000000	91.647429
1650.000000	91.643350
1649.000000	91.621701
1648.000000	91.557718
1647.000000	91.478831
1646.000000	91.424383
1645.000000	91.390014
1644.000000	91.363767
1643.000000	91.349859
1642.000000	91.347111
1641.000000	91.357348
1640.000000	91.385878
1639.000000	91.432910
1638.000000	91.485485
1637.000000	91.521045
1636.000000	91.532474
1635.000000	91.532384
1634.000000	91.532961
1633.000000	91.534177
1632.000000	91.538464
1631.000000	91.557726
1630.000000	91.601301
1629.000000	91.667214
1628.000000	91.749938
1627.000000	91.845280
1626.000000	91.945211
1625.000000	92.043987
1624.000000	92.148070
1623.000000	92.270232
1622.000000	92.402520
1621.000000	92.526689
1620.000000	92.638750
1619.000000	92.744167
1618.000000	92.856052
1617.000000	92.991751
1616.000000	93.146679
1615.000000	93.290556
1614.000000	93.407252
1613.000000	93.505388
1612.000000	93.606542
1611.000000	93.725655
1610.000000	93.853134
1609.000000	93.971502
1608.000000	94.079064
1607.000000	94.182983
1606.000000	94.280942
1605.000000	94.370352
1604.000000	94.453950
1603.000000	94.531463
1602.000000	94.598595
1601.000000	94.654613
1600.000000	94.706133
1599.000000	94.756687
1598.000000	94.802129
1597.000000	94.839389
1596.000000	94.872065
1595.000000	94.903405
1594.000000	94.929677
1593.000000	94.947730
1592.000000	94.961832
1591.000000	94.976383
1590.000000	94.987837
1589.000000	94.991346
1588.000000	94.987187
1587.000000	94.977622
1586.000000	94.960833
1585.000000	94.937401
1584.000000	94.914447
1583.000000	94.890674
1582.000000	94.860840
1581.000000	94.833470
1580.000000	94.822738
1579.000000	94.821238
1578.000000	94.801473
1577.000000	94.742315
1576.000000	94.660130
1575.000000	94.594877
1574.000000	94.557082
1573.000000	94.530363
1572.000000	94.497749
1571.000000	94.447842
1570.000000	94.372634
1569.000000	94.283554
1568.000000	94.204987
1567.000000	94.136111
1566.000000	94.056996
1565.000000	93.966747
1564.000000	93.893442
1563.000000	93.861162
1562.000000	93.856651
1561.000000	93.848293
1560.000000	93.779042
1559.000000	93.613340
1558.000000	93.429008
1557.000000	93.279190
1556.000000	93.136899
1555.000000	92.985506
1554.000000	92.833648
1553.000000	92.703199
1552.000000	92.590133
1551.000000	92.475036
1550.000000	92.357028
1549.000000	92.251064
1548.000000	92.167841
1547.000000	92.099623
1546.000000	92.036007
1545.000000	91.983689
1544.000000	91.959303
1543.000000	91.962244
1542.000000	91.963064
1541.000000	91.917403
1540.000000	91.822893
1539.000000	91.730113
1538.000000	91.674617
1537.000000	91.653187
1536.000000	91.646972
1535.000000	91.643314
1534.000000	91.643960
1533.000000	91.651790
1532.000000	91.657351
1531.000000	91.659045
1530.000000	91.665807
1529.000000	91.679109
1528.000000	91.698543
1527.000000	91.729316
1526.000000	91.775141
1525.000000	91.828722
1524.000000	91.872819
1523.000000	91.892514
1522.000000	91.888995
1521.000000	91.881516
1520.000000	91.887320
1519.000000	91.899592
1518.000000	91.896660
1517.000000	91.873130
1516.000000	91.852560
1515.000000	91.854376
1514.000000	91.872049
1513.000000	91.897072
1512.000000	91.938171
1511.000000	92.010116
1510.000000	92.106147
1509.000000	92.198956
1508.000000	92.265749
1507.000000	92.316180
1506.000000	92.349335
1505.000000	92.349419
1504.000000	92.342842
1503.000000	92.351090
1502.000000	92.372943
1501.000000	92.407276
1500.000000	92.451568
1499.000000	92.496924
1498.000000	92.526262
1497.000000	92.525331
1496.000000	92.507308
1495.000000	92.508352
1494.000000	92.537368
1493.000000	92.571883
1492.000000	92.593516
1491.000000	92.603172
1490.000000	92.603703
1489.000000	92.582305
1488.000000	92.531699
1487.000000	92.469185
1486.000000	92.406037
1485.000000	92.338529
1484.000000	92.267314
1483.000000	92.191676
1482.000000	92.107287
1481.000000	92.012112
1480.000000	91.915091
1479.000000	91.823256
1478.000000	91.727526
1477.000000	91.615854
1476.000000	91.495332
1475.000000	91.376971
1474.000000	91.232806
1473.000000	91.018474
1472.000000	90.755715
1471.000000	90.518693
1470.000000	90.330332
1469.000000	90.167814
1468.000000	90.020590
1467.000000	89.889349
1466.000000	89.760351
1465.000000	89.618594
1464.000000	89.480493
1463.000000	89.375506
1462.000000	89.307496
1461.000000	89.261094
1460.000000	89.219050
1459.000000	89.154117
1458.000000	89.014212
1457.000000	88.782880
1456.000000	88.561082
1455.000000	88.429374
1454.000000	88.347515
1453.000000	88.265397
1452.000000	88.183671
1451.000000	88.123070
1450.000000	88.079050
1449.000000	88.024133
1448.000000	87.954224
1447.000000	87.892312
1446.000000	87.845655
1445.000000	87.804826
1444.000000	87.762253
1443.000000	87.716729
1442.000000	87.669059
1441.000000	87.623352
1440.000000	87.586032
1439.000000	87.549250
1438.000000	87.484815
1437.000000	87.371188
1436.000000	87.246787
1435.000000	87.170031
1434.000000	87.137978
1433.000000	87.116283
1432.000000	87.090831
1431.000000	87.058635
1430.000000	87.007448
1429.000000	86.926765
1428.000000	86.835242
1427.000000	86.759270
1426.000000	86.695333
1425.000000	86.632845
1424.000000	86.585390
1423.000000	86.572359
1422.000000	86.580420
1421.000000	86.574534
1420.000000	86.537282
1419.000000	86.483937
1418.000000	86.441173
1417.000000	86.417376
1416.000000	86.413690
1415.000000	86.432532
1414.000000	86.467418
1413.000000	86.509404
1412.000000	86.560804
1411.000000	86.629934
1410.000000	86.715581
1409.000000	86.808534
1408.000000	86.906479
1407.000000	87.011437
1406.000000	87.115419
1405.000000	87.211916
1404.000000	87.307324
1403.000000	87.406122
1402.000000	87.498518
1401.000000	87.572781
1400.000000	87.633667
1399.000000	87.696417
1398.000000	87.764142
1397.000000	87.826462
1396.000000	87.881411
1395.000000	87.937180
1394.000000	87.996871
1393.000000	88.062144
1392.000000	88.139591
1391.000000	88.231424
1390.000000	88.329424
1389.000000	88.424868
1388.000000	88.520304
1387.000000	88.622475
1386.000000	88.725647
1385.000000	88.821166
1384.000000	88.912693
1383.000000	89.008842
1382.000000	89.111820
1381.000000	89.218262
1380.000000	89.330343
1379.000000	89.454336
1378.000000	89.590371
1377.000000	89.734015
1376.000000	89.885058
1375.000000	90.043437
1374.000000	90.198391
1373.000000	90.335873
1372.000000	90.455028
1371.000000	90.564063
1370.000000	90.666752
1369.000000	90.766648
1368.000000	90.869874
1367.000000	90.977549
1366.000000	91.083956
1365.000000	91.184326
1364.000000	91.278976
1363.000000	91.367054
1362.000000	91.442931
1361.000000	91.504690
1360.000000	91.558965
1359.000000	91.610937
1358.000000	91.659055
1357.000000	91.702307
1356.000000	91.744537
1355.000000	91.788727
1354.000000	91.833560
1353.000000	91.877085
1352.000000	91.920362
1351.000000	91.964624
1350.000000	92.006153
1349.000000	92.040928
1348.000000	92.066794
1347.000000	92.080932
1346.000000	92.080392
1345.000000	92.067146
1344.000000	92.048287
1343.000000	92.027541
1342.000000	92.000930
1341.000000	91.962964
1340.000000	91.915057
1339.000000	91.865259
1338.000000	91.821458
1337.000000	91.788177
1336.000000	91.768182
1335.000000	91.763248
1334.000000	91.774507
1333.000000	91.803465
1332.000000	91.849933
1331.000000	91.908115
1330.000000	91.968845
1329.000000	92.027759
1328.000000	92.087747
1327.000000	92.151504
1326.000000	92.216001
1325.000000	92.277259
1324.000000	92.334557
1323.000000	92.388249
1322.000000	92.437789
1321.000000	92.483547
1320.000000	92.527555
1319.000000	92.571083
1318.000000	92.614240
1317.000000	92.658325
1316.000000	92.705769
1315.000000	92.757472
1314.000000	92.813152
1313.000000	92.873081
1312.000000	92.935970
1311.000000	92.996678
1310.000000	93.051055
1309.000000	93.102372
1308.000000	93.158379
1307.000000	93.222073
1306.000000	93.288714
1305.000000	93.352875
1304.000000	93.413403
1303.000000	93.471567
1302.000000	93.528869
1301.000000	93.587211
1300.000000	93.647607
1299.000000	93.708369
1298.000000	93.767333
1297.000000	93.824586
1296.000000	93.879654
1295.000000	93.926985
1294.000000	93.959770
1293.000000	93.978004
1292.000000	93.988742
1291.000000	93.998576
1290.000000	94.008338
1289.000000	94.015258
1288.000000	94.017165
1287.000000	94.014465
1286.000000	94.010474
1285.000000	94.009263
1284.000000	94.011708
1283.000000	94.014773
1282.000000	94.015905
1281.000000	94.016033
1280.000000	94.015620
1279.000000	94.010355
1278.000000	93.994709
1277.000000	93.968039
1276.000000	93.933739
1275.000000	93.892789
1274.000000	93.842212
1273.000000	93.779313
1272.000000	93.703799
1271.000000	93.616349
1270.000000	93.517253
1269.000000	93.407409
1268.000000	93.288718
1267.000000	93.162796
1266.000000	93.031195
1265.000000	92.896155
1264.000000	92.759959
1263.000000	92.623984
1262.000000	92.489743
1261.000000	92.360531
1260.000000	92.239848
1259.000000	92.127620
1258.000000	92.021213
1257.000000	91.922278
1256.000000	91.839035
1255.000000	91.779276
1254.000000	91.742233
1253.000000	91.719070
1252.000000	91.700113
1251.000000	91.678473
1250.000000	91.649761
1249.000000	91.613071
1248.000000	91.571722
1247.000000	91.530138
1246.000000	91.489758
1245.000000	91.449679
1244.000000	91.410331
1243.000000	91.374339
1242.000000	91.344783
1241.000000	91.324532
1240.000000	91.316517
1239.000000	91.322711
1238.000000	91.343254
1237.000000	91.378960
1236.000000	91.432020
1235.000000	91.501830
1234.000000	91.582726
1233.000000	91.668201
1232.000000	91.756886
1231.000000	91.852078
1230.000000	91.958245
1229.000000	92.080474
1228.000000	92.223057
1227.000000	92.385583
1226.000000	92.561394
1225.000000	92.741872
1224.000000	92.920599
1223.000000	93.092295
1222.000000	93.252023
1221.000000	93.397611
1220.000000	93.529990
1219.000000	93.649383
1218.000000	93.754545
1217.000000	93.845759
1216.000000	93.925167
1215.000000	93.993598
1214.000000	94.049502
1213.000000	94.092965
1212.000000	94.127153
1211.000000	94.154711
1210.000000	94.175285
1209.000000	94.186390
1208.000000	94.185706
1207.000000	94.172634
1206.000000	94.150319
1205.000000	94.126157
1204.000000	94.106754
1203.000000	94.092200
1202.000000	94.077596
1201.000000	94.060397
1200.000000	94.043414
1199.000000	94.029908
1198.000000	94.019482
1197.000000	94.010504
1196.000000	94.003355
1195.000000	93.998534
1194.000000	93.993439
1193.000000	93.983872
1192.000000	93.968091
1191.000000	93.947839
1190.000000	93.926146
1189.000000	93.904606
1188.000000	93.881600
1187.000000	93.852360
1186.000000	93.812071
1185.000000	93.760397
1184.000000	93.701382
1183.000000	93.638336
1182.000000	93.570376
1181.000000	93.494658
1180.000000	93.411052
1179.000000	93.322507
1178.000000	93.231935
1177.000000	93.140778
1176.000000	93.049740
1175.000000	92.959137
1174.000000	92.868732
1173.000000	92.779043
1172.000000	92.692189
1171.000000	92.609951
1170.000000	92.531795
1169.000000	92.457159
1168.000000	92.388957
1167.000000	92.331585
1166.000000	92.286361
1165.000000	92.251396
1164.000000	92.226140
1163.000000	92.213494
1162.000000	92.216542
1161.000000	92.236885
1160.000000	92.275534
1159.000000	92.332944
1158.000000	92.408571
1157.000000	92.501325
1156.000000	92.611112
1155.000000	92.737481
1154.000000	92.878374
1153.000000	93.032839
1152.000000	93.201837
1151.000000	93.384657
1150.000000	93.575953
1149.000000	93.768884
1148.000000	93.959786
1147.000000	94.147767
1146.000000	94.332453
1145.000000	94.513771
1144.000000	94.691756
1143.000000	94.864925
1142.000000	95.031194
1141.000000	95.190287
1140.000000	95.342071
1139.000000	95.482733
1138.000000	95.605799
1137.000000	95.708803
1136.000000	95.794973
1135.000000	95.867403
1134.000000	95.925760
1133.000000	95.969302
1132.000000	96.000855
1131.000000	96.024899
1130.000000	96.043353
1129.000000	96.055890
1128.000000	96.062698
1127.000000	96.065654
1126.000000	96.066429
1125.000000	96.064067
1124.000000	96.055201
1123.000000	96.036387
1122.000000	96.007183
1121.000000	95.970275
1120.000000	95.927069
1119.000000	95.874004
1118.000000	95.804119
1117.000000	95.713541
1116.000000	95.605261
1115.000000	95.485330
1114.000000	95.357420
1113.000000	95.223393
1112.000000	95.089696
1111.000000	94.969360
1110.000000	94.874819
1109.000000	94.809831
1108.000000	94.770602
1107.000000	94.752232
1106.000000	94.750475
1105.000000	94.759829
1104.000000	94.773097
1103.000000	94.783918
1102.000000	94.787726
1101.000000	94.780446
1100.000000	94.758588
1099.000000	94.721292
1098.000000	94.671031
1097.000000	94.611684
1096.000000	94.548354
1095.000000	94.489068
1094.000000	94.443237
1093.000000	94.415966
1092.000000	94.405827
1091.000000	94.409589
1090.000000	94.428053
1089.000000	94.464393
1088.000000	94.517823
1087.000000	94.582342
1086.000000	94.651972
1085.000000	94.725772
1084.000000	94.805485
1083.000000	94.890283
1082.000000	94.976615
1081.000000	95.061769
1080.000000	95.145272
1079.000000	95.227149
1078.000000	95.307419
1077.000000	95.386990
1076.000000	95.466626
1075.000000	95.544615
1074.000000	95.617180
1073.000000	95.681228
1072.000000	95.734902
1071.000000	95.776651
1070.000000	95.805587
1069.000000	95.823103
1068.000000	95.832945
1067.000000	95.838610
1066.000000	95.841136
1065.000000	95.839203
1064.000000	95.832313
1063.000000	95.824351
1062.000000	95.822138
1061.000000	95.828628
1060.000000	95.838929
1059.000000	95.846297
1058.000000	95.851207
1057.000000	95.860838
1056.000000	95.879208
1055.000000	95.902173
1054.000000	95.923807
1053.000000	95.943438
1052.000000	95.963758
1051.000000	95.985462
1050.000000	96.007961
1049.000000	96.032822
1048.000000	96.061808
1047.000000	96.092235
1046.000000	96.117567
1045.000000	96.132308
1044.000000	96.134460
1043.000000	96.125440
1042.000000	96.109566
1041.000000	96.091560
1040.000000	96.071767
1039.000000	96.044632
1038.000000	96.004428
1037.000000	95.951416
1036.000000	95.891496
1035.000000	95.832030
1034.000000	95.779596
1033.000000	95.738627
1032.000000	95.708453
1031.000000	95.683116
1030.000000	95.657757
1029.000000	95.635349
1028.000000	95.623917
1027.000000	95.627487
1026.000000	95.642674
1025.000000	95.663598
1024.000000	95.686797
1023.000000	95.710745
1022.000000	95.734706
1021.000000	95.759765
1020.000000	95.788106
1019.000000	95.820404
1018.000000	95.855962
1017.000000	95.895909
1016.000000	95.943013
1015.000000	95.996993
1014.000000	96.053444
1013.000000	96.109265
1012.000000	96.166538
1011.000000	96.228808
1010.000000	96.295502
1009.000000	96.362295
1008.000000	96.425731
1007.000000	96.485722
1006.000000	96.544160
1005.000000	96.602163
1004.000000	96.658163
1003.000000	96.708897
1002.000000	96.753602
1001.000000	96.796478
1000.000000	96.842744
999.000000	96.891240
998.000000	96.933058
997.000000	96.959340
996.000000	96.969358
995.000000	96.970816
994.000000	96.973187
993.000000	96.981350
992.000000	96.994584
991.000000	97.009450
990.000000	97.023047
989.000000	97.033895
988.000000	97.040873
987.000000	97.042861
986.000000	97.040020
985.000000	97.034501
984.000000	97.028447
983.000000	97.021518
982.000000	97.011710
981.000000	96.998430
980.000000	96.983525
979.000000	96.968583
978.000000	96.952145
977.000000	96.930674
976.000000	96.901940
975.000000	96.867050
974.000000	96.829333
973.000000	96.792270
972.000000	96.759030
971.000000	96.733310
970.000000	96.718921
969.000000	96.717446
968.000000	96.726648
967.000000	96.741751
966.000000	96.759388
965.000000	96.780084
964.000000	96.805924
963.000000	96.836533
962.000000	96.868981
961.000000	96.902671
960.000000	96.941840
959.000000	96.990398
958.000000	97.045559
957.000000	97.099786
956.000000	97.149932
955.000000	97.201104
954.000000	97.259603
953.000000	97.324953
952.000000	97.391291
951.000000	97.454482
950.000000	97.513992
949.000000	97.569231
948.000000	97.619119
947.000000	97.665879
946.000000	97.713857
945.000000	97.761932
944.000000	97.802133
943.000000	97.829573
942.000000	97.850257
941.000000	97.873511
940.000000	97.899572
939.000000	97.921015
938.000000	97.934908
937.000000	97.947376
936.000000	97.965344
935.000000	97.989756
934.000000	98.018179
933.000000	98.048940
932.000000	98.080481
931.000000	98.110510
930.000000	98.138059
929.000000	98.163490
928.000000	98.185698
927.000000	98.203229
926.000000	98.219217
925.000000	98.240286
924.000000	98.268258
923.000000	98.297148
922.000000	98.321684
921.000000	98.344833
920.000000	98.373173
919.000000	98.407760
918.000000	98.443818
917.000000	98.477828
916.000000	98.510589
915.000000	98.543860
914.000000	98.577102
913.000000	98.607799
912.000000	98.633749
911.000000	98.655615
910.000000	98.677919
909.000000	98.705729
908.000000	98.739011
907.000000	98.771978
906.000000	98.799008
905.000000	98.819103
904.000000	98.833833
903.000000	98.843991
902.000000	98.850687
901.000000	98.857455
900.000000	98.868398
899.000000	98.884698
898.000000	98.904063
897.000000	98.922241
896.000000	98.935136
895.000000	98.941928
894.000000	98.946881
893.000000	98.955082
892.000000	98.964206
891.000000	98.962071
890.000000	98.930594
889.000000	98.847534
888.000000	98.685557
887.000000	98.419318
886.000000	98.046423
885.000000	97.600750
884.000000	97.136630
883.000000	96.692791
882.000000	96.264715
881.000000	95.812138
880.000000	95.296935
879.000000	94.719212
878.000000	94.121186
877.000000	93.565170
876.000000	93.111363
875.000000	92.810494
874.000000	92.703869
873.000000	92.816640
872.000000	93.149131
871.000000	93.666028
870.000000	94.295528
869.000000	94.949547
868.000000	95.553317
867.000000	96.067339
866.000000	96.488556
865.000000	96.833979
864.000000	97.120223
863.000000	97.355932
862.000000	97.547244
861.000000	97.703725
860.000000	97.836121
859.000000	97.951192
858.000000	98.052226
857.000000	98.140194
856.000000	98.213364
855.000000	98.270416
854.000000	98.315266
853.000000	98.352922
852.000000	98.376288
851.000000	98.366830
850.000000	98.319806
849.000000	98.265316
848.000000	98.251689
847.000000	98.302445
846.000000	98.395177
845.000000	98.485916
844.000000	98.547783
843.000000	98.583666
842.000000	98.609915
841.000000	98.636813
840.000000	98.663653
839.000000	98.684508
838.000000	98.695259
837.000000	98.697257
836.000000	98.696420
835.000000	98.698769
834.000000	98.706017
833.000000	98.715135
832.000000	98.722013
831.000000	98.725768
830.000000	98.730405
829.000000	98.742546
828.000000	98.766321
827.000000	98.799629
826.000000	98.835425
825.000000	98.866238
824.000000	98.886744
823.000000	98.894001
822.000000	98.889132
821.000000	98.879408
820.000000	98.874938
819.000000	98.880601
818.000000	98.892329
817.000000	98.902495
816.000000	98.907288
815.000000	98.908143
814.000000	98.908932
813.000000	98.914289
812.000000	98.928128
811.000000	98.949059
810.000000	98.967407
809.000000	98.970782
808.000000	98.954439
807.000000	98.924678
806.000000	98.892276
805.000000	98.865106
804.000000	98.846887
803.000000	98.838656
802.000000	98.838063
801.000000	98.838999
800.000000	98.834971
799.000000	98.822614
798.000000	98.801609
797.000000	98.773685
796.000000	98.743524
795.000000	98.718173
794.000000	98.702260
793.000000	98.694093
792.000000	98.687930
791.000000	98.678952
790.000000	98.665169
789.000000	98.646826
788.000000	98.626537
787.000000	98.608903
786.000000	98.597800
785.000000	98.594401
784.000000	98.598329
783.000000	98.607889
782.000000	98.617590
781.000000	98.619465
780.000000	98.611038
779.000000	98.599476
778.000000	98.593274
777.000000	98.591173
776.000000	98.583991
775.000000	98.566519
774.000000	98.542329
773.000000	98.516955
772.000000	98.492390
771.000000	98.469885
770.000000	98.452376
769.000000	98.440737
768.000000	98.431252
767.000000	98.420063
766.000000	98.407458
765.000000	98.395234
764.000000	98.382718
763.000000	98.368519
762.000000	98.353416
761.000000	98.337367
760.000000	98.315726
759.000000	98.283902
758.000000	98.245964
757.000000	98.213361
756.000000	98.192791
755.000000	98.179152
754.000000	98.164072
753.000000	98.148499
752.000000	98.140881
751.000000	98.142901
750.000000	98.143336
749.000000	98.130427
748.000000	98.106675
747.000000	98.085610
746.000000	98.075307
745.000000	98.070912
744.000000	98.063811
743.000000	98.051685
742.000000	98.036791
741.000000	98.020041
740.000000	98.001326
739.000000	97.981883
738.000000	97.961324
737.000000	97.934934
736.000000	97.898857
735.000000	97.856358
734.000000	97.814190
733.000000	97.774121
732.000000	97.733143
731.000000	97.691373
730.000000	97.654070
729.000000	97.624635
728.000000	97.601481
727.000000	97.582434
726.000000	97.566266
725.000000	97.549380
724.000000	97.525878
723.000000	97.492062
722.000000	97.446836
721.000000	97.387080
720.000000	97.306196
719.000000	97.195701
718.000000	97.041526
717.000000	96.818526
716.000000	96.501930
715.000000	96.101519
714.000000	95.689005
713.000000	95.378978
712.000000	95.264107
711.000000	95.353861
710.000000	95.571088
709.000000	95.807882
708.000000	95.989917
707.000000	96.100649
706.000000	96.158518
705.000000	96.184644
704.000000	96.191751
703.000000	96.187605
702.000000	96.177279
701.000000	96.162277
700.000000	96.142107
699.000000	96.118850
698.000000	96.096049
697.000000	96.074295
696.000000	96.052291
695.000000	96.031082
694.000000	96.016929
693.000000	96.017466
692.000000	96.032804
691.000000	96.052981
690.000000	96.064012
689.000000	96.058915
688.000000	96.043517
687.000000	96.028748
686.000000	96.020408
685.000000	96.017762
684.000000	96.017745
683.000000	96.017435
682.000000	96.013151
681.000000	96.002195
680.000000	95.986365
679.000000	95.971604
678.000000	95.962164
677.000000	95.956037
676.000000	95.953388
675.000000	95.959530
674.000000	95.978474
673.000000	96.007832
672.000000	96.042965
671.000000	96.085879
670.000000	96.146273
669.000000	96.230082
668.000000	96.295458
667.000000	96.299480
666.000000	96.291125
665.000000	96.286766
664.000000	96.275592
663.000000	96.269765
662.000000	96.281899
661.000000	96.303553
660.000000	96.316265
659.000000	96.318641
658.000000	96.322673
657.000000	96.328545
656.000000	96.325678
655.000000	96.308613
654.000000	96.278638
653.000000	96.235780
652.000000	96.182053
651.000000	96.126205
650.000000	96.075101
649.000000	96.024484
648.000000	95.969019
647.000000	95.913159
646.000000	95.860619
645.000000	95.803165
644.000000	95.730586
643.000000	95.645523
642.000000	95.560962
641.000000	95.487081
640.000000	95.428659
639.000000	95.388851
638.000000	95.363778
637.000000	95.340623
636.000000	95.311686
635.000000	95.284408
634.000000	95.272012
633.000000	95.280293
632.000000	95.306240
631.000000	95.339816
630.000000	95.363566
629.000000	95.364074
628.000000	95.349697
627.000000	95.343928
626.000000	95.353072
625.000000	95.355098
624.000000	95.329656
623.000000	95.283765
622.000000	95.237969
621.000000	95.200829
620.000000	95.169676
619.000000	95.143916
618.000000	95.122103
617.000000	95.094194
616.000000	95.052099
615.000000	95.003560
614.000000	94.963203
613.000000	94.936369
612.000000	94.922637
611.000000	94.926744
610.000000	94.951736
609.000000	94.987193
608.000000	95.017856
607.000000	95.041365
606.000000	95.067781
605.000000	95.108386
604.000000	95.173331
603.000000	95.272321
602.000000	95.405866
601.000000	95.556832
600.000000	95.700059
599.000000	95.820722
598.000000	95.920221
597.000000	96.006539
596.000000	96.084364
595.000000	96.154114
594.000000	96.215530
593.000000	96.271226
592.000000	96.325739
591.000000	96.379258
590.000000	96.425229
589.000000	96.459548
588.000000	96.488400
587.000000	96.519132
586.000000	96.547684
585.000000	96.565707
584.000000	96.578216
583.000000	96.596978
582.000000	96.613916
581.000000	96.603180
580.000000	96.560461
579.000000	96.521370
578.000000	96.522799
577.000000	96.560175
576.000000	96.598399
575.000000	96.613924
574.000000	96.611284
573.000000	96.603430
572.000000	96.597033
571.000000	96.596759
570.000000	96.606446
569.000000	96.624124
568.000000	96.644990
567.000000	96.666154
566.000000	96.681176
565.000000	96.676030
564.000000	96.641401
563.000000	96.587331
562.000000	96.538079
561.000000	96.514516
560.000000	96.525446
559.000000	96.566676
558.000000	96.618048
557.000000	96.652781
556.000000	96.661930
555.000000	96.661398
554.000000	96.667370
553.000000	96.675624
552.000000	96.675504
551.000000	96.671364
550.000000	96.675335
549.000000	96.688757
548.000000	96.706121
547.000000	96.726938
546.000000	96.749270
545.000000	96.761665
544.000000	96.758124
543.000000	96.751447
542.000000	96.756667
541.000000	96.769789
540.000000	96.777690
539.000000	96.780171
538.000000	96.785154
537.000000	96.789759
536.000000	96.782772
535.000000	96.761951
534.000000	96.736098
533.000000	96.712642
532.000000	96.692893
531.000000	96.673711
530.000000	96.647849
529.000000	96.614290
528.000000	96.594438
527.000000	96.621863
526.000000	96.696306
525.000000	96.764877
524.000000	96.782338
523.000000	96.762584
522.000000	96.746848
521.000000	96.755249
520.000000	96.785887
519.000000	96.836118
518.000000	96.897868
517.000000	96.945506
516.000000	96.958862
515.000000	96.946661
514.000000	96.925637
513.000000	96.896345
512.000000	96.861506
511.000000	96.846177
510.000000	96.871538
509.000000	96.924078
508.000000	96.978381
507.000000	97.032249
506.000000	97.088837
505.000000	97.125419
504.000000	97.117358
503.000000	97.082003
502.000000	97.066056
501.000000	97.086386
500.000000	97.122636
499.000000	97.168367
498.000000	97.236956
497.000000	97.316966
496.000000	97.366138
495.000000	97.360337
494.000000	97.321220
493.000000	97.285499
492.000000	97.269112
491.000000	97.271300
490.000000	97.290559
489.000000	97.321950
488.000000	97.353030
487.000000	97.371718
486.000000	97.372495
485.000000	97.360734
484.000000	97.358826
483.000000	97.395466
482.000000	97.469980
481.000000	97.542895
480.000000	97.581291
479.000000	97.597508
478.000000	97.625725
477.000000	97.672211
476.000000	97.715206
475.000000	97.742758
474.000000	97.761394
473.000000	97.780287
472.000000	97.811049
471.000000	97.867044
470.000000	97.937224
469.000000	97.978084
468.000000	97.959941
467.000000	97.914152
466.000000	97.901892
465.000000	97.939170
464.000000	98.000545
463.000000	98.082877
462.000000	98.211992
461.000000	98.386729
460.000000	98.561943
459.000000	98.685058
458.000000	98.718711
457.000000	98.674474
456.000000	98.617058
455.000000	98.613416
454.000000	98.714178
453.000000	98.825409
452.000000	98.885357
451.000000	98.904572
450.000000	98.948540
