PE UV       SUBTECH     SPECTRUM    ASCII       PEDS        4.00        
   -1
RTgChevreUK 42.Sample.asc
18/03/09
09:51:05.00
18/03/09
09:51:05.00
Administrator

200.000000
1
Lambda 750
750N8071901
PerkinElmer UV WinLab 6.0.4.0738 / 1.61.00 Lambda 900

0
0
3350/servo 860.8/2
0
0
UV/VIS
1
1
1
CommonBeamDepol,150mm sphere / downward view
0
0
0
0
Program
Program
3350/servo 860.8/2
3350/0.2 860.8/0.2
3350/0.2 860.8/0.2
0
1
 
 
 
0
 
860.8
319.2
860.8
Front
100
on
 
 
0
0
0
 
0
 
 
 
0
 
 
0
0
0
0
0
 
 
 
 
0
0


0
0
#HDR
-1
-1
#GR
nm
%R
1.0
0.0
2350.000000
-1.000000
2151
8
58.784088
10.935076
#DATA
2350.000000	27.342913
2349.000000	26.974640
2348.000000	27.195145
2347.000000	27.691497
2346.000000	27.428594
2345.000000	27.570557
2344.000000	27.159698
2343.000000	27.088891
2342.000000	27.105758
2341.000000	27.400114
2340.000000	27.294762
2339.000000	27.699645
2338.000000	27.656257
2337.000000	27.696776
2336.000000	27.697445
2335.000000	27.893744
2334.000000	27.886093
2333.000000	27.844212
2332.000000	27.842233
2331.000000	27.947987
2330.000000	27.737574
2329.000000	27.798058
2328.000000	27.977787
2327.000000	27.885547
2326.000000	27.891415
2325.000000	27.895652
2324.000000	27.995877
2323.000000	27.702730
2322.000000	27.513712
2321.000000	27.351504
2320.000000	27.519612
2319.000000	27.469027
2318.000000	27.522675
2317.000000	27.708267
2316.000000	27.276018
2315.000000	27.346898
2314.000000	27.363930
2313.000000	27.113054
2312.000000	27.229906
2311.000000	27.314124
2310.000000	27.138929
2309.000000	27.272239
2308.000000	27.197129
2307.000000	27.016821
2306.000000	26.917009
2305.000000	27.010625
2304.000000	26.934541
2303.000000	26.826986
2302.000000	26.826849
2301.000000	26.718234
2300.000000	26.510370
2299.000000	26.654454
2298.000000	26.375532
2297.000000	26.404334
2296.000000	26.505133
2295.000000	26.380136
2294.000000	26.292533
2293.000000	26.335702
2292.000000	26.100001
2291.000000	26.085572
2290.000000	26.065281
2289.000000	26.037350
2288.000000	26.144877
2287.000000	26.182028
2286.000000	25.997545
2285.000000	25.928598
2284.000000	26.140737
2283.000000	26.121347
2282.000000	25.798107
2281.000000	25.798011
2280.000000	25.887134
2279.000000	25.928427
2278.000000	25.939328
2277.000000	25.859781
2276.000000	26.045824
2275.000000	26.087431
2274.000000	26.041356
2273.000000	26.167986
2272.000000	26.173689
2271.000000	26.196248
2270.000000	26.226849
2269.000000	26.033664
2268.000000	26.080279
2267.000000	26.342692
2266.000000	26.502041
2265.000000	26.494919
2264.000000	26.641374
2263.000000	26.642375
2262.000000	26.647879
2261.000000	26.840524
2260.000000	26.880749
2259.000000	26.966640
2258.000000	27.182890
2257.000000	27.353603
2256.000000	27.391417
2255.000000	27.529102
2254.000000	27.671171
2253.000000	27.650888
2252.000000	27.883089
2251.000000	28.107971
2250.000000	28.156947
2249.000000	28.280830
2248.000000	28.388351
2247.000000	28.528459
2246.000000	28.703095
2245.000000	28.893525
2244.000000	29.001506
2243.000000	29.175493
2242.000000	29.285728
2241.000000	29.351748
2240.000000	29.440110
2239.000000	29.490133
2238.000000	29.542554
2237.000000	29.634053
2236.000000	29.640501
2235.000000	29.678210
2234.000000	29.878016
2233.000000	29.921831
2232.000000	29.838166
2231.000000	29.907178
2230.000000	29.966772
2229.000000	30.041429
2228.000000	30.169573
2227.000000	29.992680
2226.000000	29.966284
2225.000000	30.009339
2224.000000	30.021477
2223.000000	29.993529
2222.000000	29.945872
2221.000000	29.928253
2220.000000	29.962954
2219.000000	29.919613
2218.000000	29.818326
2217.000000	29.838129
2216.000000	29.935774
2215.000000	29.880813
2214.000000	29.823981
2213.000000	29.864644
2212.000000	29.840578
2211.000000	29.778004
2210.000000	29.694113
2209.000000	29.513544
2208.000000	29.450198
2207.000000	29.568246
2206.000000	29.576888
2205.000000	29.488250
2204.000000	29.500938
2203.000000	29.230953
2202.000000	29.246116
2201.000000	29.213907
2200.000000	29.097184
2199.000000	29.109749
2198.000000	29.036393
2197.000000	29.051013
2196.000000	29.048263
2195.000000	28.917230
2194.000000	28.828252
2193.000000	28.789986
2192.000000	28.805587
2191.000000	28.755843
2190.000000	28.609613
2189.000000	28.609627
2188.000000	28.602980
2187.000000	28.550014
2186.000000	28.586890
2185.000000	28.554906
2184.000000	28.712887
2183.000000	28.642836
2182.000000	28.550216
2181.000000	28.489794
2180.000000	28.346228
2179.000000	28.324293
2178.000000	28.392441
2177.000000	28.599208
2176.000000	28.646791
2175.000000	28.651958
2174.000000	28.639589
2173.000000	28.555548
2172.000000	28.712121
2171.000000	28.581926
2170.000000	28.696156
2169.000000	28.831418
2168.000000	29.078514
2167.000000	29.075617
2166.000000	28.950335
2165.000000	29.148408
2164.000000	29.197312
2163.000000	29.267157
2162.000000	29.357524
2161.000000	29.314332
2160.000000	29.531185
2159.000000	29.656475
2158.000000	29.734333
2157.000000	29.711547
2156.000000	29.885465
2155.000000	29.914035
2154.000000	30.243919
2153.000000	30.316615
2152.000000	30.320478
2151.000000	30.375574
2150.000000	30.471402
2149.000000	30.676888
2148.000000	30.802396
2147.000000	30.859869
2146.000000	31.001524
2145.000000	31.123315
2144.000000	31.187498
2143.000000	31.067652
2142.000000	31.186163
2141.000000	31.442920
2140.000000	31.482500
2139.000000	31.676145
2138.000000	31.725431
2137.000000	31.903791
2136.000000	31.822540
2135.000000	31.985415
2134.000000	32.010708
2133.000000	31.859800
2132.000000	32.076810
2131.000000	32.197428
2130.000000	32.217869
2129.000000	32.308625
2128.000000	32.433774
2127.000000	32.248345
2126.000000	32.385767
2125.000000	32.367849
2124.000000	32.498136
2123.000000	32.507264
2122.000000	32.526510
2121.000000	32.523678
2120.000000	32.487339
2119.000000	32.600781
2118.000000	32.687768
2117.000000	32.642421
2116.000000	32.657849
2115.000000	32.749203
2114.000000	32.809841
2113.000000	32.866473
2112.000000	32.835518
2111.000000	32.721787
2110.000000	32.710536
2109.000000	32.874334
2108.000000	32.840204
2107.000000	32.890511
2106.000000	32.940794
2105.000000	32.823523
2104.000000	32.836834
2103.000000	32.794258
2102.000000	32.833858
2101.000000	32.834526
2100.000000	32.908134
2099.000000	32.855666
2098.000000	32.824960
2097.000000	32.775465
2096.000000	32.884936
2095.000000	32.875965
2094.000000	32.861086
2093.000000	32.813855
2092.000000	32.850737
2091.000000	32.786090
2090.000000	32.821022
2089.000000	32.696283
2088.000000	32.770136
2087.000000	32.778998
2086.000000	32.798402
2085.000000	32.765587
2084.000000	32.689343
2083.000000	32.630240
2082.000000	32.521051
2081.000000	32.483484
2080.000000	32.416679
2079.000000	32.327349
2078.000000	32.225834
2077.000000	32.281315
2076.000000	32.153581
2075.000000	32.122095
2074.000000	32.056941
2073.000000	31.983515
2072.000000	31.869463
2071.000000	31.838297
2070.000000	31.768039
2069.000000	31.584089
2068.000000	31.530244
2067.000000	31.464185
2066.000000	31.302940
2065.000000	31.173302
2064.000000	31.109135
2063.000000	31.045733
2062.000000	30.922277
2061.000000	30.774863
2060.000000	30.624849
2059.000000	30.499372
2058.000000	30.469190
2057.000000	30.385892
2056.000000	30.270675
2055.000000	30.154346
2054.000000	30.107094
2053.000000	29.973563
2052.000000	29.882965
2051.000000	29.768326
2050.000000	29.752186
2049.000000	29.744537
2048.000000	29.666436
2047.000000	29.657930
2046.000000	29.591936
2045.000000	29.524262
2044.000000	29.495431
2043.000000	29.524577
2042.000000	29.525227
2041.000000	29.508407
2040.000000	29.534646
2039.000000	29.496581
2038.000000	29.509071
2037.000000	29.601312
2036.000000	29.668219
2035.000000	29.700453
2034.000000	29.703934
2033.000000	29.741864
2032.000000	29.842745
2031.000000	29.943387
2030.000000	30.001428
2029.000000	30.064025
2028.000000	30.129275
2027.000000	30.217699
2026.000000	30.304092
2025.000000	30.351851
2024.000000	30.400498
2023.000000	30.452675
2022.000000	30.448437
2021.000000	30.478826
2020.000000	30.536234
2019.000000	30.533145
2018.000000	30.565501
2017.000000	30.571077
2016.000000	30.500891
2015.000000	30.517210
2014.000000	30.529234
2013.000000	30.494620
2012.000000	30.463861
2011.000000	30.424263
2010.000000	30.368179
2009.000000	30.285841
2008.000000	30.271368
2007.000000	30.233032
2006.000000	30.129697
2005.000000	30.052890
2004.000000	29.996775
2003.000000	29.921953
2002.000000	29.826641
2001.000000	29.757765
2000.000000	29.701152
1999.000000	29.638061
1998.000000	29.581889
1997.000000	29.515362
1996.000000	29.467305
1995.000000	29.397635
1994.000000	29.291718
1993.000000	29.217050
1992.000000	29.121750
1991.000000	29.025913
1990.000000	28.959516
1989.000000	28.859071
1988.000000	28.800576
1987.000000	28.775098
1986.000000	28.675575
1985.000000	28.583750
1984.000000	28.558729
1983.000000	28.472783
1982.000000	28.363726
1981.000000	28.313165
1980.000000	28.260750
1979.000000	28.167289
1978.000000	28.117430
1977.000000	28.026640
1976.000000	27.938096
1975.000000	27.901479
1974.000000	27.822290
1973.000000	27.751459
1972.000000	27.727068
1971.000000	27.645965
1970.000000	27.630117
1969.000000	27.503742
1968.000000	27.424010
1967.000000	27.398285
1966.000000	27.361278
1965.000000	27.328064
1964.000000	27.220199
1963.000000	27.160510
1962.000000	27.107780
1961.000000	27.057583
1960.000000	27.033039
1959.000000	26.958702
1958.000000	26.920108
1957.000000	26.885669
1956.000000	26.850651
1955.000000	26.814416
1954.000000	26.798346
1953.000000	26.741654
1952.000000	26.702227
1951.000000	26.678788
1950.000000	26.681399
1949.000000	26.645887
1948.000000	26.618610
1947.000000	26.654694
1946.000000	26.673193
1945.000000	26.677042
1944.000000	26.628139
1943.000000	26.667504
1942.000000	26.716368
1941.000000	26.776170
1940.000000	26.775003
1939.000000	26.796053
1938.000000	26.866352
1937.000000	26.939625
1936.000000	27.003841
1935.000000	27.092924
1934.000000	27.159745
1933.000000	27.265496
1932.000000	27.357131
1931.000000	27.471837
1930.000000	27.542386
1929.000000	27.703451
1928.000000	27.817425
1927.000000	28.009556
1926.000000	28.066426
1925.000000	28.218654
1924.000000	28.451056
1923.000000	28.627304
1922.000000	28.800391
1921.000000	29.045808
1920.000000	29.192121
1919.000000	29.451029
1918.000000	29.711236
1917.000000	29.929138
1916.000000	30.049685
1915.000000	30.433704
1914.000000	30.685963
1913.000000	31.033236
1912.000000	31.277522
1911.000000	31.505883
1910.000000	31.836360
1909.000000	32.184772
1908.000000	32.466244
1907.000000	32.839146
1906.000000	33.112027
1905.000000	33.519327
1904.000000	33.887403
1903.000000	34.264623
1902.000000	34.611792
1901.000000	35.012680
1900.000000	35.422519
1899.000000	35.826266
1898.000000	36.209506
1897.000000	36.606720
1896.000000	37.001783
1895.000000	37.429395
1894.000000	37.823427
1893.000000	38.182844
1892.000000	38.662381
1891.000000	39.003713
1890.000000	39.321613
1889.000000	39.714536
1888.000000	40.058853
1887.000000	40.438147
1886.000000	40.793340
1885.000000	41.152811
1884.000000	41.442971
1883.000000	41.743454
1882.000000	42.021467
1881.000000	42.292182
1880.000000	42.585664
1879.000000	42.855756
1878.000000	43.132135
1877.000000	43.394605
1876.000000	43.645865
1875.000000	43.894635
1874.000000	44.126142
1873.000000	44.302406
1872.000000	44.445792
1871.000000	44.648368
1870.000000	44.850506
1869.000000	44.938042
1868.000000	45.100314
1867.000000	45.212480
1866.000000	45.280225
1865.000000	45.397518
1864.000000	45.441461
1863.000000	45.544575
1862.000000	45.602973
1861.000000	45.685299
1860.000000	45.730672
1859.000000	45.768853
1858.000000	45.778552
1857.000000	45.882598
1856.000000	45.911889
1855.000000	45.942291
1854.000000	45.984846
1853.000000	45.991712
1852.000000	46.026829
1851.000000	46.051665
1850.000000	46.054373
1849.000000	46.048723
1848.000000	46.021081
1847.000000	46.051621
1846.000000	46.015730
1845.000000	46.024362
1844.000000	46.009990
1843.000000	45.973334
1842.000000	45.984913
1841.000000	45.954395
1840.000000	45.912339
1839.000000	45.888019
1838.000000	45.839903
1837.000000	45.806380
1836.000000	45.768207
1835.000000	45.761710
1834.000000	45.683457
1833.000000	45.628483
1832.000000	45.582560
1831.000000	45.553872
1830.000000	45.558900
1829.000000	45.492308
1828.000000	45.466086
1827.000000	45.457631
1826.000000	45.406897
1825.000000	45.365184
1824.000000	45.350445
1823.000000	45.315278
1822.000000	45.248297
1821.000000	45.225488
1820.000000	45.194922
1819.000000	45.164806
1818.000000	45.150200
1817.000000	45.096826
1816.000000	45.060975
1815.000000	45.041904
1814.000000	44.992763
1813.000000	44.964401
1812.000000	44.951492
1811.000000	44.920791
1810.000000	44.896674
1809.000000	44.871549
1808.000000	44.841179
1807.000000	44.806716
1806.000000	44.786090
1805.000000	44.767576
1804.000000	44.727787
1803.000000	44.695723
1802.000000	44.675634
1801.000000	44.650707
1800.000000	44.627984
1799.000000	44.602563
1798.000000	44.612197
1797.000000	44.608611
1796.000000	44.563284
1795.000000	44.548545
1794.000000	44.547333
1793.000000	44.517874
1792.000000	44.502385
1791.000000	44.503150
1790.000000	44.464593
1789.000000	44.451134
1788.000000	44.461887
1787.000000	44.439525
1786.000000	44.408888
1785.000000	44.397981
1784.000000	44.397605
1783.000000	44.376327
1782.000000	44.344754
1781.000000	44.311101
1780.000000	44.273589
1779.000000	44.247759
1778.000000	44.210881
1777.000000	44.162373
1776.000000	44.146506
1775.000000	44.121219
1774.000000	44.047491
1773.000000	44.013264
1772.000000	43.966454
1771.000000	43.934770
1770.000000	43.892718
1769.000000	43.834800
1768.000000	43.780666
1767.000000	43.755393
1766.000000	43.728995
1765.000000	43.685057
1764.000000	43.646696
1763.000000	43.566169
1762.000000	43.514776
1761.000000	43.517133
1760.000000	43.443275
1759.000000	43.402295
1758.000000	43.373597
1757.000000	43.330751
1756.000000	43.301910
1755.000000	43.236055
1754.000000	43.183959
1753.000000	43.152152
1752.000000	43.112999
1751.000000	43.053193
1750.000000	43.017065
1749.000000	42.989190
1748.000000	42.957080
1747.000000	42.879570
1746.000000	42.814755
1745.000000	42.771183
1744.000000	42.730320
1743.000000	42.708655
1742.000000	42.651650
1741.000000	42.587886
1740.000000	42.559220
1739.000000	42.535712
1738.000000	42.494428
1737.000000	42.476381
1736.000000	42.423809
1735.000000	42.407657
1734.000000	42.445535
1733.000000	42.423581
1732.000000	42.396478
1731.000000	42.414753
1730.000000	42.424605
1729.000000	42.453632
1728.000000	42.525440
1727.000000	42.548340
1726.000000	42.617145
1725.000000	42.654439
1724.000000	42.716774
1723.000000	42.809987
1722.000000	42.892146
1721.000000	42.935918
1720.000000	43.034788
1719.000000	43.157156
1718.000000	43.221611
1717.000000	43.306059
1716.000000	43.374153
1715.000000	43.452477
1714.000000	43.511863
1713.000000	43.601208
1712.000000	43.688668
1711.000000	43.743213
1710.000000	43.805326
1709.000000	43.846098
1708.000000	43.895158
1707.000000	43.950112
1706.000000	43.982693
1705.000000	43.987302
1704.000000	44.032668
1703.000000	44.054056
1702.000000	44.034656
1701.000000	44.049900
1700.000000	44.090176
1699.000000	44.084065
1698.000000	44.149691
1697.000000	44.132684
1696.000000	44.173868
1695.000000	44.211177
1694.000000	44.253534
1693.000000	44.297345
1692.000000	44.325702
1691.000000	44.382722
1690.000000	44.451087
1689.000000	44.545086
1688.000000	44.635356
1687.000000	44.729322
1686.000000	44.839526
1685.000000	44.963413
1684.000000	45.096919
1683.000000	45.209145
1682.000000	45.364555
1681.000000	45.492054
1680.000000	45.670350
1679.000000	45.791270
1678.000000	45.969577
1677.000000	46.117124
1676.000000	46.266321
1675.000000	46.437738
1674.000000	46.581446
1673.000000	46.738290
1672.000000	46.855155
1671.000000	47.028680
1670.000000	47.165429
1669.000000	47.309749
1668.000000	47.439380
1667.000000	47.571533
1666.000000	47.616541
1665.000000	47.702260
1664.000000	47.808312
1663.000000	47.875417
1662.000000	47.952151
1661.000000	48.014188
1660.000000	48.103351
1659.000000	48.166714
1658.000000	48.195418
1657.000000	48.211385
1656.000000	48.259376
1655.000000	48.296948
1654.000000	48.309214
1653.000000	48.333619
1652.000000	48.360127
1651.000000	48.333386
1650.000000	48.356865
1649.000000	48.338913
1648.000000	48.319667
1647.000000	48.319072
1646.000000	48.299106
1645.000000	48.281731
1644.000000	48.270433
1643.000000	48.252631
1642.000000	48.233977
1641.000000	48.214943
1640.000000	48.177212
1639.000000	48.138465
1638.000000	48.122165
1637.000000	48.100937
1636.000000	48.063223
1635.000000	48.032012
1634.000000	47.991698
1633.000000	47.945720
1632.000000	47.911544
1631.000000	47.873838
1630.000000	47.828420
1629.000000	47.796542
1628.000000	47.757201
1627.000000	47.706437
1626.000000	47.659151
1625.000000	47.620946
1624.000000	47.567715
1623.000000	47.528429
1622.000000	47.505257
1621.000000	47.435752
1620.000000	47.385140
1619.000000	47.338907
1618.000000	47.292592
1617.000000	47.261136
1616.000000	47.207111
1615.000000	47.137193
1614.000000	47.084780
1613.000000	47.044229
1612.000000	46.988324
1611.000000	46.927566
1610.000000	46.880226
1609.000000	46.826401
1608.000000	46.755224
1607.000000	46.692489
1606.000000	46.651695
1605.000000	46.592432
1604.000000	46.524425
1603.000000	46.469200
1602.000000	46.424573
1601.000000	46.372239
1600.000000	46.312791
1599.000000	46.252557
1598.000000	46.197907
1597.000000	46.151857
1596.000000	46.094160
1595.000000	46.032588
1594.000000	46.003211
1593.000000	45.954040
1592.000000	45.885129
1591.000000	45.837563
1590.000000	45.803431
1589.000000	45.749882
1588.000000	45.697207
1587.000000	45.662279
1586.000000	45.628654
1585.000000	45.584259
1584.000000	45.533521
1583.000000	45.484195
1582.000000	45.449798
1581.000000	45.413057
1580.000000	45.364550
1579.000000	45.311316
1578.000000	45.274961
1577.000000	45.243675
1576.000000	45.206266
1575.000000	45.160152
1574.000000	45.103441
1573.000000	45.064026
1572.000000	45.032657
1571.000000	44.982985
1570.000000	44.938408
1569.000000	44.905483
1568.000000	44.873285
1567.000000	44.846020
1566.000000	44.813427
1565.000000	44.773639
1564.000000	44.735540
1563.000000	44.707744
1562.000000	44.678946
1561.000000	44.666680
1560.000000	44.640639
1559.000000	44.610379
1558.000000	44.601237
1557.000000	44.584309
1556.000000	44.557181
1555.000000	44.524380
1554.000000	44.492780
1553.000000	44.457566
1552.000000	44.449063
1551.000000	44.421069
1550.000000	44.367938
1549.000000	44.326829
1548.000000	44.301888
1547.000000	44.252189
1546.000000	44.191243
1545.000000	44.137523
1544.000000	44.075780
1543.000000	44.010543
1542.000000	43.945264
1541.000000	43.870214
1540.000000	43.811894
1539.000000	43.733572
1538.000000	43.649254
1537.000000	43.571932
1536.000000	43.507045
1535.000000	43.437895
1534.000000	43.352501
1533.000000	43.284856
1532.000000	43.200506
1531.000000	43.152061
1530.000000	43.076397
1529.000000	42.987221
1528.000000	42.930803
1527.000000	42.880810
1526.000000	42.825783
1525.000000	42.757727
1524.000000	42.714991
1523.000000	42.696001
1522.000000	42.638871
1521.000000	42.586525
1520.000000	42.544444
1519.000000	42.526275
1518.000000	42.486500
1517.000000	42.434789
1516.000000	42.406737
1515.000000	42.372057
1514.000000	42.362348
1513.000000	42.337243
1512.000000	42.344411
1511.000000	42.373287
1510.000000	42.399259
1509.000000	42.403641
1508.000000	42.353751
1507.000000	42.314665
1506.000000	42.293134
1505.000000	42.269710
1504.000000	42.259252
1503.000000	42.241137
1502.000000	42.233672
1501.000000	42.232131
1500.000000	42.213429
1499.000000	42.211981
1498.000000	42.218984
1497.000000	42.213081
1496.000000	42.219895
1495.000000	42.219600
1494.000000	42.233617
1493.000000	42.245096
1492.000000	42.273687
1491.000000	42.299064
1490.000000	42.320326
1489.000000	42.351450
1488.000000	42.367384
1487.000000	42.419837
1486.000000	42.442524
1485.000000	42.466700
1484.000000	42.500945
1483.000000	42.552801
1482.000000	42.579883
1481.000000	42.625194
1480.000000	42.660168
1479.000000	42.703989
1478.000000	42.732978
1477.000000	42.755007
1476.000000	42.806036
1475.000000	42.854189
1474.000000	42.890787
1473.000000	42.913841
1472.000000	42.977558
1471.000000	42.996587
1470.000000	43.027357
1469.000000	43.051286
1468.000000	43.101910
1467.000000	43.146517
1466.000000	43.198644
1465.000000	43.242758
1464.000000	43.283467
1463.000000	43.308060
1462.000000	43.367370
1461.000000	43.434061
1460.000000	43.472908
1459.000000	43.509335
1458.000000	43.531387
1457.000000	43.589151
1456.000000	43.665551
1455.000000	43.700698
1454.000000	43.730293
1453.000000	43.791641
1452.000000	43.866211
1451.000000	43.940957
1450.000000	43.991263
1449.000000	44.044183
1448.000000	44.110266
1447.000000	44.204644
1446.000000	44.268395
1445.000000	44.337377
1444.000000	44.404540
1443.000000	44.476945
1442.000000	44.552698
1441.000000	44.639841
1440.000000	44.707910
1439.000000	44.815916
1438.000000	44.920865
1437.000000	45.008960
1436.000000	45.103189
1435.000000	45.201513
1434.000000	45.295087
1433.000000	45.393334
1432.000000	45.509646
1431.000000	45.634653
1430.000000	45.741140
1429.000000	45.860705
1428.000000	45.995139
1427.000000	46.128199
1426.000000	46.247361
1425.000000	46.401452
1424.000000	46.551560
1423.000000	46.703175
1422.000000	46.856588
1421.000000	47.001105
1420.000000	47.149114
1419.000000	47.331357
1418.000000	47.484488
1417.000000	47.651862
1416.000000	47.835900
1415.000000	48.020443
1414.000000	48.205315
1413.000000	48.388845
1412.000000	48.562923
1411.000000	48.752788
1410.000000	48.934419
1409.000000	49.119278
1408.000000	49.308832
1407.000000	49.495206
1406.000000	49.675956
1405.000000	49.858296
1404.000000	50.026269
1403.000000	50.197095
1402.000000	50.370165
1401.000000	50.556551
1400.000000	50.738145
1399.000000	50.904152
1398.000000	51.064373
1397.000000	51.232689
1396.000000	51.385434
1395.000000	51.533356
1394.000000	51.679711
1393.000000	51.837047
1392.000000	51.984427
1391.000000	52.113725
1390.000000	52.246301
1389.000000	52.382827
1388.000000	52.502460
1387.000000	52.626055
1386.000000	52.759051
1385.000000	52.878616
1384.000000	52.982975
1383.000000	53.074556
1382.000000	53.172117
1381.000000	53.270198
1380.000000	53.356276
1379.000000	53.425206
1378.000000	53.499195
1377.000000	53.573858
1376.000000	53.625820
1375.000000	53.680233
1374.000000	53.753352
1373.000000	53.825241
1372.000000	53.876413
1371.000000	53.917451
1370.000000	53.963393
1369.000000	54.008822
1368.000000	54.063207
1367.000000	54.116197
1366.000000	54.169230
1365.000000	54.244098
1364.000000	54.304402
1363.000000	54.355602
1362.000000	54.405342
1361.000000	54.448765
1360.000000	54.492689
1359.000000	54.543620
1358.000000	54.601087
1357.000000	54.682330
1356.000000	54.752381
1355.000000	54.813689
1354.000000	54.830299
1353.000000	54.868948
1352.000000	54.957824
1351.000000	55.031351
1350.000000	55.078167
1349.000000	55.118948
1348.000000	55.170949
1347.000000	55.236951
1346.000000	55.293066
1345.000000	55.350180
1344.000000	55.410390
1343.000000	55.449000
1342.000000	55.508288
1341.000000	55.552432
1340.000000	55.595164
1339.000000	55.643545
1338.000000	55.709852
1337.000000	55.740405
1336.000000	55.792571
1335.000000	55.841039
1334.000000	55.873961
1333.000000	55.908653
1332.000000	55.927255
1331.000000	55.963561
1330.000000	56.007104
1329.000000	56.043264
1328.000000	56.063024
1327.000000	56.097864
1326.000000	56.124338
1325.000000	56.141847
1324.000000	56.142308
1323.000000	56.178395
1322.000000	56.201747
1321.000000	56.239455
1320.000000	56.227561
1319.000000	56.253982
1318.000000	56.260958
1317.000000	56.289867
1316.000000	56.321488
1315.000000	56.327775
1314.000000	56.329907
1313.000000	56.340819
1312.000000	56.354467
1311.000000	56.367197
1310.000000	56.422537
1309.000000	56.414093
1308.000000	56.403742
1307.000000	56.442113
1306.000000	56.448968
1305.000000	56.444901
1304.000000	56.438037
1303.000000	56.484420
1302.000000	56.507014
1301.000000	56.492355
1300.000000	56.497025
1299.000000	56.504159
1298.000000	56.512167
1297.000000	56.507544
1296.000000	56.510729
1295.000000	56.518093
1294.000000	56.512410
1293.000000	56.506283
1292.000000	56.510392
1291.000000	56.503360
1290.000000	56.505850
1289.000000	56.527822
1288.000000	56.513981
1287.000000	56.499628
1286.000000	56.474058
1285.000000	56.483078
1284.000000	56.475673
1283.000000	56.494063
1282.000000	56.488523
1281.000000	56.481072
1280.000000	56.476901
1279.000000	56.495150
1278.000000	56.494654
1277.000000	56.509068
1276.000000	56.488991
1275.000000	56.496797
1274.000000	56.503602
1273.000000	56.511343
1272.000000	56.496055
1271.000000	56.505928
1270.000000	56.521111
1269.000000	56.510281
1268.000000	56.522732
1267.000000	56.516631
1266.000000	56.526219
1265.000000	56.522841
1264.000000	56.549885
1263.000000	56.536562
1262.000000	56.570071
1261.000000	56.590768
1260.000000	56.583675
1259.000000	56.591916
1258.000000	56.622570
1257.000000	56.589288
1256.000000	56.622153
1255.000000	56.619043
1254.000000	56.619713
1253.000000	56.627166
1252.000000	56.626422
1251.000000	56.628430
1250.000000	56.616901
1249.000000	56.607732
1248.000000	56.604418
1247.000000	56.613687
1246.000000	56.593137
1245.000000	56.594243
1244.000000	56.590921
1243.000000	56.577357
1242.000000	56.569265
1241.000000	56.538929
1240.000000	56.535944
1239.000000	56.497540
1238.000000	56.494705
1237.000000	56.458928
1236.000000	56.452308
1235.000000	56.425643
1234.000000	56.414239
1233.000000	56.368509
1232.000000	56.363479
1231.000000	56.336256
1230.000000	56.338713
1229.000000	56.323827
1228.000000	56.271245
1227.000000	56.274510
1226.000000	56.262769
1225.000000	56.244347
1224.000000	56.219908
1223.000000	56.212641
1222.000000	56.186082
1221.000000	56.176104
1220.000000	56.146605
1219.000000	56.136832
1218.000000	56.112642
1217.000000	56.086987
1216.000000	56.060624
1215.000000	56.026491
1214.000000	55.987291
1213.000000	55.963747
1212.000000	55.937522
1211.000000	55.916562
1210.000000	55.889823
1209.000000	55.872567
1208.000000	55.866288
1207.000000	55.817682
1206.000000	55.777252
1205.000000	55.749315
1204.000000	55.705204
1203.000000	55.685456
1202.000000	55.642168
1201.000000	55.625895
1200.000000	55.580517
1199.000000	55.567599
1198.000000	55.550250
1197.000000	55.518465
1196.000000	55.486305
1195.000000	55.458958
1194.000000	55.432875
1193.000000	55.430171
1192.000000	55.412719
1191.000000	55.387895
1190.000000	55.368341
1189.000000	55.326061
1188.000000	55.331315
1187.000000	55.356265
1186.000000	55.339850
1185.000000	55.339069
1184.000000	55.358432
1183.000000	55.376973
1182.000000	55.401148
1181.000000	55.422582
1180.000000	55.446459
1179.000000	55.477135
1178.000000	55.514811
1177.000000	55.553744
1176.000000	55.591727
1175.000000	55.642449
1174.000000	55.691227
1173.000000	55.740373
1172.000000	55.799098
1171.000000	55.859020
1170.000000	55.927270
1169.000000	55.994146
1168.000000	56.049496
1167.000000	56.115307
1166.000000	56.184659
1165.000000	56.242517
1164.000000	56.320793
1163.000000	56.398882
1162.000000	56.460774
1161.000000	56.522670
1160.000000	56.584926
1159.000000	56.652786
1158.000000	56.730240
1157.000000	56.795873
1156.000000	56.855863
1155.000000	56.905203
1154.000000	56.945810
1153.000000	57.012334
1152.000000	57.071758
1151.000000	57.116384
1150.000000	57.175391
1149.000000	57.233796
1148.000000	57.278472
1147.000000	57.316702
1146.000000	57.366031
1145.000000	57.408249
1144.000000	57.447812
1143.000000	57.482021
1142.000000	57.532502
1141.000000	57.583364
1140.000000	57.622495
1139.000000	57.659337
1138.000000	57.701810
1137.000000	57.730152
1136.000000	57.752623
1135.000000	57.795262
1134.000000	57.840011
1133.000000	57.867240
1132.000000	57.895206
1131.000000	57.925074
1130.000000	57.961377
1129.000000	57.987987
1128.000000	58.015318
1127.000000	58.035914
1126.000000	58.067634
1125.000000	58.092167
1124.000000	58.098770
1123.000000	58.097586
1122.000000	58.098717
1121.000000	58.120872
1120.000000	58.146381
1119.000000	58.150992
1118.000000	58.150612
1117.000000	58.162199
1116.000000	58.170083
1115.000000	58.190085
1114.000000	58.188062
1113.000000	58.203540
1112.000000	58.201651
1111.000000	58.209837
1110.000000	58.226018
1109.000000	58.241718
1108.000000	58.229057
1107.000000	58.224894
1106.000000	58.237399
1105.000000	58.243996
1104.000000	58.246599
1103.000000	58.262763
1102.000000	58.260919
1101.000000	58.236261
1100.000000	58.235291
1099.000000	58.244338
1098.000000	58.253099
1097.000000	58.263788
1096.000000	58.270161
1095.000000	58.273170
1094.000000	58.278827
1093.000000	58.261040
1092.000000	58.262663
1091.000000	58.268383
1090.000000	58.266041
1089.000000	58.276628
1088.000000	58.280970
1087.000000	58.280845
1086.000000	58.257266
1085.000000	58.269331
1084.000000	58.256574
1083.000000	58.275630
1082.000000	58.271303
1081.000000	58.287335
1080.000000	58.262494
1079.000000	58.239123
1078.000000	58.245449
1077.000000	58.239471
1076.000000	58.255881
1075.000000	58.262644
1074.000000	58.264183
1073.000000	58.266147
1072.000000	58.249661
1071.000000	58.232784
1070.000000	58.234452
1069.000000	58.230157
1068.000000	58.232990
1067.000000	58.203954
1066.000000	58.234841
1065.000000	58.241935
1064.000000	58.188814
1063.000000	58.208133
1062.000000	58.205333
1061.000000	58.198214
1060.000000	58.194590
1059.000000	58.177009
1058.000000	58.166840
1057.000000	58.165719
1056.000000	58.181444
1055.000000	58.163174
1054.000000	58.176091
1053.000000	58.179265
1052.000000	58.137621
1051.000000	58.129137
1050.000000	58.154740
1049.000000	58.158082
1048.000000	58.129234
1047.000000	58.132529
1046.000000	58.109796
1045.000000	58.099241
1044.000000	58.123939
1043.000000	58.108795
1042.000000	58.095845
1041.000000	58.111035
1040.000000	58.130878
1039.000000	58.097632
1038.000000	58.104024
1037.000000	58.102954
1036.000000	58.096412
1035.000000	58.102510
1034.000000	58.098464
1033.000000	58.106482
1032.000000	58.100247
1031.000000	58.077246
1030.000000	58.104492
1029.000000	58.086886
1028.000000	58.103040
1027.000000	58.098497
1026.000000	58.103091
1025.000000	58.107252
1024.000000	58.093223
1023.000000	58.094228
1022.000000	58.098288
1021.000000	58.115262
1020.000000	58.108597
1019.000000	58.121955
1018.000000	58.122421
1017.000000	58.130439
1016.000000	58.118348
1015.000000	58.102329
1014.000000	58.121071
1013.000000	58.121924
1012.000000	58.125864
1011.000000	58.133540
1010.000000	58.123126
1009.000000	58.114370
1008.000000	58.111581
1007.000000	58.136608
1006.000000	58.148109
1005.000000	58.159282
1004.000000	58.141558
1003.000000	58.127737
1002.000000	58.160832
1001.000000	58.170240
1000.000000	58.167644
999.000000	58.159428
998.000000	58.179602
997.000000	58.169334
996.000000	58.184635
995.000000	58.201496
994.000000	58.211812
993.000000	58.228460
992.000000	58.231328
991.000000	58.238596
990.000000	58.245192
989.000000	58.237165
988.000000	58.239230
987.000000	58.253625
986.000000	58.263610
985.000000	58.270250
984.000000	58.278531
983.000000	58.283934
982.000000	58.303276
981.000000	58.304037
980.000000	58.307496
979.000000	58.308153
978.000000	58.326425
977.000000	58.341027
976.000000	58.329765
975.000000	58.335277
974.000000	58.342156
973.000000	58.348323
972.000000	58.346680
971.000000	58.345037
970.000000	58.356505
969.000000	58.361892
968.000000	58.368509
967.000000	58.367297
966.000000	58.386868
965.000000	58.401926
964.000000	58.396898
963.000000	58.394497
962.000000	58.412419
961.000000	58.411655
960.000000	58.433387
959.000000	58.456025
958.000000	58.450627
957.000000	58.453049
956.000000	58.450113
955.000000	58.452681
954.000000	58.468416
953.000000	58.470564
952.000000	58.476669
951.000000	58.467856
950.000000	58.469703
949.000000	58.517144
948.000000	58.535927
947.000000	58.510708
946.000000	58.516180
945.000000	58.526655
944.000000	58.525691
943.000000	58.525055
942.000000	58.525578
941.000000	58.515935
940.000000	58.514281
939.000000	58.534091
938.000000	58.541602
937.000000	58.504261
936.000000	58.490031
935.000000	58.508252
934.000000	58.509632
933.000000	58.511233
932.000000	58.511480
931.000000	58.512168
930.000000	58.511028
929.000000	58.496595
928.000000	58.489511
927.000000	58.504264
926.000000	58.504136
925.000000	58.508903
924.000000	58.510713
923.000000	58.496976
922.000000	58.495127
921.000000	58.519634
920.000000	58.517819
919.000000	58.513024
918.000000	58.522990
917.000000	58.538285
916.000000	58.524751
915.000000	58.506287
914.000000	58.514349
913.000000	58.513216
912.000000	58.543754
911.000000	58.551403
910.000000	58.562240
909.000000	58.550734
908.000000	58.526734
907.000000	58.507304
906.000000	58.501833
905.000000	58.523602
904.000000	58.549620
903.000000	58.555443
902.000000	58.585356
901.000000	58.563393
900.000000	58.536925
899.000000	58.550436
898.000000	58.579824
897.000000	58.603429
896.000000	58.605264
895.000000	58.583144
894.000000	58.607228
893.000000	58.594370
892.000000	58.593591
891.000000	58.582057
890.000000	58.579412
889.000000	58.625305
888.000000	58.667243
887.000000	58.674316
886.000000	58.755347
885.000000	58.677064
884.000000	58.728029
883.000000	58.690492
882.000000	58.687648
881.000000	58.662566
880.000000	58.693949
879.000000	58.754219
878.000000	58.616452
877.000000	58.637539
876.000000	58.686140
875.000000	58.719545
874.000000	58.784088
873.000000	58.724200
872.000000	58.714894
871.000000	58.691949
870.000000	58.743131
869.000000	58.742414
868.000000	58.732984
867.000000	58.748182
866.000000	58.765604
865.000000	58.650241
864.000000	58.692186
863.000000	58.658912
862.000000	58.585013
861.000000	58.731980
860.000000	58.629816
859.000000	58.096108
858.000000	57.987368
857.000000	57.745170
856.000000	58.286134
855.000000	58.357700
854.000000	58.066274
853.000000	57.976780
852.000000	58.125896
851.000000	58.313337
850.000000	58.020051
849.000000	58.032538
848.000000	58.080433
847.000000	58.175223
846.000000	58.359073
845.000000	58.036463
844.000000	58.028897
843.000000	57.887777
842.000000	58.333378
841.000000	58.239309
840.000000	58.186455
839.000000	57.991258
838.000000	58.145745
837.000000	58.172804
836.000000	58.184144
835.000000	58.241386
834.000000	58.091492
833.000000	57.857002
832.000000	58.087159
831.000000	58.249981
830.000000	58.136052
829.000000	58.323238
828.000000	58.108777
827.000000	57.876434
826.000000	58.128381
825.000000	58.081000
824.000000	58.170174
823.000000	58.064075
822.000000	58.123374
821.000000	57.989415
820.000000	58.126948
819.000000	58.062495
818.000000	58.097079
817.000000	58.057388
816.000000	58.123490
815.000000	58.164826
814.000000	58.132366
813.000000	58.099048
812.000000	58.045622
811.000000	58.113636
810.000000	58.115180
809.000000	58.103866
808.000000	58.087700
807.000000	58.092260
806.000000	57.977937
805.000000	58.138475
804.000000	58.057991
803.000000	58.038157
802.000000	57.987954
801.000000	58.079642
800.000000	58.087304
799.000000	58.037080
798.000000	58.070142
797.000000	57.979623
796.000000	57.999390
795.000000	58.065366
794.000000	58.140886
793.000000	58.065555
792.000000	58.008310
791.000000	58.092579
790.000000	58.107235
789.000000	57.999163
788.000000	57.994748
787.000000	58.034543
786.000000	57.968179
785.000000	58.057175
784.000000	58.067477
783.000000	58.098127
782.000000	58.049992
781.000000	57.983834
780.000000	57.991160
779.000000	58.051309
778.000000	57.984832
777.000000	57.981771
776.000000	58.027759
775.000000	57.945956
774.000000	57.997140
773.000000	58.073536
772.000000	58.007447
771.000000	58.015192
770.000000	58.042088
769.000000	58.035211
768.000000	58.116526
767.000000	58.123807
766.000000	57.973469
765.000000	57.975867
764.000000	57.987039
763.000000	57.999177
762.000000	57.975664
761.000000	57.930406
760.000000	57.892710
759.000000	57.920222
758.000000	58.007552
757.000000	57.928633
756.000000	57.865407
755.000000	57.940690
754.000000	57.858962
753.000000	57.856825
752.000000	57.878430
751.000000	57.868724
750.000000	57.877756
749.000000	57.884847
748.000000	57.848037
747.000000	57.841255
746.000000	57.830311
745.000000	57.873948
744.000000	57.882995
743.000000	57.892575
742.000000	57.851239
741.000000	57.796335
740.000000	57.788322
739.000000	57.873926
738.000000	57.817615
737.000000	57.809741
736.000000	57.755892
735.000000	57.756383
734.000000	57.764546
733.000000	57.790002
732.000000	57.794285
731.000000	57.739922
730.000000	57.798990
729.000000	57.799379
728.000000	57.781852
727.000000	57.722907
726.000000	57.674797
725.000000	57.681915
724.000000	57.693440
723.000000	57.760653
722.000000	57.744204
721.000000	57.737944
720.000000	57.656126
719.000000	57.620677
718.000000	57.666825
717.000000	57.673434
716.000000	57.663388
715.000000	57.646462
714.000000	57.618841
713.000000	57.599651
712.000000	57.661585
711.000000	57.672078
710.000000	57.611034
709.000000	57.618439
708.000000	57.603403
707.000000	57.562549
706.000000	57.560441
705.000000	57.542640
704.000000	57.587269
703.000000	57.630179
702.000000	57.612016
701.000000	57.585493
700.000000	57.585754
699.000000	57.577594
698.000000	57.538801
697.000000	57.533801
696.000000	57.533363
695.000000	57.522584
694.000000	57.529666
693.000000	57.519835
692.000000	57.529360
691.000000	57.519124
690.000000	57.523307
689.000000	57.529500
688.000000	57.496216
687.000000	57.447815
686.000000	57.447813
685.000000	57.427118
684.000000	57.421479
683.000000	57.442650
682.000000	57.440730
681.000000	57.451478
680.000000	57.378738
679.000000	57.368729
678.000000	57.417137
677.000000	57.435062
676.000000	57.379160
675.000000	57.408540
674.000000	57.378993
673.000000	57.340071
672.000000	57.371923
671.000000	57.317015
670.000000	57.327209
669.000000	57.339176
668.000000	57.329788
667.000000	57.318065
666.000000	57.304408
665.000000	57.285290
664.000000	57.281979
663.000000	57.327791
662.000000	57.303482
661.000000	57.299294
660.000000	57.295937
659.000000	57.233201
658.000000	57.256658
657.000000	57.281105
656.000000	57.237153
655.000000	57.231005
654.000000	57.259796
653.000000	57.274759
652.000000	57.184196
651.000000	57.211128
650.000000	57.206696
649.000000	57.219767
648.000000	57.149184
647.000000	57.165462
646.000000	57.162344
645.000000	57.165951
644.000000	57.108577
643.000000	57.146922
642.000000	57.147754
641.000000	57.097143
640.000000	57.139397
639.000000	57.094152
638.000000	57.072257
637.000000	57.144430
636.000000	57.145753
635.000000	57.092224
634.000000	57.034188
633.000000	57.053563
632.000000	57.017812
631.000000	57.014940
630.000000	56.944721
629.000000	56.986688
628.000000	57.005005
627.000000	56.962046
626.000000	56.987358
625.000000	56.979128
624.000000	56.996396
623.000000	56.984936
622.000000	56.901319
621.000000	56.949425
620.000000	56.882832
619.000000	56.880947
618.000000	56.878768
617.000000	56.948270
616.000000	56.854361
615.000000	56.816335
614.000000	56.828028
613.000000	56.803081
612.000000	56.789247
611.000000	56.749831
610.000000	56.776210
609.000000	56.726337
608.000000	56.733978
607.000000	56.730067
606.000000	56.715038
605.000000	56.672675
604.000000	56.687092
603.000000	56.668181
602.000000	56.690342
601.000000	56.628690
600.000000	56.658557
599.000000	56.666515
598.000000	56.630546
597.000000	56.585224
596.000000	56.610637
595.000000	56.600003
594.000000	56.552465
593.000000	56.584777
592.000000	56.517693
591.000000	56.489259
590.000000	56.488826
589.000000	56.497478
588.000000	56.470890
587.000000	56.484762
586.000000	56.442988
585.000000	56.446975
584.000000	56.429246
583.000000	56.394608
582.000000	56.411646
581.000000	56.397408
580.000000	56.358144
579.000000	56.412845
578.000000	56.293634
577.000000	56.302030
576.000000	56.322534
575.000000	56.289096
574.000000	56.305357
573.000000	56.272463
572.000000	56.237143
571.000000	56.242642
570.000000	56.210802
569.000000	56.145905
568.000000	56.153511
567.000000	56.187006
566.000000	56.089581
565.000000	56.140232
564.000000	56.066093
563.000000	56.057330
562.000000	56.101912
561.000000	56.002956
560.000000	55.978648
559.000000	55.986750
558.000000	55.947059
557.000000	55.984985
556.000000	55.912057
555.000000	55.849128
554.000000	55.860413
553.000000	55.875537
552.000000	55.800164
551.000000	55.782465
550.000000	55.817270
549.000000	55.774723
548.000000	55.741456
547.000000	55.741674
546.000000	55.692188
545.000000	55.716571
544.000000	55.697968
543.000000	55.634041
542.000000	55.621544
541.000000	55.596968
540.000000	55.565877
539.000000	55.542326
538.000000	55.519038
537.000000	55.486104
536.000000	55.465181
535.000000	55.442440
534.000000	55.423058
533.000000	55.426830
532.000000	55.357981
531.000000	55.343861
530.000000	55.271979
529.000000	55.272720
528.000000	55.260439
527.000000	55.225032
526.000000	55.205007
525.000000	55.175688
524.000000	55.122366
523.000000	55.144841
522.000000	55.099741
521.000000	55.066183
520.000000	55.019047
519.000000	55.021579
518.000000	54.964865
517.000000	54.936284
516.000000	54.894794
515.000000	54.878222
514.000000	54.857704
513.000000	54.821160
512.000000	54.772298
511.000000	54.760914
510.000000	54.729696
509.000000	54.722049
508.000000	54.663598
507.000000	54.599010
506.000000	54.573607
505.000000	54.610541
504.000000	54.520936
503.000000	54.475614
502.000000	54.452115
501.000000	54.393367
500.000000	54.350499
499.000000	54.262402
498.000000	54.253395
497.000000	54.222469
496.000000	54.155414
495.000000	54.111502
494.000000	54.061075
493.000000	53.984063
492.000000	53.942498
491.000000	53.979125
490.000000	53.922394
489.000000	53.879259
488.000000	53.833400
487.000000	53.740210
486.000000	53.686527
485.000000	53.604762
484.000000	53.617595
483.000000	53.612600
482.000000	53.515387
481.000000	53.455595
480.000000	53.400141
479.000000	53.378470
478.000000	53.349588
477.000000	53.281667
476.000000	53.210161
475.000000	53.179269
474.000000	53.093411
473.000000	53.038337
472.000000	52.996124
471.000000	52.927322
470.000000	52.895746
469.000000	52.848955
468.000000	52.789254
467.000000	52.711073
466.000000	52.656109
465.000000	52.593243
464.000000	52.516882
463.000000	52.473810
462.000000	52.430339
461.000000	52.369460
460.000000	52.328023
459.000000	52.209989
458.000000	52.117593
457.000000	52.066309
456.000000	51.981711
455.000000	51.906607
454.000000	51.818185
453.000000	51.763104
452.000000	51.716622
451.000000	51.623302
450.000000	51.535437
449.000000	51.488684
448.000000	51.385750
447.000000	51.249637
446.000000	51.216489
445.000000	51.161691
444.000000	51.061652
443.000000	50.973717
442.000000	50.875533
441.000000	50.806949
440.000000	50.720536
439.000000	50.646770
438.000000	50.603148
437.000000	50.456821
436.000000	50.363423
435.000000	50.345140
434.000000	50.228403
433.000000	50.127333
432.000000	50.029991
431.000000	49.967692
430.000000	49.858510
429.000000	49.723628
428.000000	49.669403
427.000000	49.570482
426.000000	49.475955
425.000000	49.405289
424.000000	49.251700
423.000000	49.194726
422.000000	49.074435
421.000000	49.015618
420.000000	48.925731
419.000000	48.858810
418.000000	48.739459
417.000000	48.653005
416.000000	48.577276
415.000000	48.496954
414.000000	48.385568
413.000000	48.316915
412.000000	48.223708
411.000000	48.120097
410.000000	48.062588
409.000000	47.976232
408.000000	47.901738
407.000000	47.876323
406.000000	47.792242
405.000000	47.724276
404.000000	47.668692
403.000000	47.556116
402.000000	47.517553
401.000000	47.415656
400.000000	47.326157
399.000000	47.238294
398.000000	47.221253
397.000000	47.131490
396.000000	47.048460
395.000000	46.968787
394.000000	46.834143
393.000000	46.737622
392.000000	46.712431
391.000000	46.671614
390.000000	46.567045
389.000000	46.417197
388.000000	46.294687
387.000000	46.259110
386.000000	46.147805
385.000000	46.052722
384.000000	45.956917
383.000000	45.804467
382.000000	45.715786
381.000000	45.665150
380.000000	45.575447
379.000000	45.363350
378.000000	45.142764
377.000000	45.014066
376.000000	44.898232
375.000000	45.087417
374.000000	44.870214
373.000000	44.829606
372.000000	44.609067
371.000000	44.503764
370.000000	44.394211
369.000000	44.270090
368.000000	44.268046
367.000000	44.003640
366.000000	43.847178
365.000000	43.840020
364.000000	43.722720
363.000000	43.740972
362.000000	43.438926
361.000000	43.490392
360.000000	43.254729
359.000000	43.304291
358.000000	43.138643
357.000000	43.048404
356.000000	42.931675
355.000000	42.866311
354.000000	42.745481
353.000000	42.751383
352.000000	42.549041
351.000000	42.351219
350.000000	42.323392
349.000000	42.245356
348.000000	42.078673
347.000000	42.116827
346.000000	41.825717
345.000000	41.827861
344.000000	41.771259
343.000000	41.730988
342.000000	41.385547
341.000000	41.460525
340.000000	41.228255
339.000000	41.024072
338.000000	41.027310
337.000000	40.934141
336.000000	40.791495
335.000000	40.535626
334.000000	40.449687
333.000000	40.366179
332.000000	40.200321
331.000000	40.145775
330.000000	39.961087
329.000000	40.025575
328.000000	39.866255
327.000000	39.896886
326.000000	39.679546
325.000000	39.684935
324.000000	39.504620
323.000000	39.679682
322.000000	39.445682
321.000000	39.244390
320.000000	39.175033
319.000000	38.987268
318.000000	39.055375
317.000000	39.038220
316.000000	39.077380
315.000000	38.920304
314.000000	38.867817
313.000000	38.752886
312.000000	38.697910
311.000000	38.728023
310.000000	38.604395
309.000000	38.437535
308.000000	38.469435
307.000000	38.330635
306.000000	38.073886
305.000000	38.055985
304.000000	37.999361
303.000000	37.965269
302.000000	37.710810
301.000000	37.701331
300.000000	37.556911
299.000000	37.269273
298.000000	36.900844
297.000000	36.453597
296.000000	36.130140
295.000000	35.599229
294.000000	35.125530
293.000000	34.334327
292.000000	33.459728
291.000000	32.370906
290.000000	31.455187
289.000000	30.453369
288.000000	29.676245
287.000000	29.256154
286.000000	28.661652
285.000000	28.332113
284.000000	28.185187
283.000000	28.158419
282.000000	28.183002
281.000000	28.123900
280.000000	28.150803
279.000000	28.182967
278.000000	28.356959
277.000000	28.568374
276.000000	28.885598
275.000000	29.192779
274.000000	29.448712
273.000000	29.732870
272.000000	30.068080
271.000000	30.216382
270.000000	30.338852
269.000000	30.452322
268.000000	30.655423
267.000000	31.060046
266.000000	31.325860
265.000000	31.587365
264.000000	31.899319
263.000000	32.265362
262.000000	32.529745
261.000000	32.814660
260.000000	32.974828
259.000000	33.285351
258.000000	33.592453
257.000000	33.954749
256.000000	34.271941
255.000000	34.405668
254.000000	34.358374
253.000000	34.299455
252.000000	34.216304
251.000000	33.998760
250.000000	33.667862
249.000000	33.017840
248.000000	32.219319
247.000000	31.200487
246.000000	29.926366
245.000000	28.592213
244.000000	27.108512
243.000000	25.581724
242.000000	23.991154
241.000000	22.565819
240.000000	21.151867
239.000000	19.936095
238.000000	18.860624
237.000000	17.867790
236.000000	16.981764
235.000000	16.323208
234.000000	15.750851
233.000000	15.132600
232.000000	14.520009
231.000000	14.004392
230.000000	13.504756
229.000000	13.010058
228.000000	12.588093
227.000000	12.228205
226.000000	11.911264
225.000000	11.627914
224.000000	11.410772
223.000000	11.246824
222.000000	11.145955
221.000000	11.042989
220.000000	10.960578
219.000000	10.935076
218.000000	10.990965
217.000000	11.083625
216.000000	11.147459
215.000000	11.236011
214.000000	11.360002
213.000000	11.437540
212.000000	11.564340
211.000000	11.856354
210.000000	12.024819
209.000000	12.141375
208.000000	12.388152
207.000000	12.762970
206.000000	13.089308
205.000000	13.376862
204.000000	13.778987
203.000000	14.180223
202.000000	14.642798
201.000000	14.987362
200.000000	15.366722
