PE UV       SUBTECH     SPECTRUM    ASCII       PEDS        4.00        
   -1
RTgVeauUK 32.Sample.asc
18/03/09
14:58:51.00
18/03/09
14:58:51.00
Administrator

200.000000
1
Lambda 750
750N8071901
PerkinElmer UV WinLab 6.0.4.0738 / 1.61.00 Lambda 900

0
0
3350/servo 860.8/2
0
0
UV/VIS
1
1
1
CommonBeamDepol,150mm sphere / downward view
0
0
0
0
Program
Program
3350/servo 860.8/2
3350/0.2 860.8/0.2
3350/0.2 860.8/0.2
0
1
 
 
 
0
 
860.8
319.2
860.8
Front
100
on
 
 
0
0
0
 
0
 
 
 
0
 
 
0
0
0
0
0
 
 
 
 
0
0


0
0
#HDR
-1
-1
#GR
nm
%R
1.0
0.0
2350.000000
-1.000000
2151
8
56.500204
11.989574
#DATA
2350.000000	23.397468
2349.000000	23.306020
2348.000000	23.463789
2347.000000	23.735231
2346.000000	23.613683
2345.000000	23.596081
2344.000000	23.410264
2343.000000	23.266422
2342.000000	23.501436
2341.000000	23.593301
2340.000000	23.481095
2339.000000	23.889186
2338.000000	23.868623
2337.000000	24.017631
2336.000000	24.002112
2335.000000	24.183393
2334.000000	24.133397
2333.000000	24.233318
2332.000000	24.231955
2331.000000	23.992187
2330.000000	24.111392
2329.000000	24.126980
2328.000000	24.005285
2327.000000	24.156794
2326.000000	24.040482
2325.000000	23.898482
2324.000000	23.967361
2323.000000	23.933472
2322.000000	23.736142
2321.000000	23.697408
2320.000000	23.920807
2319.000000	23.804373
2318.000000	24.052342
2317.000000	24.086030
2316.000000	23.873867
2315.000000	23.525327
2314.000000	23.720998
2313.000000	23.753200
2312.000000	23.640416
2311.000000	23.477757
2310.000000	23.561725
2309.000000	23.364436
2308.000000	23.364785
2307.000000	23.422413
2306.000000	23.293197
2305.000000	23.251336
2304.000000	23.311642
2303.000000	23.225086
2302.000000	23.354299
2301.000000	23.195962
2300.000000	23.058175
2299.000000	22.846611
2298.000000	22.798626
2297.000000	22.640985
2296.000000	22.841382
2295.000000	22.837723
2294.000000	22.764183
2293.000000	22.666387
2292.000000	22.546323
2291.000000	22.672218
2290.000000	22.556808
2289.000000	22.643845
2288.000000	22.655989
2287.000000	22.478558
2286.000000	22.547485
2285.000000	22.410198
2284.000000	22.249955
2283.000000	22.338337
2282.000000	22.243980
2281.000000	22.239169
2280.000000	22.349067
2279.000000	22.379239
2278.000000	22.289788
2277.000000	22.412520
2276.000000	22.355186
2275.000000	22.440583
2274.000000	22.623390
2273.000000	22.657009
2272.000000	22.539387
2271.000000	22.532352
2270.000000	22.525928
2269.000000	22.619197
2268.000000	22.707969
2267.000000	22.749929
2266.000000	22.856419
2265.000000	22.935328
2264.000000	22.862680
2263.000000	22.804028
2262.000000	22.889258
2261.000000	22.932095
2260.000000	23.122432
2259.000000	23.322881
2258.000000	23.421833
2257.000000	23.549525
2256.000000	23.459844
2255.000000	23.587919
2254.000000	23.820107
2253.000000	23.819195
2252.000000	23.972205
2251.000000	24.190082
2250.000000	24.305490
2249.000000	24.372976
2248.000000	24.539661
2247.000000	24.758623
2246.000000	24.836031
2245.000000	24.826710
2244.000000	24.935067
2243.000000	25.164686
2242.000000	25.304801
2241.000000	25.409240
2240.000000	25.468785
2239.000000	25.547785
2238.000000	25.545180
2237.000000	25.658763
2236.000000	25.757106
2235.000000	25.754290
2234.000000	25.824455
2233.000000	25.947831
2232.000000	26.058701
2231.000000	26.111605
2230.000000	26.134222
2229.000000	26.127085
2228.000000	26.264113
2227.000000	26.220593
2226.000000	26.121269
2225.000000	26.111404
2224.000000	26.206066
2223.000000	26.114718
2222.000000	26.114772
2221.000000	26.158073
2220.000000	26.164690
2219.000000	26.141578
2218.000000	26.152386
2217.000000	26.084882
2216.000000	26.042023
2215.000000	26.062061
2214.000000	26.038355
2213.000000	25.980591
2212.000000	25.890701
2211.000000	25.721107
2210.000000	25.622661
2209.000000	25.767308
2208.000000	25.712079
2207.000000	25.632233
2206.000000	25.601810
2205.000000	25.537437
2204.000000	25.619743
2203.000000	25.520594
2202.000000	25.455517
2201.000000	25.497918
2200.000000	25.507206
2199.000000	25.452705
2198.000000	25.494649
2197.000000	25.380605
2196.000000	25.251599
2195.000000	25.140273
2194.000000	25.159458
2193.000000	25.123816
2192.000000	24.980188
2191.000000	24.976796
2190.000000	25.042988
2189.000000	25.010334
2188.000000	25.022358
2187.000000	24.980525
2186.000000	24.957725
2185.000000	24.772679
2184.000000	24.907999
2183.000000	24.862160
2182.000000	24.911783
2181.000000	24.724632
2180.000000	24.658855
2179.000000	24.669801
2178.000000	24.702294
2177.000000	24.727290
2176.000000	24.708831
2175.000000	24.738354
2174.000000	24.799123
2173.000000	24.801839
2172.000000	24.769846
2171.000000	24.794986
2170.000000	24.910784
2169.000000	24.952295
2168.000000	25.154589
2167.000000	25.220318
2166.000000	25.184188
2165.000000	25.173390
2164.000000	25.235335
2163.000000	25.178076
2162.000000	25.353480
2161.000000	25.509352
2160.000000	25.647271
2159.000000	25.634342
2158.000000	25.635050
2157.000000	25.811887
2156.000000	26.010222
2155.000000	26.084528
2154.000000	26.120400
2153.000000	26.287986
2152.000000	26.267594
2151.000000	26.531582
2150.000000	26.590401
2149.000000	26.638953
2148.000000	26.747623
2147.000000	26.815236
2146.000000	26.970201
2145.000000	26.940320
2144.000000	27.206282
2143.000000	27.116918
2142.000000	27.347495
2141.000000	27.451065
2140.000000	27.568472
2139.000000	27.533669
2138.000000	27.705728
2137.000000	27.548052
2136.000000	27.788845
2135.000000	27.688375
2134.000000	27.920664
2133.000000	27.791229
2132.000000	28.012216
2131.000000	28.279068
2130.000000	28.204302
2129.000000	28.298581
2128.000000	28.065448
2127.000000	28.307635
2126.000000	28.241030
2125.000000	28.382523
2124.000000	28.439342
2123.000000	28.425596
2122.000000	28.436613
2121.000000	28.556724
2120.000000	28.349669
2119.000000	28.473776
2118.000000	28.547219
2117.000000	28.650323
2116.000000	28.607911
2115.000000	28.632200
2114.000000	28.669065
2113.000000	28.617939
2112.000000	28.664390
2111.000000	28.584886
2110.000000	28.713912
2109.000000	28.942625
2108.000000	28.790433
2107.000000	28.750471
2106.000000	28.816521
2105.000000	28.740921
2104.000000	28.729704
2103.000000	28.787694
2102.000000	28.711703
2101.000000	28.735821
2100.000000	28.817835
2099.000000	28.669418
2098.000000	28.816989
2097.000000	28.845641
2096.000000	28.851916
2095.000000	28.819548
2094.000000	28.824847
2093.000000	28.772046
2092.000000	28.735606
2091.000000	28.734460
2090.000000	28.678473
2089.000000	28.819539
2088.000000	28.726677
2087.000000	28.727550
2086.000000	28.723367
2085.000000	28.690944
2084.000000	28.720372
2083.000000	28.643634
2082.000000	28.608283
2081.000000	28.542529
2080.000000	28.460587
2079.000000	28.443043
2078.000000	28.311425
2077.000000	28.278011
2076.000000	28.225725
2075.000000	28.145349
2074.000000	28.147447
2073.000000	28.119387
2072.000000	27.947692
2071.000000	27.871948
2070.000000	27.827102
2069.000000	27.732518
2068.000000	27.694271
2067.000000	27.511812
2066.000000	27.465725
2065.000000	27.353557
2064.000000	27.237859
2063.000000	27.154831
2062.000000	27.075544
2061.000000	26.964697
2060.000000	26.877641
2059.000000	26.777091
2058.000000	26.700869
2057.000000	26.572598
2056.000000	26.498094
2055.000000	26.411383
2054.000000	26.337059
2053.000000	26.240668
2052.000000	26.166384
2051.000000	26.062657
2050.000000	25.950371
2049.000000	25.894771
2048.000000	25.810667
2047.000000	25.802757
2046.000000	25.747187
2045.000000	25.728762
2044.000000	25.694484
2043.000000	25.635300
2042.000000	25.646988
2041.000000	25.704122
2040.000000	25.717332
2039.000000	25.672226
2038.000000	25.662888
2037.000000	25.699758
2036.000000	25.758172
2035.000000	25.815311
2034.000000	25.888103
2033.000000	25.899743
2032.000000	25.984129
2031.000000	26.040675
2030.000000	26.103563
2029.000000	26.199392
2028.000000	26.270141
2027.000000	26.363468
2026.000000	26.435903
2025.000000	26.443008
2024.000000	26.482726
2023.000000	26.555060
2022.000000	26.626627
2021.000000	26.655700
2020.000000	26.652152
2019.000000	26.662875
2018.000000	26.671582
2017.000000	26.720176
2016.000000	26.713271
2015.000000	26.686175
2014.000000	26.703369
2013.000000	26.689990
2012.000000	26.656376
2011.000000	26.665515
2010.000000	26.629144
2009.000000	26.558890
2008.000000	26.531895
2007.000000	26.487339
2006.000000	26.432074
2005.000000	26.398989
2004.000000	26.325617
2003.000000	26.260675
2002.000000	26.191980
2001.000000	26.110303
2000.000000	26.034493
1999.000000	25.988633
1998.000000	25.926585
1997.000000	25.854359
1996.000000	25.829228
1995.000000	25.774909
1994.000000	25.684150
1993.000000	25.601294
1992.000000	25.535637
1991.000000	25.473488
1990.000000	25.415295
1989.000000	25.365658
1988.000000	25.286949
1987.000000	25.229411
1986.000000	25.177208
1985.000000	25.103348
1984.000000	25.023017
1983.000000	24.952329
1982.000000	24.897219
1981.000000	24.864754
1980.000000	24.772238
1979.000000	24.695482
1978.000000	24.655944
1977.000000	24.578178
1976.000000	24.548384
1975.000000	24.458916
1974.000000	24.349839
1973.000000	24.351549
1972.000000	24.301207
1971.000000	24.228337
1970.000000	24.188551
1969.000000	24.153574
1968.000000	24.078644
1967.000000	24.039039
1966.000000	23.996240
1965.000000	23.948447
1964.000000	23.861496
1963.000000	23.844245
1962.000000	23.771198
1961.000000	23.704293
1960.000000	23.658021
1959.000000	23.601936
1958.000000	23.617116
1957.000000	23.558316
1956.000000	23.467607
1955.000000	23.437341
1954.000000	23.423583
1953.000000	23.384757
1952.000000	23.383219
1951.000000	23.365425
1950.000000	23.325818
1949.000000	23.323370
1948.000000	23.329490
1947.000000	23.295961
1946.000000	23.291451
1945.000000	23.327971
1944.000000	23.342956
1943.000000	23.300332
1942.000000	23.363758
1941.000000	23.374429
1940.000000	23.360756
1939.000000	23.401914
1938.000000	23.451332
1937.000000	23.538234
1936.000000	23.617182
1935.000000	23.672617
1934.000000	23.728979
1933.000000	23.812585
1932.000000	23.829594
1931.000000	24.030138
1930.000000	24.130730
1929.000000	24.228895
1928.000000	24.361635
1927.000000	24.467846
1926.000000	24.558092
1925.000000	24.684393
1924.000000	24.879563
1923.000000	25.013888
1922.000000	25.141589
1921.000000	25.422372
1920.000000	25.579564
1919.000000	25.801444
1918.000000	25.964788
1917.000000	26.171445
1916.000000	26.278346
1915.000000	26.538551
1914.000000	26.890965
1913.000000	27.144310
1912.000000	27.320807
1911.000000	27.535303
1910.000000	27.879590
1909.000000	28.169585
1908.000000	28.479983
1907.000000	28.727494
1906.000000	28.994969
1905.000000	29.415231
1904.000000	29.778696
1903.000000	30.059260
1902.000000	30.452397
1901.000000	30.780260
1900.000000	31.139821
1899.000000	31.590549
1898.000000	31.942499
1897.000000	32.302193
1896.000000	32.704404
1895.000000	33.091042
1894.000000	33.449623
1893.000000	33.831835
1892.000000	34.248206
1891.000000	34.655509
1890.000000	35.006519
1889.000000	35.367309
1888.000000	35.723563
1887.000000	36.042331
1886.000000	36.386332
1885.000000	36.704320
1884.000000	37.037422
1883.000000	37.354576
1882.000000	37.662237
1881.000000	37.995615
1880.000000	38.286478
1879.000000	38.539847
1878.000000	38.845123
1877.000000	39.140782
1876.000000	39.352962
1875.000000	39.617181
1874.000000	39.826928
1873.000000	40.057549
1872.000000	40.208469
1871.000000	40.391248
1870.000000	40.573231
1869.000000	40.717338
1868.000000	40.891558
1867.000000	41.004010
1866.000000	41.102009
1865.000000	41.215892
1864.000000	41.266906
1863.000000	41.359205
1862.000000	41.469818
1861.000000	41.541806
1860.000000	41.627676
1859.000000	41.652625
1858.000000	41.695311
1857.000000	41.735848
1856.000000	41.822060
1855.000000	41.863670
1854.000000	41.850813
1853.000000	41.915300
1852.000000	41.918106
1851.000000	41.917410
1850.000000	41.962525
1849.000000	41.980743
1848.000000	41.992393
1847.000000	41.972337
1846.000000	41.962887
1845.000000	41.981414
1844.000000	41.965753
1843.000000	41.922872
1842.000000	41.911268
1841.000000	41.906999
1840.000000	41.851959
1839.000000	41.839502
1838.000000	41.830953
1837.000000	41.783585
1836.000000	41.719477
1835.000000	41.674636
1834.000000	41.630043
1833.000000	41.594212
1832.000000	41.583232
1831.000000	41.526894
1830.000000	41.490847
1829.000000	41.467776
1828.000000	41.431085
1827.000000	41.379335
1826.000000	41.327598
1825.000000	41.289834
1824.000000	41.293931
1823.000000	41.278514
1822.000000	41.222324
1821.000000	41.188821
1820.000000	41.166462
1819.000000	41.110327
1818.000000	41.078066
1817.000000	41.058283
1816.000000	41.009417
1815.000000	40.960743
1814.000000	40.939103
1813.000000	40.916480
1812.000000	40.880883
1811.000000	40.861072
1810.000000	40.844998
1809.000000	40.816320
1808.000000	40.785196
1807.000000	40.753839
1806.000000	40.718814
1805.000000	40.685945
1804.000000	40.681655
1803.000000	40.659839
1802.000000	40.613976
1801.000000	40.594570
1800.000000	40.584478
1799.000000	40.552623
1798.000000	40.516923
1797.000000	40.499410
1796.000000	40.488906
1795.000000	40.467687
1794.000000	40.450097
1793.000000	40.421198
1792.000000	40.399810
1791.000000	40.407445
1790.000000	40.409907
1789.000000	40.364282
1788.000000	40.366046
1787.000000	40.350884
1786.000000	40.327993
1785.000000	40.308480
1784.000000	40.278564
1783.000000	40.279363
1782.000000	40.266798
1781.000000	40.226291
1780.000000	40.205281
1779.000000	40.189739
1778.000000	40.141331
1777.000000	40.099654
1776.000000	40.084759
1775.000000	40.047349
1774.000000	40.002287
1773.000000	39.951030
1772.000000	39.911546
1771.000000	39.890581
1770.000000	39.846494
1769.000000	39.776289
1768.000000	39.714734
1767.000000	39.676855
1766.000000	39.620602
1765.000000	39.600859
1764.000000	39.576351
1763.000000	39.506098
1762.000000	39.464356
1761.000000	39.423124
1760.000000	39.355120
1759.000000	39.292564
1758.000000	39.268926
1757.000000	39.224497
1756.000000	39.196813
1755.000000	39.150049
1754.000000	39.114487
1753.000000	39.058323
1752.000000	39.017138
1751.000000	38.983245
1750.000000	38.939643
1749.000000	38.873782
1748.000000	38.826347
1747.000000	38.807507
1746.000000	38.726148
1745.000000	38.674148
1744.000000	38.613355
1743.000000	38.595353
1742.000000	38.564802
1741.000000	38.507733
1740.000000	38.458813
1739.000000	38.418143
1738.000000	38.380309
1737.000000	38.355442
1736.000000	38.340079
1735.000000	38.334551
1734.000000	38.334166
1733.000000	38.312724
1732.000000	38.299802
1731.000000	38.339026
1730.000000	38.313215
1729.000000	38.356167
1728.000000	38.401558
1727.000000	38.445372
1726.000000	38.491932
1725.000000	38.516278
1724.000000	38.584649
1723.000000	38.668937
1722.000000	38.746751
1721.000000	38.835773
1720.000000	38.908291
1719.000000	39.005062
1718.000000	39.075788
1717.000000	39.163082
1716.000000	39.233196
1715.000000	39.302055
1714.000000	39.426431
1713.000000	39.484162
1712.000000	39.549915
1711.000000	39.616878
1710.000000	39.689915
1709.000000	39.696598
1708.000000	39.764574
1707.000000	39.822307
1706.000000	39.814898
1705.000000	39.875873
1704.000000	39.921833
1703.000000	39.913427
1702.000000	39.912668
1701.000000	39.916140
1700.000000	39.933327
1699.000000	39.928726
1698.000000	39.964634
1697.000000	39.993970
1696.000000	40.045143
1695.000000	40.054979
1694.000000	40.074682
1693.000000	40.111538
1692.000000	40.156772
1691.000000	40.210161
1690.000000	40.307114
1689.000000	40.370883
1688.000000	40.476364
1687.000000	40.571867
1686.000000	40.661151
1685.000000	40.754974
1684.000000	40.899058
1683.000000	41.035363
1682.000000	41.173329
1681.000000	41.321186
1680.000000	41.445268
1679.000000	41.608966
1678.000000	41.788316
1677.000000	41.930730
1676.000000	42.132421
1675.000000	42.294944
1674.000000	42.446597
1673.000000	42.628988
1672.000000	42.751349
1671.000000	42.919272
1670.000000	43.093099
1669.000000	43.258616
1668.000000	43.385553
1667.000000	43.531729
1666.000000	43.621705
1665.000000	43.723966
1664.000000	43.837990
1663.000000	43.896166
1662.000000	43.977529
1661.000000	44.074727
1660.000000	44.129821
1659.000000	44.219516
1658.000000	44.252587
1657.000000	44.311009
1656.000000	44.335154
1655.000000	44.389356
1654.000000	44.415323
1653.000000	44.419036
1652.000000	44.444894
1651.000000	44.440838
1650.000000	44.450962
1649.000000	44.469581
1648.000000	44.443119
1647.000000	44.448850
1646.000000	44.427768
1645.000000	44.411347
1644.000000	44.401271
1643.000000	44.374489
1642.000000	44.356390
1641.000000	44.317313
1640.000000	44.288224
1639.000000	44.282840
1638.000000	44.255590
1637.000000	44.225580
1636.000000	44.160242
1635.000000	44.137634
1634.000000	44.098962
1633.000000	44.058198
1632.000000	44.023091
1631.000000	43.966735
1630.000000	43.936832
1629.000000	43.909437
1628.000000	43.854102
1627.000000	43.807748
1626.000000	43.778221
1625.000000	43.739542
1624.000000	43.683429
1623.000000	43.639759
1622.000000	43.592694
1621.000000	43.535309
1620.000000	43.488704
1619.000000	43.427583
1618.000000	43.372935
1617.000000	43.323388
1616.000000	43.281306
1615.000000	43.227548
1614.000000	43.165447
1613.000000	43.114568
1612.000000	43.060288
1611.000000	42.997867
1610.000000	42.941854
1609.000000	42.895546
1608.000000	42.843351
1607.000000	42.774183
1606.000000	42.703797
1605.000000	42.649415
1604.000000	42.590889
1603.000000	42.538379
1602.000000	42.483471
1601.000000	42.410170
1600.000000	42.339142
1599.000000	42.288835
1598.000000	42.241186
1597.000000	42.189313
1596.000000	42.134613
1595.000000	42.071862
1594.000000	42.015492
1593.000000	41.973891
1592.000000	41.928483
1591.000000	41.872358
1590.000000	41.820540
1589.000000	41.767211
1588.000000	41.711085
1587.000000	41.672201
1586.000000	41.636400
1585.000000	41.589569
1584.000000	41.541740
1583.000000	41.498206
1582.000000	41.464270
1581.000000	41.424002
1580.000000	41.378195
1579.000000	41.329263
1578.000000	41.292425
1577.000000	41.242523
1576.000000	41.192124
1575.000000	41.157380
1574.000000	41.101019
1573.000000	41.063417
1572.000000	41.032345
1571.000000	40.988253
1570.000000	40.952224
1569.000000	40.909955
1568.000000	40.874132
1567.000000	40.839509
1566.000000	40.795505
1565.000000	40.756660
1564.000000	40.727039
1563.000000	40.699175
1562.000000	40.687240
1561.000000	40.655751
1560.000000	40.628982
1559.000000	40.607954
1558.000000	40.585085
1557.000000	40.574809
1556.000000	40.550598
1555.000000	40.530391
1554.000000	40.506923
1553.000000	40.488910
1552.000000	40.458593
1551.000000	40.426261
1550.000000	40.401280
1549.000000	40.359088
1548.000000	40.324817
1547.000000	40.274782
1546.000000	40.223643
1545.000000	40.168752
1544.000000	40.117645
1543.000000	40.048757
1542.000000	39.993190
1541.000000	39.918105
1540.000000	39.845254
1539.000000	39.767510
1538.000000	39.686293
1537.000000	39.614917
1536.000000	39.542996
1535.000000	39.457649
1534.000000	39.385289
1533.000000	39.319116
1532.000000	39.234390
1531.000000	39.173549
1530.000000	39.089185
1529.000000	39.004011
1528.000000	38.952167
1527.000000	38.892235
1526.000000	38.826490
1525.000000	38.771361
1524.000000	38.725347
1523.000000	38.683709
1522.000000	38.634595
1521.000000	38.581447
1520.000000	38.546592
1519.000000	38.504376
1518.000000	38.476936
1517.000000	38.434410
1516.000000	38.402111
1515.000000	38.362477
1514.000000	38.343391
1513.000000	38.320293
1512.000000	38.301302
1511.000000	38.292030
1510.000000	38.266287
1509.000000	38.266705
1508.000000	38.267290
1507.000000	38.305593
1506.000000	38.316270
1505.000000	38.286903
1504.000000	38.267246
1503.000000	38.248816
1502.000000	38.221449
1501.000000	38.216724
1500.000000	38.189528
1499.000000	38.207285
1498.000000	38.200846
1497.000000	38.203144
1496.000000	38.205116
1495.000000	38.218808
1494.000000	38.229629
1493.000000	38.254705
1492.000000	38.267749
1491.000000	38.288048
1490.000000	38.322484
1489.000000	38.350689
1488.000000	38.379972
1487.000000	38.416144
1486.000000	38.461531
1485.000000	38.483074
1484.000000	38.536232
1483.000000	38.577504
1482.000000	38.607869
1481.000000	38.668768
1480.000000	38.702338
1479.000000	38.736591
1478.000000	38.768541
1477.000000	38.811689
1476.000000	38.852066
1475.000000	38.908332
1474.000000	38.953675
1473.000000	39.006953
1472.000000	39.034341
1471.000000	39.069472
1470.000000	39.099853
1469.000000	39.149186
1468.000000	39.189549
1467.000000	39.233894
1466.000000	39.289599
1465.000000	39.332822
1464.000000	39.377448
1463.000000	39.410801
1462.000000	39.451906
1461.000000	39.499495
1460.000000	39.571997
1459.000000	39.606952
1458.000000	39.653440
1457.000000	39.683452
1456.000000	39.754078
1455.000000	39.822436
1454.000000	39.876390
1453.000000	39.903134
1452.000000	39.957348
1451.000000	40.030572
1450.000000	40.117122
1449.000000	40.154113
1448.000000	40.215054
1447.000000	40.280385
1446.000000	40.342482
1445.000000	40.432670
1444.000000	40.529584
1443.000000	40.577374
1442.000000	40.659257
1441.000000	40.729148
1440.000000	40.811106
1439.000000	40.900468
1438.000000	40.985649
1437.000000	41.071146
1436.000000	41.158793
1435.000000	41.300813
1434.000000	41.397163
1433.000000	41.497006
1432.000000	41.616393
1431.000000	41.729348
1430.000000	41.846480
1429.000000	41.949959
1428.000000	42.074041
1427.000000	42.196525
1426.000000	42.336127
1425.000000	42.482370
1424.000000	42.624079
1423.000000	42.747332
1422.000000	42.905840
1421.000000	43.079494
1420.000000	43.250845
1419.000000	43.414005
1418.000000	43.570961
1417.000000	43.749931
1416.000000	43.936877
1415.000000	44.119256
1414.000000	44.310828
1413.000000	44.497550
1412.000000	44.679567
1411.000000	44.877846
1410.000000	45.076597
1409.000000	45.276096
1408.000000	45.467844
1407.000000	45.655984
1406.000000	45.845575
1405.000000	46.041930
1404.000000	46.246802
1403.000000	46.441868
1402.000000	46.635732
1401.000000	46.835038
1400.000000	47.004861
1399.000000	47.174587
1398.000000	47.362306
1397.000000	47.542558
1396.000000	47.720789
1395.000000	47.898232
1394.000000	48.064751
1393.000000	48.226200
1392.000000	48.387369
1391.000000	48.545565
1390.000000	48.697646
1389.000000	48.847272
1388.000000	48.988878
1387.000000	49.134363
1386.000000	49.271844
1385.000000	49.393138
1384.000000	49.505150
1383.000000	49.615997
1382.000000	49.749420
1381.000000	49.856868
1380.000000	49.936287
1379.000000	50.042118
1378.000000	50.134706
1377.000000	50.203751
1376.000000	50.293002
1375.000000	50.382385
1374.000000	50.452187
1373.000000	50.510956
1372.000000	50.569813
1371.000000	50.625651
1370.000000	50.674826
1369.000000	50.742623
1368.000000	50.814581
1367.000000	50.879294
1366.000000	50.933300
1365.000000	50.987249
1364.000000	51.049963
1363.000000	51.099270
1362.000000	51.154823
1361.000000	51.221431
1360.000000	51.287493
1359.000000	51.353622
1358.000000	51.450268
1357.000000	51.514868
1356.000000	51.569648
1355.000000	51.658038
1354.000000	51.753134
1353.000000	51.816833
1352.000000	51.863205
1351.000000	51.948698
1350.000000	52.032494
1349.000000	52.089436
1348.000000	52.147585
1347.000000	52.216290
1346.000000	52.287702
1345.000000	52.384682
1344.000000	52.467148
1343.000000	52.514588
1342.000000	52.566333
1341.000000	52.634396
1340.000000	52.717876
1339.000000	52.776613
1338.000000	52.812397
1337.000000	52.871611
1336.000000	52.925134
1335.000000	52.992999
1334.000000	53.055897
1333.000000	53.082866
1332.000000	53.118707
1331.000000	53.152363
1330.000000	53.196188
1329.000000	53.261644
1328.000000	53.279121
1327.000000	53.303973
1326.000000	53.347893
1325.000000	53.393292
1324.000000	53.405806
1323.000000	53.422516
1322.000000	53.467548
1321.000000	53.493699
1320.000000	53.498489
1319.000000	53.546673
1318.000000	53.540913
1317.000000	53.563498
1316.000000	53.619016
1315.000000	53.621117
1314.000000	53.623634
1313.000000	53.680845
1312.000000	53.672783
1311.000000	53.692138
1310.000000	53.731232
1309.000000	53.742760
1308.000000	53.749757
1307.000000	53.784700
1306.000000	53.795956
1305.000000	53.811483
1304.000000	53.821413
1303.000000	53.836063
1302.000000	53.863761
1301.000000	53.881647
1300.000000	53.881474
1299.000000	53.898972
1298.000000	53.898470
1297.000000	53.904636
1296.000000	53.898500
1295.000000	53.915914
1294.000000	53.910767
1293.000000	53.907317
1292.000000	53.902308
1291.000000	53.898522
1290.000000	53.887864
1289.000000	53.905005
1288.000000	53.888830
1287.000000	53.884204
1286.000000	53.849240
1285.000000	53.862012
1284.000000	53.859055
1283.000000	53.871195
1282.000000	53.878318
1281.000000	53.868910
1280.000000	53.863024
1279.000000	53.862152
1278.000000	53.867721
1277.000000	53.861529
1276.000000	53.856104
1275.000000	53.860752
1274.000000	53.854219
1273.000000	53.879278
1272.000000	53.867458
1271.000000	53.857301
1270.000000	53.876417
1269.000000	53.876793
1268.000000	53.900061
1267.000000	53.882288
1266.000000	53.880835
1265.000000	53.900792
1264.000000	53.908845
1263.000000	53.936794
1262.000000	53.961702
1261.000000	53.983058
1260.000000	53.966335
1259.000000	53.966586
1258.000000	53.985853
1257.000000	54.011398
1256.000000	54.030856
1255.000000	54.032926
1254.000000	54.064036
1253.000000	54.034107
1252.000000	54.059485
1251.000000	54.042223
1250.000000	54.023574
1249.000000	54.035973
1248.000000	54.046079
1247.000000	54.026381
1246.000000	54.034945
1245.000000	54.029867
1244.000000	54.028754
1243.000000	54.018942
1242.000000	54.001683
1241.000000	53.974880
1240.000000	53.934631
1239.000000	53.916616
1238.000000	53.910726
1237.000000	53.863669
1236.000000	53.835491
1235.000000	53.811886
1234.000000	53.787870
1233.000000	53.793404
1232.000000	53.750851
1231.000000	53.733472
1230.000000	53.703955
1229.000000	53.691395
1228.000000	53.646191
1227.000000	53.645965
1226.000000	53.621292
1225.000000	53.608440
1224.000000	53.605762
1223.000000	53.584461
1222.000000	53.555461
1221.000000	53.543687
1220.000000	53.517606
1219.000000	53.493629
1218.000000	53.463844
1217.000000	53.452335
1216.000000	53.425065
1215.000000	53.361934
1214.000000	53.350014
1213.000000	53.321413
1212.000000	53.295617
1211.000000	53.283782
1210.000000	53.220183
1209.000000	53.190791
1208.000000	53.167153
1207.000000	53.127807
1206.000000	53.091077
1205.000000	53.063459
1204.000000	53.031001
1203.000000	52.978970
1202.000000	52.926800
1201.000000	52.898943
1200.000000	52.874642
1199.000000	52.819285
1198.000000	52.788118
1197.000000	52.777499
1196.000000	52.737510
1195.000000	52.705924
1194.000000	52.676056
1193.000000	52.646073
1192.000000	52.609976
1191.000000	52.587602
1190.000000	52.553462
1189.000000	52.507649
1188.000000	52.519641
1187.000000	52.519914
1186.000000	52.517363
1185.000000	52.514580
1184.000000	52.516116
1183.000000	52.510645
1182.000000	52.544398
1181.000000	52.578571
1180.000000	52.609046
1179.000000	52.646324
1178.000000	52.677270
1177.000000	52.710213
1176.000000	52.753837
1175.000000	52.813509
1174.000000	52.877721
1173.000000	52.938546
1172.000000	52.989728
1171.000000	53.058872
1170.000000	53.151674
1169.000000	53.217154
1168.000000	53.272841
1167.000000	53.360036
1166.000000	53.445000
1165.000000	53.521633
1164.000000	53.601847
1163.000000	53.688595
1162.000000	53.771640
1161.000000	53.860242
1160.000000	53.943390
1159.000000	54.023592
1158.000000	54.113805
1157.000000	54.180173
1156.000000	54.218134
1155.000000	54.280752
1154.000000	54.363654
1153.000000	54.439635
1152.000000	54.508844
1151.000000	54.582161
1150.000000	54.642165
1149.000000	54.702761
1148.000000	54.762476
1147.000000	54.812176
1146.000000	54.865777
1145.000000	54.925729
1144.000000	54.988138
1143.000000	55.032905
1142.000000	55.072383
1141.000000	55.119965
1140.000000	55.174002
1139.000000	55.227806
1138.000000	55.262446
1137.000000	55.289825
1136.000000	55.349150
1135.000000	55.397389
1134.000000	55.429213
1133.000000	55.484448
1132.000000	55.532221
1131.000000	55.568658
1130.000000	55.617380
1129.000000	55.650889
1128.000000	55.678363
1127.000000	55.706281
1126.000000	55.723759
1125.000000	55.729855
1124.000000	55.748329
1123.000000	55.776624
1122.000000	55.794183
1121.000000	55.816231
1120.000000	55.829369
1119.000000	55.835033
1118.000000	55.858899
1117.000000	55.874561
1116.000000	55.888396
1115.000000	55.892834
1114.000000	55.900745
1113.000000	55.914326
1112.000000	55.921301
1111.000000	55.932139
1110.000000	55.935082
1109.000000	55.949164
1108.000000	55.944398
1107.000000	55.959988
1106.000000	55.960358
1105.000000	55.953205
1104.000000	55.962160
1103.000000	55.971522
1102.000000	55.971948
1101.000000	55.950991
1100.000000	55.960745
1099.000000	55.975716
1098.000000	55.984588
1097.000000	55.985453
1096.000000	56.004431
1095.000000	55.977306
1094.000000	56.003666
1093.000000	55.973020
1092.000000	55.969288
1091.000000	55.986658
1090.000000	56.005149
1089.000000	55.999365
1088.000000	56.004088
1087.000000	55.993168
1086.000000	55.981549
1085.000000	55.976442
1084.000000	55.994262
1083.000000	55.988311
1082.000000	55.983637
1081.000000	55.976289
1080.000000	55.979185
1079.000000	55.945985
1078.000000	55.949355
1077.000000	55.953779
1076.000000	55.957371
1075.000000	55.964155
1074.000000	55.950923
1073.000000	55.943031
1072.000000	55.914168
1071.000000	55.916429
1070.000000	55.922301
1069.000000	55.916883
1068.000000	55.911769
1067.000000	55.904395
1066.000000	55.913077
1065.000000	55.860449
1064.000000	55.868881
1063.000000	55.878297
1062.000000	55.874483
1061.000000	55.860262
1060.000000	55.851571
1059.000000	55.845252
1058.000000	55.819510
1057.000000	55.810909
1056.000000	55.816457
1055.000000	55.811421
1054.000000	55.813275
1053.000000	55.812135
1052.000000	55.769532
1051.000000	55.748794
1050.000000	55.767807
1049.000000	55.760469
1048.000000	55.740170
1047.000000	55.728384
1046.000000	55.733684
1045.000000	55.734782
1044.000000	55.730457
1043.000000	55.688936
1042.000000	55.701207
1041.000000	55.724578
1040.000000	55.728195
1039.000000	55.688308
1038.000000	55.683174
1037.000000	55.711509
1036.000000	55.697761
1035.000000	55.660424
1034.000000	55.666607
1033.000000	55.675264
1032.000000	55.674325
1031.000000	55.689001
1030.000000	55.661587
1029.000000	55.667695
1028.000000	55.673183
1027.000000	55.653294
1026.000000	55.662999
1025.000000	55.643139
1024.000000	55.670358
1023.000000	55.646784
1022.000000	55.644877
1021.000000	55.654317
1020.000000	55.656847
1019.000000	55.669573
1018.000000	55.656909
1017.000000	55.673667
1016.000000	55.662469
1015.000000	55.649153
1014.000000	55.657054
1013.000000	55.670080
1012.000000	55.681965
1011.000000	55.695901
1010.000000	55.697968
1009.000000	55.692092
1008.000000	55.680010
1007.000000	55.694051
1006.000000	55.719943
1005.000000	55.720262
1004.000000	55.715695
1003.000000	55.722758
1002.000000	55.734498
1001.000000	55.746565
1000.000000	55.740765
999.000000	55.745535
998.000000	55.776788
997.000000	55.786644
996.000000	55.780206
995.000000	55.797996
994.000000	55.817126
993.000000	55.827419
992.000000	55.826371
991.000000	55.821128
990.000000	55.819318
989.000000	55.830077
988.000000	55.842617
987.000000	55.854725
986.000000	55.873363
985.000000	55.874529
984.000000	55.885576
983.000000	55.899182
982.000000	55.898512
981.000000	55.902331
980.000000	55.919028
979.000000	55.929759
978.000000	55.938916
977.000000	55.945703
976.000000	55.950301
975.000000	55.944442
974.000000	55.949507
973.000000	55.968723
972.000000	55.982461
971.000000	55.995821
970.000000	56.000486
969.000000	56.007269
968.000000	56.019304
967.000000	56.026534
966.000000	56.033642
965.000000	56.038881
964.000000	56.041419
963.000000	56.054639
962.000000	56.078391
961.000000	56.093120
960.000000	56.089540
959.000000	56.090967
958.000000	56.101410
957.000000	56.113623
956.000000	56.115762
955.000000	56.117186
954.000000	56.127387
953.000000	56.139504
952.000000	56.146510
951.000000	56.165833
950.000000	56.166908
949.000000	56.166114
948.000000	56.174277
947.000000	56.192547
946.000000	56.195902
945.000000	56.203398
944.000000	56.222731
943.000000	56.211627
942.000000	56.219250
941.000000	56.230574
940.000000	56.205985
939.000000	56.204209
938.000000	56.214683
937.000000	56.204733
936.000000	56.189018
935.000000	56.206639
934.000000	56.231620
933.000000	56.236783
932.000000	56.229904
931.000000	56.220512
930.000000	56.224743
929.000000	56.211623
928.000000	56.212718
927.000000	56.226281
926.000000	56.228119
925.000000	56.216412
924.000000	56.200893
923.000000	56.193244
922.000000	56.207892
921.000000	56.213432
920.000000	56.234353
919.000000	56.222477
918.000000	56.217515
917.000000	56.231377
916.000000	56.224481
915.000000	56.223651
914.000000	56.212249
913.000000	56.211714
912.000000	56.207885
911.000000	56.202187
910.000000	56.189969
909.000000	56.205780
908.000000	56.215313
907.000000	56.222310
906.000000	56.225124
905.000000	56.205068
904.000000	56.236766
903.000000	56.262127
902.000000	56.275833
901.000000	56.266604
900.000000	56.274808
899.000000	56.247920
898.000000	56.280514
897.000000	56.279517
896.000000	56.271006
895.000000	56.286454
894.000000	56.341544
893.000000	56.325018
892.000000	56.322527
891.000000	56.335567
890.000000	56.322942
889.000000	56.307068
888.000000	56.380306
887.000000	56.406776
886.000000	56.345587
885.000000	56.319260
884.000000	56.344102
883.000000	56.393627
882.000000	56.427795
881.000000	56.368778
880.000000	56.386614
879.000000	56.419418
878.000000	56.431268
877.000000	56.418598
876.000000	56.360154
875.000000	56.361045
874.000000	56.419748
873.000000	56.465802
872.000000	56.500204
871.000000	56.420461
870.000000	56.448321
869.000000	56.430774
868.000000	56.376254
867.000000	56.357331
866.000000	56.394032
865.000000	56.392357
864.000000	56.476235
863.000000	56.404383
862.000000	56.373615
861.000000	56.418720
860.000000	56.408952
859.000000	55.933293
858.000000	56.253134
857.000000	56.448327
856.000000	56.328888
855.000000	56.263687
854.000000	56.016320
853.000000	56.330935
852.000000	55.987506
851.000000	56.019696
850.000000	56.060238
849.000000	56.426419
848.000000	56.162650
847.000000	56.208675
846.000000	56.073009
845.000000	56.064998
844.000000	56.161638
843.000000	56.044454
842.000000	56.276651
841.000000	56.176983
840.000000	56.309568
839.000000	56.329097
838.000000	56.222648
837.000000	55.976125
836.000000	56.086224
835.000000	56.193029
834.000000	56.073278
833.000000	56.162687
832.000000	56.086285
831.000000	56.120269
830.000000	55.994334
829.000000	56.184689
828.000000	56.095737
827.000000	56.023142
826.000000	56.029157
825.000000	56.105053
824.000000	56.207928
823.000000	56.207350
822.000000	56.114087
821.000000	56.120554
820.000000	55.949205
819.000000	56.178433
818.000000	56.111988
817.000000	56.169500
816.000000	56.087069
815.000000	56.107988
814.000000	56.151005
813.000000	56.203655
812.000000	56.031772
811.000000	56.103292
810.000000	56.082748
809.000000	55.998182
808.000000	56.202150
807.000000	56.126800
806.000000	56.212366
805.000000	56.141703
804.000000	56.006950
803.000000	56.033116
802.000000	56.078442
801.000000	56.215434
800.000000	56.045364
799.000000	56.005221
798.000000	56.094618
797.000000	56.033977
796.000000	56.046807
795.000000	56.195185
794.000000	56.029903
793.000000	56.055815
792.000000	55.952302
791.000000	56.127363
790.000000	56.126384
789.000000	56.149432
788.000000	56.071845
787.000000	56.034131
786.000000	56.116103
785.000000	56.139261
784.000000	56.230753
783.000000	56.021288
782.000000	56.071560
781.000000	56.054816
780.000000	56.017302
779.000000	55.891798
778.000000	55.989674
777.000000	56.047537
776.000000	56.054047
775.000000	55.919362
774.000000	55.995988
773.000000	56.063213
772.000000	56.038224
771.000000	55.948953
770.000000	55.944305
769.000000	55.982461
768.000000	55.982960
767.000000	55.983401
766.000000	55.957432
765.000000	56.017483
764.000000	56.029231
763.000000	55.963372
762.000000	55.908289
761.000000	55.865251
760.000000	55.935733
759.000000	55.930390
758.000000	55.947826
757.000000	55.882109
756.000000	55.945503
755.000000	55.958467
754.000000	55.859900
753.000000	55.873073
752.000000	55.862318
751.000000	55.898610
750.000000	55.899375
749.000000	55.831161
748.000000	55.811933
747.000000	55.821445
746.000000	55.818972
745.000000	55.857148
744.000000	55.836222
743.000000	55.775927
742.000000	55.765139
741.000000	55.710022
740.000000	55.717007
739.000000	55.738586
738.000000	55.759585
737.000000	55.751866
736.000000	55.698901
735.000000	55.632894
734.000000	55.670153
733.000000	55.701116
732.000000	55.710179
731.000000	55.684615
730.000000	55.619750
729.000000	55.607509
728.000000	55.581121
727.000000	55.565581
726.000000	55.652150
725.000000	55.662747
724.000000	55.583185
723.000000	55.513175
722.000000	55.528836
721.000000	55.553163
720.000000	55.511868
719.000000	55.512891
718.000000	55.527038
717.000000	55.507188
716.000000	55.521921
715.000000	55.499819
714.000000	55.399699
713.000000	55.368570
712.000000	55.366780
711.000000	55.375447
710.000000	55.460715
709.000000	55.427926
708.000000	55.376867
707.000000	55.352717
706.000000	55.350480
705.000000	55.355464
704.000000	55.322133
703.000000	55.332926
702.000000	55.381032
701.000000	55.357943
700.000000	55.322134
699.000000	55.282562
698.000000	55.319844
697.000000	55.309012
696.000000	55.212963
695.000000	55.189797
694.000000	55.210113
693.000000	55.196694
692.000000	55.159935
691.000000	55.199206
690.000000	55.170518
689.000000	55.115246
688.000000	55.067920
687.000000	55.101877
686.000000	55.140116
685.000000	55.081778
684.000000	55.074110
683.000000	55.059583
682.000000	55.100148
681.000000	55.069768
680.000000	55.022334
679.000000	55.079252
678.000000	55.083076
677.000000	54.987823
676.000000	54.975193
675.000000	54.985294
674.000000	54.976812
673.000000	54.961382
672.000000	54.935078
671.000000	54.909191
670.000000	54.945914
669.000000	54.906844
668.000000	54.866607
667.000000	54.908404
666.000000	54.879205
665.000000	54.824705
664.000000	54.780068
663.000000	54.776834
662.000000	54.748381
661.000000	54.717526
660.000000	54.710528
659.000000	54.777538
658.000000	54.733886
657.000000	54.710283
656.000000	54.689452
655.000000	54.700691
654.000000	54.662680
653.000000	54.635440
652.000000	54.611721
651.000000	54.557888
650.000000	54.618259
649.000000	54.570847
648.000000	54.512721
647.000000	54.522471
646.000000	54.523248
645.000000	54.491556
644.000000	54.450452
643.000000	54.443721
642.000000	54.448511
641.000000	54.404219
640.000000	54.410941
639.000000	54.365560
638.000000	54.332171
637.000000	54.318952
636.000000	54.276036
635.000000	54.254512
634.000000	54.206163
633.000000	54.183158
632.000000	54.161489
631.000000	54.187857
630.000000	54.150041
629.000000	54.127320
628.000000	54.094038
627.000000	54.070818
626.000000	54.014778
625.000000	54.008143
624.000000	53.999858
623.000000	53.979764
622.000000	53.961943
621.000000	53.929350
620.000000	53.930170
619.000000	53.928342
618.000000	53.888149
617.000000	53.884949
616.000000	53.845444
615.000000	53.801861
614.000000	53.811950
613.000000	53.816018
612.000000	53.788034
611.000000	53.772877
610.000000	53.737569
609.000000	53.699878
608.000000	53.685830
607.000000	53.657521
606.000000	53.616093
605.000000	53.627909
604.000000	53.574789
603.000000	53.570802
602.000000	53.576321
601.000000	53.550571
600.000000	53.491978
599.000000	53.511204
598.000000	53.495289
597.000000	53.477782
596.000000	53.405003
595.000000	53.417918
594.000000	53.400956
593.000000	53.384895
592.000000	53.395612
591.000000	53.311312
590.000000	53.377454
589.000000	53.340582
588.000000	53.309905
587.000000	53.291671
586.000000	53.243653
585.000000	53.248850
584.000000	53.255143
583.000000	53.121550
582.000000	53.154894
581.000000	53.142103
580.000000	53.091468
579.000000	53.038793
578.000000	53.029740
577.000000	52.991570
576.000000	53.019219
575.000000	52.985744
574.000000	52.902103
573.000000	52.909246
572.000000	52.864822
571.000000	52.856609
570.000000	52.904287
569.000000	52.825144
568.000000	52.840289
567.000000	52.785091
566.000000	52.763051
565.000000	52.721457
564.000000	52.728769
563.000000	52.711248
562.000000	52.701508
561.000000	52.579192
560.000000	52.515229
559.000000	52.540922
558.000000	52.536982
557.000000	52.497038
556.000000	52.465165
555.000000	52.463768
554.000000	52.420381
553.000000	52.404855
552.000000	52.374661
551.000000	52.351849
550.000000	52.309200
549.000000	52.266008
548.000000	52.301002
547.000000	52.237265
546.000000	52.189441
545.000000	52.136052
544.000000	52.096711
543.000000	52.074413
542.000000	52.034720
541.000000	52.041862
540.000000	52.001155
539.000000	51.974404
538.000000	51.913041
537.000000	51.911535
536.000000	51.882733
535.000000	51.857913
534.000000	51.774227
533.000000	51.771433
532.000000	51.733393
531.000000	51.737450
530.000000	51.669087
529.000000	51.635289
528.000000	51.623297
527.000000	51.557875
526.000000	51.552801
525.000000	51.549293
524.000000	51.532431
523.000000	51.473455
522.000000	51.444896
521.000000	51.399363
520.000000	51.384502
519.000000	51.332769
518.000000	51.291373
517.000000	51.292916
516.000000	51.239197
515.000000	51.188956
514.000000	51.170208
513.000000	51.123942
512.000000	51.107634
511.000000	51.060424
510.000000	51.022653
509.000000	50.972770
508.000000	50.930638
507.000000	50.862706
506.000000	50.795073
505.000000	50.771655
504.000000	50.739995
503.000000	50.682520
502.000000	50.642313
501.000000	50.580585
500.000000	50.523470
499.000000	50.489203
498.000000	50.410749
497.000000	50.381851
496.000000	50.357424
495.000000	50.304475
494.000000	50.178771
493.000000	50.124389
492.000000	50.072673
491.000000	50.050433
490.000000	49.939037
489.000000	49.859587
488.000000	49.780234
487.000000	49.721241
486.000000	49.740031
485.000000	49.697007
484.000000	49.620634
483.000000	49.574544
482.000000	49.502818
481.000000	49.425010
480.000000	49.379379
479.000000	49.319646
478.000000	49.211601
477.000000	49.135864
476.000000	49.083938
475.000000	48.991649
474.000000	48.917791
473.000000	48.807445
472.000000	48.733882
471.000000	48.675765
470.000000	48.592657
469.000000	48.496422
468.000000	48.410744
467.000000	48.315830
466.000000	48.211196
465.000000	48.124671
464.000000	48.026288
463.000000	47.922843
462.000000	47.849325
461.000000	47.779616
460.000000	47.672955
459.000000	47.566895
458.000000	47.450195
457.000000	47.350757
456.000000	47.243507
455.000000	47.151518
454.000000	47.077551
453.000000	46.948268
452.000000	46.829880
451.000000	46.755133
450.000000	46.623236
449.000000	46.534783
448.000000	46.442030
447.000000	46.271818
446.000000	46.162322
445.000000	46.084040
444.000000	45.978965
443.000000	45.858607
442.000000	45.712702
441.000000	45.584071
440.000000	45.453302
439.000000	45.363557
438.000000	45.220781
437.000000	45.089666
436.000000	44.952903
435.000000	44.820724
434.000000	44.698804
433.000000	44.571796
432.000000	44.434187
431.000000	44.281320
430.000000	44.114872
429.000000	43.977950
428.000000	43.847609
427.000000	43.714444
426.000000	43.576178
425.000000	43.462136
424.000000	43.306462
423.000000	43.133376
422.000000	42.978797
421.000000	42.817669
420.000000	42.693466
419.000000	42.532963
418.000000	42.399505
417.000000	42.259832
416.000000	42.128178
415.000000	42.002168
414.000000	41.877282
413.000000	41.748827
412.000000	41.649090
411.000000	41.568030
410.000000	41.468913
409.000000	41.345842
408.000000	41.300649
407.000000	41.248388
406.000000	41.152196
405.000000	41.081641
404.000000	41.035328
403.000000	40.960674
402.000000	40.949496
401.000000	40.884085
400.000000	40.856919
399.000000	40.778349
398.000000	40.829983
397.000000	40.769944
396.000000	40.737433
395.000000	40.720173
394.000000	40.665931
393.000000	40.637817
392.000000	40.651668
391.000000	40.564457
390.000000	40.495230
389.000000	40.507049
388.000000	40.477744
387.000000	40.399287
386.000000	40.353876
385.000000	40.310219
384.000000	40.311561
383.000000	40.186418
382.000000	40.038246
381.000000	40.098477
380.000000	39.946181
379.000000	39.940655
378.000000	39.902430
377.000000	39.736470
376.000000	39.772624
375.000000	39.650839
374.000000	39.504837
373.000000	39.427451
372.000000	39.481334
371.000000	39.315691
370.000000	39.304676
369.000000	39.104761
368.000000	39.026753
367.000000	39.020323
366.000000	38.976706
365.000000	38.854993
364.000000	38.952530
363.000000	38.734253
362.000000	38.628915
361.000000	38.498604
360.000000	38.621949
359.000000	38.396267
358.000000	38.331109
357.000000	38.327295
356.000000	38.255380
355.000000	38.244228
354.000000	37.999180
353.000000	37.909833
352.000000	37.902078
351.000000	37.901719
350.000000	37.887455
349.000000	37.864374
348.000000	37.690545
347.000000	37.707552
346.000000	37.516046
345.000000	37.543645
344.000000	37.518650
343.000000	37.513662
342.000000	37.294854
341.000000	37.286187
340.000000	37.198315
339.000000	37.225761
338.000000	37.044158
337.000000	37.247844
336.000000	37.035268
335.000000	36.939777
334.000000	36.865408
333.000000	36.926511
332.000000	36.829668
331.000000	36.784663
330.000000	36.793803
329.000000	36.733897
328.000000	36.880296
327.000000	36.695428
326.000000	36.670440
325.000000	36.841935
324.000000	36.588287
323.000000	36.519160
322.000000	36.497954
321.000000	36.586257
320.000000	36.495880
319.000000	36.550659
318.000000	36.380987
317.000000	36.421763
316.000000	36.497588
315.000000	36.409988
314.000000	36.377580
313.000000	36.155120
312.000000	36.203534
311.000000	36.187988
310.000000	36.190354
309.000000	36.017995
308.000000	35.880485
307.000000	35.856373
306.000000	35.732735
305.000000	35.601106
304.000000	35.513375
303.000000	35.437636
302.000000	35.379506
301.000000	35.324684
300.000000	35.081741
299.000000	34.962721
298.000000	34.676602
297.000000	34.537990
296.000000	34.217995
295.000000	33.675101
294.000000	33.133699
293.000000	32.470632
292.000000	31.722127
291.000000	30.845323
290.000000	30.012813
289.000000	29.188492
288.000000	28.495610
287.000000	27.923337
286.000000	27.475381
285.000000	27.288617
284.000000	27.264795
283.000000	27.344063
282.000000	27.320783
281.000000	27.265279
280.000000	27.276418
279.000000	27.386749
278.000000	27.439558
277.000000	27.630212
276.000000	27.959285
275.000000	28.272740
274.000000	28.556209
273.000000	28.819851
272.000000	29.052685
271.000000	29.264833
270.000000	29.347176
269.000000	29.471577
268.000000	29.754546
267.000000	29.972543
266.000000	30.233238
265.000000	30.516857
264.000000	30.847237
263.000000	31.258324
262.000000	31.502291
261.000000	31.660877
260.000000	31.855498
259.000000	32.087597
258.000000	32.384116
257.000000	32.723591
256.000000	33.035449
255.000000	33.126164
254.000000	33.174544
253.000000	33.092810
252.000000	32.947298
251.000000	32.670241
250.000000	32.203123
249.000000	31.489119
248.000000	30.759218
247.000000	29.804493
246.000000	28.511952
245.000000	27.242911
244.000000	25.944486
243.000000	24.567022
242.000000	23.231845
241.000000	21.968346
240.000000	20.828196
239.000000	19.790082
238.000000	18.753982
237.000000	17.919264
236.000000	17.117100
235.000000	16.480215
234.000000	16.004165
233.000000	15.494378
232.000000	14.999854
231.000000	14.539916
230.000000	14.120433
229.000000	13.709681
228.000000	13.299812
227.000000	12.978962
226.000000	12.750024
225.000000	12.525240
224.000000	12.326949
223.000000	12.242133
222.000000	12.146293
221.000000	12.060635
220.000000	11.989574
219.000000	12.001003
218.000000	12.054791
217.000000	12.116219
216.000000	12.220807
215.000000	12.344035
214.000000	12.448781
213.000000	12.596749
212.000000	12.820826
211.000000	12.934803
210.000000	13.247829
209.000000	13.513374
208.000000	13.611236
207.000000	14.066177
206.000000	14.554339
205.000000	14.915999
204.000000	15.281175
203.000000	15.657643
202.000000	16.216135
201.000000	16.674327
200.000000	17.178593
