PE UV       SUBTECH     SPECTRUM    ASCII       PEDS        4.00        
   -1
TDms1556141.Sample.asc
18/03/15
10:06:17.00
18/03/15
10:06:17.00
Administrator

200.000000
1
Lambda 750
750N8071901
PerkinElmer UV WinLab 6.0.4.0738 / 1.61.00 Lambda 900

0
0
3350/servo 860.8/2
0
0
UV/VIS
1
1
1
CommonBeamDepol,150mm sphere / downward view
0
0
0
0
Program
Program
3350/servo 860.8/2
3350/0.2 860.8/0.2
3350/0.2 860.8/0.2
0
1
 
 
 
0
 
860.8
319.2
860.8
Front
100
on
 
 
0
0
0
 
0
 
 
 
0
 
 
0
0
0
0
0
 
 
 
 
0
0


0
0
#HDR
-1
-1
#GR
nm
%T
1.0
0.0
2350.000000
-1.000000
2151
8
11.691804
-0.009607
#DATA
2350.000000	5.517962
2349.000000	6.112303
2348.000000	6.075537
2347.000000	6.531912
2346.000000	6.677430
2345.000000	6.317849
2344.000000	6.301778
2343.000000	5.824070
2342.000000	6.150632
2341.000000	5.720104
2340.000000	6.202704
2339.000000	6.689400
2338.000000	6.532775
2337.000000	6.482116
2336.000000	6.722930
2335.000000	7.083805
2334.000000	6.713448
2333.000000	6.775594
2332.000000	7.000851
2331.000000	6.932660
2330.000000	6.752544
2329.000000	6.610425
2328.000000	6.748516
2327.000000	6.642658
2326.000000	6.705796
2325.000000	6.744506
2324.000000	6.833414
2323.000000	6.581594
2322.000000	6.619398
2321.000000	6.594908
2320.000000	6.606950
2319.000000	6.458797
2318.000000	6.493875
2317.000000	6.541968
2316.000000	6.604452
2315.000000	6.511649
2314.000000	6.552618
2313.000000	6.641127
2312.000000	6.546765
2311.000000	6.713747
2310.000000	6.520649
2309.000000	6.174188
2308.000000	6.132292
2307.000000	6.097969
2306.000000	6.088454
2305.000000	6.327873
2304.000000	6.273754
2303.000000	6.457749
2302.000000	6.478076
2301.000000	6.405824
2300.000000	6.381555
2299.000000	6.082871
2298.000000	6.249337
2297.000000	6.071406
2296.000000	5.987930
2295.000000	6.077694
2294.000000	5.939683
2293.000000	5.999860
2292.000000	6.075201
2291.000000	5.810650
2290.000000	5.965835
2289.000000	6.007902
2288.000000	6.163229
2287.000000	6.501068
2286.000000	6.283161
2285.000000	6.069390
2284.000000	6.099858
2283.000000	5.895344
2282.000000	5.884410
2281.000000	6.087838
2280.000000	6.052458
2279.000000	6.180608
2278.000000	6.142188
2277.000000	6.060955
2276.000000	6.083442
2275.000000	6.084416
2274.000000	6.064458
2273.000000	6.154587
2272.000000	6.161290
2271.000000	6.150020
2270.000000	6.137922
2269.000000	6.130411
2268.000000	6.131961
2267.000000	6.157855
2266.000000	6.324010
2265.000000	6.227426
2264.000000	6.323097
2263.000000	6.498726
2262.000000	6.566362
2261.000000	6.526435
2260.000000	6.361281
2259.000000	6.425874
2258.000000	6.625333
2257.000000	6.666694
2256.000000	6.613427
2255.000000	6.657984
2254.000000	6.678557
2253.000000	6.666619
2252.000000	6.763594
2251.000000	7.017152
2250.000000	7.073931
2249.000000	7.024602
2248.000000	7.019722
2247.000000	7.012654
2246.000000	7.074648
2245.000000	7.225895
2244.000000	7.350840
2243.000000	7.483955
2242.000000	7.391484
2241.000000	7.263381
2240.000000	7.402331
2239.000000	7.456987
2238.000000	7.424025
2237.000000	7.493343
2236.000000	7.582354
2235.000000	7.530215
2234.000000	7.494813
2233.000000	7.472135
2232.000000	7.570296
2231.000000	7.618886
2230.000000	7.565982
2229.000000	7.669075
2228.000000	7.751010
2227.000000	7.741399
2226.000000	7.682938
2225.000000	7.677895
2224.000000	7.700755
2223.000000	7.602987
2222.000000	7.589313
2221.000000	7.591224
2220.000000	7.664880
2219.000000	7.766032
2218.000000	7.692106
2217.000000	7.658341
2216.000000	7.595715
2215.000000	7.542904
2214.000000	7.541246
2213.000000	7.664513
2212.000000	7.652215
2211.000000	7.624625
2210.000000	7.580626
2209.000000	7.380468
2208.000000	7.408703
2207.000000	7.386201
2206.000000	7.344440
2205.000000	7.338647
2204.000000	7.406606
2203.000000	7.326068
2202.000000	7.295815
2201.000000	7.320653
2200.000000	7.359242
2199.000000	7.154401
2198.000000	7.175293
2197.000000	7.272887
2196.000000	7.275782
2195.000000	7.213811
2194.000000	7.105909
2193.000000	7.010912
2192.000000	7.009830
2191.000000	6.990424
2190.000000	7.029271
2189.000000	6.942043
2188.000000	6.958946
2187.000000	7.005101
2186.000000	6.900898
2185.000000	6.921084
2184.000000	7.070657
2183.000000	7.134283
2182.000000	7.014285
2181.000000	6.918433
2180.000000	7.070259
2179.000000	6.888349
2178.000000	6.800229
2177.000000	6.913513
2176.000000	6.876057
2175.000000	6.884311
2174.000000	7.000588
2173.000000	6.906393
2172.000000	6.973875
2171.000000	7.043435
2170.000000	7.084681
2169.000000	7.094846
2168.000000	7.071008
2167.000000	7.081889
2166.000000	7.031097
2165.000000	7.005746
2164.000000	6.933856
2163.000000	6.975288
2162.000000	7.137076
2161.000000	7.119884
2160.000000	7.179321
2159.000000	7.116026
2158.000000	7.112026
2157.000000	7.441021
2156.000000	7.377991
2155.000000	7.324887
2154.000000	7.480975
2153.000000	7.581255
2152.000000	7.569737
2151.000000	7.495006
2150.000000	7.419812
2149.000000	7.555785
2148.000000	7.442681
2147.000000	7.755889
2146.000000	7.552322
2145.000000	7.722932
2144.000000	7.715928
2143.000000	7.590335
2142.000000	7.684249
2141.000000	7.733724
2140.000000	7.860896
2139.000000	7.928718
2138.000000	7.782821
2137.000000	7.760576
2136.000000	7.860860
2135.000000	7.885839
2134.000000	7.892800
2133.000000	7.704885
2132.000000	8.007853
2131.000000	8.060036
2130.000000	8.139533
2129.000000	7.998117
2128.000000	8.083566
2127.000000	7.978116
2126.000000	8.006605
2125.000000	8.005937
2124.000000	8.106929
2123.000000	8.091596
2122.000000	7.903870
2121.000000	7.943527
2120.000000	7.989394
2119.000000	8.085601
2118.000000	8.140240
2117.000000	8.006453
2116.000000	7.985079
2115.000000	8.034110
2114.000000	8.167577
2113.000000	8.123730
2112.000000	8.148436
2111.000000	8.128953
2110.000000	8.073443
2109.000000	8.017483
2108.000000	7.968553
2107.000000	7.956601
2106.000000	8.075165
2105.000000	7.977002
2104.000000	7.996480
2103.000000	7.891906
2102.000000	8.043322
2101.000000	8.112846
2100.000000	8.189282
2099.000000	8.114976
2098.000000	8.072013
2097.000000	7.981150
2096.000000	8.085073
2095.000000	7.985708
2094.000000	8.049690
2093.000000	8.008860
2092.000000	8.025771
2091.000000	8.018820
2090.000000	8.068118
2089.000000	8.003846
2088.000000	8.033967
2087.000000	7.899298
2086.000000	7.870388
2085.000000	7.973976
2084.000000	7.871332
2083.000000	7.852530
2082.000000	7.846594
2081.000000	7.876163
2080.000000	7.824822
2079.000000	7.794795
2078.000000	7.777781
2077.000000	7.784919
2076.000000	7.734848
2075.000000	7.611866
2074.000000	7.610443
2073.000000	7.635229
2072.000000	7.682318
2071.000000	7.630076
2070.000000	7.500164
2069.000000	7.522923
2068.000000	7.452635
2067.000000	7.329064
2066.000000	7.216272
2065.000000	7.244811
2064.000000	7.173147
2063.000000	7.148196
2062.000000	7.120851
2061.000000	7.090728
2060.000000	7.091644
2059.000000	7.046443
2058.000000	6.990894
2057.000000	6.977961
2056.000000	6.942253
2055.000000	6.899856
2054.000000	6.816512
2053.000000	6.778178
2052.000000	6.749835
2051.000000	6.713666
2050.000000	6.707294
2049.000000	6.710876
2048.000000	6.672744
2047.000000	6.629525
2046.000000	6.622530
2045.000000	6.588707
2044.000000	6.586940
2043.000000	6.541930
2042.000000	6.551167
2041.000000	6.568730
2040.000000	6.521875
2039.000000	6.541090
2038.000000	6.578170
2037.000000	6.583847
2036.000000	6.566613
2035.000000	6.603263
2034.000000	6.687030
2033.000000	6.748728
2032.000000	6.760952
2031.000000	6.690886
2030.000000	6.709799
2029.000000	6.779519
2028.000000	6.778015
2027.000000	6.785409
2026.000000	6.814556
2025.000000	6.844185
2024.000000	6.893459
2023.000000	6.892262
2022.000000	6.884895
2021.000000	6.856860
2020.000000	6.832858
2019.000000	6.867306
2018.000000	6.921842
2017.000000	6.923942
2016.000000	6.882749
2015.000000	6.845438
2014.000000	6.850247
2013.000000	6.855591
2012.000000	6.859965
2011.000000	6.855213
2010.000000	6.787177
2009.000000	6.767709
2008.000000	6.734946
2007.000000	6.719117
2006.000000	6.654512
2005.000000	6.630536
2004.000000	6.616014
2003.000000	6.636854
2002.000000	6.641044
2001.000000	6.565685
2000.000000	6.491885
1999.000000	6.495607
1998.000000	6.473188
1997.000000	6.461803
1996.000000	6.434392
1995.000000	6.365338
1994.000000	6.323250
1993.000000	6.288312
1992.000000	6.242456
1991.000000	6.218558
1990.000000	6.193523
1989.000000	6.148070
1988.000000	6.106985
1987.000000	6.105586
1986.000000	6.107504
1985.000000	6.070256
1984.000000	6.028197
1983.000000	5.992641
1982.000000	5.964958
1981.000000	5.959837
1980.000000	5.933738
1979.000000	5.886991
1978.000000	5.848800
1977.000000	5.766059
1976.000000	5.760388
1975.000000	5.797173
1974.000000	5.737097
1973.000000	5.722494
1972.000000	5.703777
1971.000000	5.678453
1970.000000	5.679985
1969.000000	5.640548
1968.000000	5.566509
1967.000000	5.562403
1966.000000	5.576137
1965.000000	5.533544
1964.000000	5.530614
1963.000000	5.484362
1962.000000	5.460669
1961.000000	5.436967
1960.000000	5.386702
1959.000000	5.362708
1958.000000	5.381505
1957.000000	5.374778
1956.000000	5.333789
1955.000000	5.326343
1954.000000	5.374516
1953.000000	5.345737
1952.000000	5.317740
1951.000000	5.334253
1950.000000	5.319428
1949.000000	5.297047
1948.000000	5.250174
1947.000000	5.278650
1946.000000	5.259284
1945.000000	5.255844
1944.000000	5.261591
1943.000000	5.285670
1942.000000	5.302016
1941.000000	5.255411
1940.000000	5.354305
1939.000000	5.431669
1938.000000	5.363565
1937.000000	5.432125
1936.000000	5.440620
1935.000000	5.435857
1934.000000	5.459487
1933.000000	5.465002
1932.000000	5.490363
1931.000000	5.478781
1930.000000	5.559152
1929.000000	5.541515
1928.000000	5.638736
1927.000000	5.719205
1926.000000	5.709360
1925.000000	5.834035
1924.000000	5.829462
1923.000000	5.877970
1922.000000	5.988385
1921.000000	6.108907
1920.000000	6.119897
1919.000000	6.189828
1918.000000	6.221565
1917.000000	6.316129
1916.000000	6.351357
1915.000000	6.523711
1914.000000	6.604918
1913.000000	6.646091
1912.000000	6.717662
1911.000000	6.869484
1910.000000	6.976624
1909.000000	6.955080
1908.000000	7.087618
1907.000000	7.277871
1906.000000	7.319893
1905.000000	7.510782
1904.000000	7.687361
1903.000000	7.765361
1902.000000	7.874711
1901.000000	8.000923
1900.000000	8.105717
1899.000000	8.270708
1898.000000	8.390076
1897.000000	8.503674
1896.000000	8.576873
1895.000000	8.801160
1894.000000	8.881131
1893.000000	9.006909
1892.000000	9.181356
1891.000000	9.272546
1890.000000	9.455837
1889.000000	9.547569
1888.000000	9.643949
1887.000000	9.817053
1886.000000	9.948260
1885.000000	10.050198
1884.000000	10.121744
1883.000000	10.291375
1882.000000	10.388415
1881.000000	10.482077
1880.000000	10.597343
1879.000000	10.647869
1878.000000	10.718548
1877.000000	10.838370
1876.000000	10.920551
1875.000000	11.015842
1874.000000	11.033078
1873.000000	11.050366
1872.000000	11.171209
1871.000000	11.221216
1870.000000	11.249967
1869.000000	11.281624
1868.000000	11.317889
1867.000000	11.290443
1866.000000	11.305143
1865.000000	11.330801
1864.000000	11.336452
1863.000000	11.359171
1862.000000	11.348200
1861.000000	11.342837
1860.000000	11.336483
1859.000000	11.356265
1858.000000	11.386179
1857.000000	11.378828
1856.000000	11.424489
1855.000000	11.442269
1854.000000	11.446058
1853.000000	11.450831
1852.000000	11.497949
1851.000000	11.487010
1850.000000	11.456086
1849.000000	11.472429
1848.000000	11.449034
1847.000000	11.454685
1846.000000	11.468557
1845.000000	11.447238
1844.000000	11.425698
1843.000000	11.425286
1842.000000	11.424441
1841.000000	11.410297
1840.000000	11.387653
1839.000000	11.372616
1838.000000	11.372959
1837.000000	11.324097
1836.000000	11.304012
1835.000000	11.279198
1834.000000	11.241895
1833.000000	11.224547
1832.000000	11.210144
1831.000000	11.215361
1830.000000	11.234297
1829.000000	11.178782
1828.000000	11.132409
1827.000000	11.130896
1826.000000	11.105510
1825.000000	11.081499
1824.000000	11.080112
1823.000000	11.076616
1822.000000	11.051448
1821.000000	11.035138
1820.000000	11.034871
1819.000000	11.028213
1818.000000	11.003155
1817.000000	11.008065
1816.000000	11.003769
1815.000000	10.997965
1814.000000	10.978546
1813.000000	10.945511
1812.000000	10.957055
1811.000000	10.940411
1810.000000	10.921278
1809.000000	10.931439
1808.000000	10.940163
1807.000000	10.932040
1806.000000	10.919481
1805.000000	10.907189
1804.000000	10.898077
1803.000000	10.896399
1802.000000	10.883303
1801.000000	10.901721
1800.000000	10.898701
1799.000000	10.891830
1798.000000	10.899962
1797.000000	10.892008
1796.000000	10.877956
1795.000000	10.876396
1794.000000	10.890615
1793.000000	10.897740
1792.000000	10.903680
1791.000000	10.916619
1790.000000	10.918502
1789.000000	10.919615
1788.000000	10.904943
1787.000000	10.914654
1786.000000	10.926889
1785.000000	10.913543
1784.000000	10.880579
1783.000000	10.880027
1782.000000	10.891947
1781.000000	10.883951
1780.000000	10.885210
1779.000000	10.882251
1778.000000	10.883474
1777.000000	10.866021
1776.000000	10.836425
1775.000000	10.814847
1774.000000	10.765590
1773.000000	10.769921
1772.000000	10.773874
1771.000000	10.758537
1770.000000	10.720359
1769.000000	10.666657
1768.000000	10.651661
1767.000000	10.651886
1766.000000	10.633411
1765.000000	10.610341
1764.000000	10.624893
1763.000000	10.599050
1762.000000	10.582248
1761.000000	10.558182
1760.000000	10.552324
1759.000000	10.526070
1758.000000	10.506623
1757.000000	10.489168
1756.000000	10.477390
1755.000000	10.452842
1754.000000	10.442531
1753.000000	10.419517
1752.000000	10.413062
1751.000000	10.412151
1750.000000	10.433493
1749.000000	10.392340
1748.000000	10.357592
1747.000000	10.332140
1746.000000	10.296882
1745.000000	10.259003
1744.000000	10.257973
1743.000000	10.259591
1742.000000	10.259576
1741.000000	10.236016
1740.000000	10.243296
1739.000000	10.199480
1738.000000	10.184633
1737.000000	10.165508
1736.000000	10.173794
1735.000000	10.163351
1734.000000	10.151193
1733.000000	10.139740
1732.000000	10.111914
1731.000000	10.121847
1730.000000	10.114205
1729.000000	10.142416
1728.000000	10.157418
1727.000000	10.144901
1726.000000	10.128173
1725.000000	10.183032
1724.000000	10.161878
1723.000000	10.194113
1722.000000	10.247851
1721.000000	10.238567
1720.000000	10.276473
1719.000000	10.307211
1718.000000	10.279408
1717.000000	10.304996
1716.000000	10.323695
1715.000000	10.350000
1714.000000	10.341383
1713.000000	10.359931
1712.000000	10.370632
1711.000000	10.403819
1710.000000	10.410675
1709.000000	10.431814
1708.000000	10.430838
1707.000000	10.439700
1706.000000	10.436698
1705.000000	10.432466
1704.000000	10.466922
1703.000000	10.461936
1702.000000	10.456229
1701.000000	10.471767
1700.000000	10.461754
1699.000000	10.448883
1698.000000	10.475187
1697.000000	10.464336
1696.000000	10.528179
1695.000000	10.490397
1694.000000	10.468097
1693.000000	10.504188
1692.000000	10.512203
1691.000000	10.528568
1690.000000	10.549270
1689.000000	10.561614
1688.000000	10.581266
1687.000000	10.599556
1686.000000	10.611135
1685.000000	10.661803
1684.000000	10.672305
1683.000000	10.680538
1682.000000	10.748539
1681.000000	10.776915
1680.000000	10.805892
1679.000000	10.848078
1678.000000	10.917979
1677.000000	10.923460
1676.000000	10.947350
1675.000000	11.009052
1674.000000	11.042192
1673.000000	11.046166
1672.000000	11.087295
1671.000000	11.126636
1670.000000	11.146359
1669.000000	11.180119
1668.000000	11.205722
1667.000000	11.259612
1666.000000	11.264161
1665.000000	11.261332
1664.000000	11.267697
1663.000000	11.288335
1662.000000	11.297638
1661.000000	11.314355
1660.000000	11.323108
1659.000000	11.329132
1658.000000	11.360384
1657.000000	11.381693
1656.000000	11.381736
1655.000000	11.379215
1654.000000	11.383342
1653.000000	11.393851
1652.000000	11.390859
1651.000000	11.380724
1650.000000	11.367750
1649.000000	11.361177
1648.000000	11.338932
1647.000000	11.339093
1646.000000	11.324166
1645.000000	11.312139
1644.000000	11.296751
1643.000000	11.304668
1642.000000	11.298121
1641.000000	11.268288
1640.000000	11.276740
1639.000000	11.277280
1638.000000	11.254456
1637.000000	11.243036
1636.000000	11.214904
1635.000000	11.212340
1634.000000	11.186709
1633.000000	11.166524
1632.000000	11.156389
1631.000000	11.153276
1630.000000	11.138434
1629.000000	11.119263
1628.000000	11.100888
1627.000000	11.083036
1626.000000	11.070692
1625.000000	11.065925
1624.000000	11.056180
1623.000000	11.048865
1622.000000	11.034686
1621.000000	11.004616
1620.000000	10.983514
1619.000000	10.959017
1618.000000	10.943897
1617.000000	10.949137
1616.000000	10.945423
1615.000000	10.926743
1614.000000	10.901810
1613.000000	10.877995
1612.000000	10.869268
1611.000000	10.858178
1610.000000	10.846299
1609.000000	10.828657
1608.000000	10.815518
1607.000000	10.815326
1606.000000	10.798361
1605.000000	10.775807
1604.000000	10.740803
1603.000000	10.731739
1602.000000	10.726489
1601.000000	10.718643
1600.000000	10.702428
1599.000000	10.689458
1598.000000	10.669166
1597.000000	10.662665
1596.000000	10.651142
1595.000000	10.632527
1594.000000	10.626789
1593.000000	10.625286
1592.000000	10.609991
1591.000000	10.586341
1590.000000	10.570921
1589.000000	10.556743
1588.000000	10.543772
1587.000000	10.536517
1586.000000	10.530385
1585.000000	10.511206
1584.000000	10.478680
1583.000000	10.476777
1582.000000	10.464230
1581.000000	10.454742
1580.000000	10.462446
1579.000000	10.433064
1578.000000	10.421479
1577.000000	10.415371
1576.000000	10.394531
1575.000000	10.386191
1574.000000	10.369827
1573.000000	10.356453
1572.000000	10.332437
1571.000000	10.313671
1570.000000	10.301135
1569.000000	10.288451
1568.000000	10.289021
1567.000000	10.265750
1566.000000	10.236867
1565.000000	10.238001
1564.000000	10.229526
1563.000000	10.210328
1562.000000	10.193111
1561.000000	10.173626
1560.000000	10.170295
1559.000000	10.169286
1558.000000	10.143703
1557.000000	10.112908
1556.000000	10.095180
1555.000000	10.095318
1554.000000	10.083119
1553.000000	10.070237
1552.000000	10.060007
1551.000000	10.047107
1550.000000	10.023219
1549.000000	9.989864
1548.000000	9.978240
1547.000000	9.953431
1546.000000	9.932942
1545.000000	9.904258
1544.000000	9.886215
1543.000000	9.865630
1542.000000	9.834820
1541.000000	9.820596
1540.000000	9.801472
1539.000000	9.764389
1538.000000	9.722716
1537.000000	9.694062
1536.000000	9.687857
1535.000000	9.654270
1534.000000	9.631329
1533.000000	9.611932
1532.000000	9.587201
1531.000000	9.548740
1530.000000	9.538004
1529.000000	9.515128
1528.000000	9.495036
1527.000000	9.466937
1526.000000	9.455774
1525.000000	9.437266
1524.000000	9.409252
1523.000000	9.408220
1522.000000	9.401911
1521.000000	9.386901
1520.000000	9.368522
1519.000000	9.363131
1518.000000	9.357438
1517.000000	9.341738
1516.000000	9.330528
1515.000000	9.319071
1514.000000	9.325638
1513.000000	9.309617
1512.000000	9.314463
1511.000000	9.305051
1510.000000	9.295866
1509.000000	9.294420
1508.000000	9.287167
1507.000000	9.302590
1506.000000	9.280396
1505.000000	9.287837
1504.000000	9.274822
1503.000000	9.283833
1502.000000	9.304936
1501.000000	9.291453
1500.000000	9.293653
1499.000000	9.324362
1498.000000	9.315209
1497.000000	9.298165
1496.000000	9.272362
1495.000000	9.285773
1494.000000	9.271397
1493.000000	9.287101
1492.000000	9.282245
1491.000000	9.292367
1490.000000	9.289853
1489.000000	9.287866
1488.000000	9.263515
1487.000000	9.289994
1486.000000	9.282675
1485.000000	9.248861
1484.000000	9.256746
1483.000000	9.276449
1482.000000	9.258755
1481.000000	9.291622
1480.000000	9.297739
1479.000000	9.294898
1478.000000	9.292480
1477.000000	9.276104
1476.000000	9.282320
1475.000000	9.298978
1474.000000	9.275926
1473.000000	9.291061
1472.000000	9.283820
1471.000000	9.288794
1470.000000	9.306408
1469.000000	9.297375
1468.000000	9.303232
1467.000000	9.321435
1466.000000	9.332724
1465.000000	9.348050
1464.000000	9.341257
1463.000000	9.325407
1462.000000	9.334038
1461.000000	9.336740
1460.000000	9.359363
1459.000000	9.379742
1458.000000	9.371413
1457.000000	9.369290
1456.000000	9.407430
1455.000000	9.417923
1454.000000	9.399422
1453.000000	9.407874
1452.000000	9.415735
1451.000000	9.454996
1450.000000	9.465849
1449.000000	9.462297
1448.000000	9.469132
1447.000000	9.471944
1446.000000	9.481278
1445.000000	9.495387
1444.000000	9.550920
1443.000000	9.572726
1442.000000	9.588588
1441.000000	9.576393
1440.000000	9.583446
1439.000000	9.607593
1438.000000	9.627391
1437.000000	9.664143
1436.000000	9.699325
1435.000000	9.692005
1434.000000	9.721362
1433.000000	9.753000
1432.000000	9.791076
1431.000000	9.819996
1430.000000	9.839498
1429.000000	9.887211
1428.000000	9.910272
1427.000000	9.931932
1426.000000	9.973945
1425.000000	10.017170
1424.000000	10.064501
1423.000000	10.089524
1422.000000	10.127335
1421.000000	10.160384
1420.000000	10.194011
1419.000000	10.224906
1418.000000	10.248586
1417.000000	10.267207
1416.000000	10.321487
1415.000000	10.377949
1414.000000	10.425035
1413.000000	10.456055
1412.000000	10.490291
1411.000000	10.553224
1410.000000	10.600956
1409.000000	10.628754
1408.000000	10.670128
1407.000000	10.723956
1406.000000	10.767094
1405.000000	10.806449
1404.000000	10.824720
1403.000000	10.858499
1402.000000	10.902237
1401.000000	10.942719
1400.000000	10.979530
1399.000000	11.018375
1398.000000	11.054707
1397.000000	11.076499
1396.000000	11.091055
1395.000000	11.120298
1394.000000	11.159087
1393.000000	11.186885
1392.000000	11.201612
1391.000000	11.223625
1390.000000	11.241418
1389.000000	11.260789
1388.000000	11.290274
1387.000000	11.327639
1386.000000	11.353906
1385.000000	11.374972
1384.000000	11.398777
1383.000000	11.416714
1382.000000	11.417496
1381.000000	11.422457
1380.000000	11.451715
1379.000000	11.465086
1378.000000	11.477806
1377.000000	11.493372
1376.000000	11.487774
1375.000000	11.491809
1374.000000	11.498492
1373.000000	11.513387
1372.000000	11.541245
1371.000000	11.551617
1370.000000	11.551267
1369.000000	11.551580
1368.000000	11.549718
1367.000000	11.554966
1366.000000	11.572100
1365.000000	11.571448
1364.000000	11.566249
1363.000000	11.569123
1362.000000	11.594070
1361.000000	11.613362
1360.000000	11.608951
1359.000000	11.602638
1358.000000	11.605525
1357.000000	11.614003
1356.000000	11.599963
1355.000000	11.589874
1354.000000	11.604849
1353.000000	11.606586
1352.000000	11.615214
1351.000000	11.626470
1350.000000	11.623550
1349.000000	11.614739
1348.000000	11.615322
1347.000000	11.631377
1346.000000	11.638532
1345.000000	11.649972
1344.000000	11.669792
1343.000000	11.659960
1342.000000	11.656294
1341.000000	11.646792
1340.000000	11.659398
1339.000000	11.676017
1338.000000	11.685079
1337.000000	11.671996
1336.000000	11.671882
1335.000000	11.672805
1334.000000	11.684297
1333.000000	11.680324
1332.000000	11.683521
1331.000000	11.663664
1330.000000	11.672497
1329.000000	11.684093
1328.000000	11.675237
1327.000000	11.651589
1326.000000	11.665566
1325.000000	11.680917
1324.000000	11.662331
1323.000000	11.667534
1322.000000	11.691804
1321.000000	11.668872
1320.000000	11.655228
1319.000000	11.659787
1318.000000	11.645474
1317.000000	11.651201
1316.000000	11.662969
1315.000000	11.644852
1314.000000	11.642091
1313.000000	11.660419
1312.000000	11.637759
1311.000000	11.648904
1310.000000	11.657166
1309.000000	11.657089
1308.000000	11.635783
1307.000000	11.653992
1306.000000	11.660529
1305.000000	11.646532
1304.000000	11.629705
1303.000000	11.621578
1302.000000	11.626144
1301.000000	11.627239
1300.000000	11.630034
1299.000000	11.660979
1298.000000	11.674098
1297.000000	11.652366
1296.000000	11.646050
1295.000000	11.641723
1294.000000	11.635493
1293.000000	11.657550
1292.000000	11.635911
1291.000000	11.648009
1290.000000	11.595400
1289.000000	11.575031
1288.000000	11.576830
1287.000000	11.588205
1286.000000	11.601107
1285.000000	11.585658
1284.000000	11.567726
1283.000000	11.567860
1282.000000	11.570667
1281.000000	11.535121
1280.000000	11.513797
1279.000000	11.523881
1278.000000	11.530599
1277.000000	11.516416
1276.000000	11.505343
1275.000000	11.488387
1274.000000	11.487146
1273.000000	11.495961
1272.000000	11.480597
1271.000000	11.478573
1270.000000	11.489420
1269.000000	11.463112
1268.000000	11.496720
1267.000000	11.483034
1266.000000	11.482374
1265.000000	11.454266
1264.000000	11.465519
1263.000000	11.455841
1262.000000	11.445078
1261.000000	11.451967
1260.000000	11.456118
1259.000000	11.443687
1258.000000	11.440646
1257.000000	11.420675
1256.000000	11.425084
1255.000000	11.438987
1254.000000	11.456312
1253.000000	11.463497
1252.000000	11.442865
1251.000000	11.445780
1250.000000	11.439563
1249.000000	11.438730
1248.000000	11.447628
1247.000000	11.435539
1246.000000	11.447565
1245.000000	11.441912
1244.000000	11.407420
1243.000000	11.381588
1242.000000	11.401196
1241.000000	11.405824
1240.000000	11.407679
1239.000000	11.352116
1238.000000	11.347498
1237.000000	11.362330
1236.000000	11.373125
1235.000000	11.338121
1234.000000	11.327364
1233.000000	11.334615
1232.000000	11.328860
1231.000000	11.286257
1230.000000	11.271097
1229.000000	11.289585
1228.000000	11.283887
1227.000000	11.283273
1226.000000	11.246966
1225.000000	11.215602
1224.000000	11.209204
1223.000000	11.193502
1222.000000	11.189492
1221.000000	11.181969
1220.000000	11.167424
1219.000000	11.139458
1218.000000	11.139304
1217.000000	11.130449
1216.000000	11.137883
1215.000000	11.148757
1214.000000	11.119316
1213.000000	11.098245
1212.000000	11.110161
1211.000000	11.106260
1210.000000	11.063105
1209.000000	11.040941
1208.000000	11.058121
1207.000000	11.046602
1206.000000	11.029318
1205.000000	11.044918
1204.000000	11.031369
1203.000000	10.995151
1202.000000	10.988249
1201.000000	11.003298
1200.000000	10.997231
1199.000000	10.975212
1198.000000	10.966552
1197.000000	10.956743
1196.000000	10.976210
1195.000000	10.975074
1194.000000	10.959072
1193.000000	10.953021
1192.000000	10.945342
1191.000000	10.944340
1190.000000	10.929738
1189.000000	10.903589
1188.000000	10.909837
1187.000000	10.923281
1186.000000	10.902560
1185.000000	10.887057
1184.000000	10.892253
1183.000000	10.898673
1182.000000	10.914795
1181.000000	10.912177
1180.000000	10.910747
1179.000000	10.914715
1178.000000	10.925747
1177.000000	10.943405
1176.000000	10.951112
1175.000000	10.957216
1174.000000	10.953100
1173.000000	10.964959
1172.000000	10.988259
1171.000000	10.981982
1170.000000	10.984355
1169.000000	10.990099
1168.000000	10.996532
1167.000000	11.014965
1166.000000	11.000221
1165.000000	10.971176
1164.000000	10.982701
1163.000000	10.997466
1162.000000	11.008836
1161.000000	11.019226
1160.000000	11.039860
1159.000000	11.063245
1158.000000	11.069036
1157.000000	11.073821
1156.000000	11.079856
1155.000000	11.091193
1154.000000	11.098118
1153.000000	11.098333
1152.000000	11.108738
1151.000000	11.121739
1150.000000	11.131851
1149.000000	11.132459
1148.000000	11.103785
1147.000000	11.086930
1146.000000	11.097931
1145.000000	11.107661
1144.000000	11.108963
1143.000000	11.109130
1142.000000	11.117976
1141.000000	11.129344
1140.000000	11.135208
1139.000000	11.146373
1138.000000	11.156567
1137.000000	11.151577
1136.000000	11.153348
1135.000000	11.161754
1134.000000	11.144892
1133.000000	11.136690
1132.000000	11.138876
1131.000000	11.141325
1130.000000	11.144197
1129.000000	11.153716
1128.000000	11.152090
1127.000000	11.148029
1126.000000	11.154788
1125.000000	11.152310
1124.000000	11.154548
1123.000000	11.149401
1122.000000	11.144533
1121.000000	11.145160
1120.000000	11.141118
1119.000000	11.134849
1118.000000	11.136990
1117.000000	11.135975
1116.000000	11.144917
1115.000000	11.133831
1114.000000	11.113673
1113.000000	11.082662
1112.000000	11.061894
1111.000000	11.073053
1110.000000	11.058659
1109.000000	11.074707
1108.000000	11.086099
1107.000000	11.090481
1106.000000	11.080498
1105.000000	11.086385
1104.000000	11.089483
1103.000000	11.097786
1102.000000	11.094090
1101.000000	11.093237
1100.000000	11.093195
1099.000000	11.063658
1098.000000	11.038061
1097.000000	11.030780
1096.000000	11.028353
1095.000000	11.042250
1094.000000	11.041548
1093.000000	11.045922
1092.000000	11.059656
1091.000000	11.025832
1090.000000	11.007040
1089.000000	11.022232
1088.000000	11.023199
1087.000000	11.027771
1086.000000	11.020230
1085.000000	10.987058
1084.000000	10.978971
1083.000000	10.978844
1082.000000	10.978880
1081.000000	10.999865
1080.000000	10.994674
1079.000000	10.980975
1078.000000	10.956545
1077.000000	10.956876
1076.000000	10.946408
1075.000000	10.945248
1074.000000	10.946092
1073.000000	10.953066
1072.000000	10.962398
1071.000000	10.918738
1070.000000	10.912732
1069.000000	10.920628
1068.000000	10.906556
1067.000000	10.919836
1066.000000	10.924359
1065.000000	10.941902
1064.000000	10.884577
1063.000000	10.901083
1062.000000	10.895578
1061.000000	10.889892
1060.000000	10.878548
1059.000000	10.876456
1058.000000	10.847117
1057.000000	10.841807
1056.000000	10.847320
1055.000000	10.871589
1054.000000	10.892952
1053.000000	10.863349
1052.000000	10.824704
1051.000000	10.815680
1050.000000	10.836194
1049.000000	10.833200
1048.000000	10.807574
1047.000000	10.797986
1046.000000	10.818329
1045.000000	10.815157
1044.000000	10.810366
1043.000000	10.785121
1042.000000	10.781661
1041.000000	10.805799
1040.000000	10.809951
1039.000000	10.771012
1038.000000	10.759531
1037.000000	10.760229
1036.000000	10.783022
1035.000000	10.749533
1034.000000	10.763789
1033.000000	10.762935
1032.000000	10.760379
1031.000000	10.740911
1030.000000	10.760853
1029.000000	10.747065
1028.000000	10.770330
1027.000000	10.731258
1026.000000	10.732032
1025.000000	10.739727
1024.000000	10.718386
1023.000000	10.721435
1022.000000	10.713600
1021.000000	10.708670
1020.000000	10.701361
1019.000000	10.708306
1018.000000	10.721655
1017.000000	10.697561
1016.000000	10.684041
1015.000000	10.692437
1014.000000	10.698832
1013.000000	10.709706
1012.000000	10.695796
1011.000000	10.692466
1010.000000	10.681287
1009.000000	10.682285
1008.000000	10.697255
1007.000000	10.719240
1006.000000	10.719993
1005.000000	10.728699
1004.000000	10.733340
1003.000000	10.717494
1002.000000	10.729289
1001.000000	10.733224
1000.000000	10.729537
999.000000	10.741568
998.000000	10.726686
997.000000	10.728964
996.000000	10.734577
995.000000	10.726040
994.000000	10.723299
993.000000	10.732096
992.000000	10.722606
991.000000	10.723261
990.000000	10.709676
989.000000	10.702423
988.000000	10.716918
987.000000	10.713695
986.000000	10.709379
985.000000	10.704845
984.000000	10.718113
983.000000	10.700003
982.000000	10.692107
981.000000	10.683009
980.000000	10.702089
979.000000	10.699166
978.000000	10.689456
977.000000	10.681234
976.000000	10.673382
975.000000	10.674651
974.000000	10.669607
973.000000	10.672908
972.000000	10.668317
971.000000	10.663314
970.000000	10.673351
969.000000	10.669468
968.000000	10.658700
967.000000	10.651091
966.000000	10.644710
965.000000	10.642455
964.000000	10.634648
963.000000	10.646390
962.000000	10.643450
961.000000	10.629527
960.000000	10.635308
959.000000	10.642686
958.000000	10.620609
957.000000	10.617948
956.000000	10.625333
955.000000	10.627334
954.000000	10.618686
953.000000	10.621808
952.000000	10.619742
951.000000	10.616676
950.000000	10.617476
949.000000	10.621826
948.000000	10.623410
947.000000	10.608975
946.000000	10.607807
945.000000	10.606649
944.000000	10.594412
943.000000	10.600502
942.000000	10.589183
941.000000	10.580888
940.000000	10.573475
939.000000	10.570517
938.000000	10.567842
937.000000	10.547816
936.000000	10.533203
935.000000	10.543832
934.000000	10.559891
933.000000	10.542362
932.000000	10.509559
931.000000	10.507408
930.000000	10.530269
929.000000	10.522029
928.000000	10.497510
927.000000	10.493238
926.000000	10.497323
925.000000	10.506927
924.000000	10.528207
923.000000	10.518740
922.000000	10.479519
921.000000	10.467528
920.000000	10.480610
919.000000	10.478829
918.000000	10.485976
917.000000	10.474542
916.000000	10.462121
915.000000	10.451552
914.000000	10.453173
913.000000	10.497568
912.000000	10.487124
911.000000	10.468297
910.000000	10.460660
909.000000	10.460163
908.000000	10.450640
907.000000	10.411891
906.000000	10.424965
905.000000	10.451627
904.000000	10.446299
903.000000	10.447142
902.000000	10.449007
901.000000	10.448010
900.000000	10.468615
899.000000	10.426622
898.000000	10.423881
897.000000	10.433035
896.000000	10.415303
895.000000	10.410489
894.000000	10.419086
893.000000	10.427115
892.000000	10.396072
891.000000	10.394850
890.000000	10.402156
889.000000	10.344581
888.000000	10.414104
887.000000	10.427845
886.000000	10.436719
885.000000	10.457898
884.000000	10.390775
883.000000	10.348992
882.000000	10.306639
881.000000	10.336514
880.000000	10.365011
879.000000	10.400083
878.000000	10.376872
877.000000	10.350738
876.000000	10.348089
875.000000	10.300071
874.000000	10.328861
873.000000	10.353785
872.000000	10.319896
871.000000	10.238285
870.000000	10.234963
869.000000	10.212668
868.000000	10.326326
867.000000	10.246015
866.000000	10.228307
865.000000	10.322566
864.000000	10.263409
863.000000	10.260576
862.000000	10.109611
861.000000	10.167202
860.000000	10.089270
859.000000	9.044809
858.000000	8.969556
857.000000	8.950882
856.000000	9.056480
855.000000	9.073030
854.000000	9.104738
853.000000	9.071244
852.000000	8.969725
851.000000	9.004037
850.000000	8.992686
849.000000	8.972892
848.000000	8.962522
847.000000	8.981623
846.000000	8.873181
845.000000	8.915221
844.000000	8.906255
843.000000	8.931637
842.000000	8.953613
841.000000	8.921597
840.000000	8.892327
839.000000	8.915735
838.000000	8.871446
837.000000	8.889532
836.000000	8.915421
835.000000	8.869840
834.000000	8.893983
833.000000	8.846106
832.000000	8.818708
831.000000	8.815243
830.000000	8.801761
829.000000	8.809755
828.000000	8.772616
827.000000	8.798478
826.000000	8.769099
825.000000	8.771457
824.000000	8.791127
823.000000	8.733631
822.000000	8.777545
821.000000	8.764397
820.000000	8.715315
819.000000	8.731176
818.000000	8.746425
817.000000	8.735201
816.000000	8.713780
815.000000	8.719094
814.000000	8.685647
813.000000	8.701598
812.000000	8.673032
811.000000	8.637563
810.000000	8.631175
809.000000	8.614213
808.000000	8.610000
807.000000	8.624293
806.000000	8.635524
805.000000	8.614254
804.000000	8.586081
803.000000	8.584827
802.000000	8.613951
801.000000	8.561116
800.000000	8.552640
799.000000	8.566444
798.000000	8.517630
797.000000	8.527213
796.000000	8.530178
795.000000	8.509958
794.000000	8.474339
793.000000	8.486414
792.000000	8.504032
791.000000	8.481512
790.000000	8.455352
789.000000	8.476322
788.000000	8.419077
787.000000	8.418482
786.000000	8.426847
785.000000	8.420878
784.000000	8.379468
783.000000	8.395449
782.000000	8.373625
781.000000	8.374888
780.000000	8.395273
779.000000	8.382695
778.000000	8.377094
777.000000	8.336376
776.000000	8.333311
775.000000	8.321636
774.000000	8.334886
773.000000	8.311519
772.000000	8.285547
771.000000	8.281920
770.000000	8.287745
769.000000	8.271642
768.000000	8.266349
767.000000	8.244306
766.000000	8.238560
765.000000	8.214998
764.000000	8.193915
763.000000	8.189633
762.000000	8.187891
761.000000	8.171324
760.000000	8.171248
759.000000	8.188310
758.000000	8.155609
757.000000	8.153998
756.000000	8.137719
755.000000	8.134362
754.000000	8.110117
753.000000	8.093257
752.000000	8.101497
751.000000	8.091195
750.000000	8.073782
749.000000	8.069349
748.000000	8.051084
747.000000	8.025030
746.000000	8.002250
745.000000	7.998772
744.000000	7.989771
743.000000	7.976367
742.000000	7.985608
741.000000	7.958161
740.000000	7.949319
739.000000	7.941560
738.000000	7.929304
737.000000	7.906850
736.000000	7.886928
735.000000	7.869611
734.000000	7.868752
733.000000	7.866727
732.000000	7.844944
731.000000	7.828175
730.000000	7.811325
729.000000	7.810968
728.000000	7.795885
727.000000	7.774397
726.000000	7.764215
725.000000	7.745908
724.000000	7.731693
723.000000	7.720851
722.000000	7.696749
721.000000	7.697673
720.000000	7.698239
719.000000	7.675291
718.000000	7.643398
717.000000	7.644136
716.000000	7.636415
715.000000	7.613633
714.000000	7.609033
713.000000	7.590004
712.000000	7.568544
711.000000	7.550119
710.000000	7.542858
709.000000	7.535901
708.000000	7.515384
707.000000	7.490487
706.000000	7.480697
705.000000	7.480784
704.000000	7.468358
703.000000	7.447399
702.000000	7.431516
701.000000	7.402327
700.000000	7.390999
699.000000	7.381656
698.000000	7.361665
697.000000	7.349184
696.000000	7.324889
695.000000	7.304130
694.000000	7.277688
693.000000	7.273834
692.000000	7.273077
691.000000	7.247923
690.000000	7.225364
689.000000	7.211535
688.000000	7.201797
687.000000	7.186008
686.000000	7.158907
685.000000	7.134786
684.000000	7.123084
683.000000	7.111609
682.000000	7.087306
681.000000	7.072529
680.000000	7.056208
679.000000	7.043947
678.000000	7.019929
677.000000	6.990112
676.000000	6.981196
675.000000	6.971778
674.000000	6.944304
673.000000	6.921282
672.000000	6.902980
671.000000	6.893664
670.000000	6.866572
669.000000	6.850659
668.000000	6.835280
667.000000	6.816270
666.000000	6.805945
665.000000	6.787509
664.000000	6.766556
663.000000	6.747943
662.000000	6.736781
661.000000	6.712391
660.000000	6.691506
659.000000	6.673272
658.000000	6.645331
657.000000	6.616952
656.000000	6.594312
655.000000	6.583139
654.000000	6.571142
653.000000	6.548425
652.000000	6.537201
651.000000	6.518434
650.000000	6.498972
649.000000	6.491413
648.000000	6.458834
647.000000	6.442504
646.000000	6.416999
645.000000	6.388213
644.000000	6.373612
643.000000	6.355124
642.000000	6.333371
641.000000	6.317132
640.000000	6.297178
639.000000	6.276686
638.000000	6.258419
637.000000	6.238194
636.000000	6.220692
635.000000	6.192397
634.000000	6.177906
633.000000	6.154677
632.000000	6.119880
631.000000	6.116432
630.000000	6.086105
629.000000	6.065425
628.000000	6.043082
627.000000	6.027489
626.000000	6.000814
625.000000	5.981980
624.000000	5.958917
623.000000	5.941230
622.000000	5.912663
621.000000	5.889286
620.000000	5.870296
619.000000	5.847707
618.000000	5.830440
617.000000	5.803543
616.000000	5.772160
615.000000	5.756427
614.000000	5.741669
613.000000	5.714955
612.000000	5.700242
611.000000	5.671611
610.000000	5.648033
609.000000	5.625843
608.000000	5.593692
607.000000	5.579529
606.000000	5.546440
605.000000	5.525408
604.000000	5.496875
603.000000	5.471136
602.000000	5.454522
601.000000	5.422803
600.000000	5.409182
599.000000	5.385201
598.000000	5.357928
597.000000	5.333315
596.000000	5.308484
595.000000	5.290728
594.000000	5.269163
593.000000	5.242242
592.000000	5.208606
591.000000	5.192788
590.000000	5.150808
589.000000	5.141578
588.000000	5.118815
587.000000	5.080398
586.000000	5.060400
585.000000	5.046939
584.000000	5.020491
583.000000	4.998102
582.000000	4.967816
581.000000	4.930265
580.000000	4.915391
579.000000	4.873907
578.000000	4.853460
577.000000	4.842570
576.000000	4.815005
575.000000	4.776726
574.000000	4.759981
573.000000	4.728728
572.000000	4.687570
571.000000	4.676929
570.000000	4.649962
569.000000	4.634859
568.000000	4.592586
567.000000	4.555137
566.000000	4.535684
565.000000	4.503365
564.000000	4.473319
563.000000	4.459248
562.000000	4.435191
561.000000	4.402604
560.000000	4.370421
559.000000	4.345438
558.000000	4.318054
557.000000	4.292693
556.000000	4.254373
555.000000	4.231036
554.000000	4.201489
553.000000	4.172710
552.000000	4.146977
551.000000	4.127377
550.000000	4.098781
549.000000	4.068669
548.000000	4.038550
547.000000	4.011150
546.000000	3.983807
545.000000	3.955532
544.000000	3.923321
543.000000	3.898422
542.000000	3.871557
541.000000	3.838789
540.000000	3.809404
539.000000	3.785902
538.000000	3.756892
537.000000	3.719708
536.000000	3.693097
535.000000	3.665533
534.000000	3.637110
533.000000	3.606694
532.000000	3.574114
531.000000	3.546699
530.000000	3.515014
529.000000	3.484171
528.000000	3.453819
527.000000	3.430627
526.000000	3.397553
525.000000	3.366686
524.000000	3.334066
523.000000	3.301816
522.000000	3.272493
521.000000	3.243198
520.000000	3.214138
519.000000	3.175322
518.000000	3.139564
517.000000	3.105718
516.000000	3.075165
515.000000	3.043037
514.000000	3.009888
513.000000	2.973479
512.000000	2.938417
511.000000	2.903810
510.000000	2.873599
509.000000	2.843837
508.000000	2.807187
507.000000	2.774195
506.000000	2.740333
505.000000	2.706678
504.000000	2.672776
503.000000	2.642926
502.000000	2.613902
501.000000	2.589622
500.000000	2.566828
499.000000	2.535354
498.000000	2.510755
497.000000	2.489470
496.000000	2.456576
495.000000	2.427545
494.000000	2.401970
493.000000	2.380850
492.000000	2.356347
491.000000	2.334950
490.000000	2.318289
489.000000	2.300969
488.000000	2.271749
487.000000	2.243238
486.000000	2.219178
485.000000	2.202501
484.000000	2.188156
483.000000	2.165822
482.000000	2.140977
481.000000	2.118500
480.000000	2.099155
479.000000	2.071098
478.000000	2.037779
477.000000	2.005569
476.000000	1.979989
475.000000	1.958099
474.000000	1.937389
473.000000	1.907337
472.000000	1.880735
471.000000	1.859931
470.000000	1.831611
469.000000	1.806892
468.000000	1.778550
467.000000	1.751009
466.000000	1.723001
465.000000	1.697317
464.000000	1.677622
463.000000	1.653671
462.000000	1.631507
461.000000	1.608187
460.000000	1.582790
459.000000	1.562523
458.000000	1.540955
457.000000	1.516726
456.000000	1.493806
455.000000	1.473376
454.000000	1.454230
453.000000	1.428168
452.000000	1.401900
451.000000	1.381102
450.000000	1.360716
449.000000	1.340263
448.000000	1.321024
447.000000	1.296888
446.000000	1.276574
445.000000	1.257907
444.000000	1.240604
443.000000	1.221700
442.000000	1.193176
441.000000	1.170687
440.000000	1.150160
439.000000	1.124923
438.000000	1.103531
437.000000	1.088016
436.000000	1.071590
435.000000	1.045652
434.000000	1.024975
433.000000	1.004373
432.000000	0.984328
431.000000	0.961424
430.000000	0.945001
429.000000	0.925030
428.000000	0.909950
427.000000	0.893094
426.000000	0.871730
425.000000	0.848055
424.000000	0.834694
423.000000	0.815752
422.000000	0.795738
421.000000	0.781727
420.000000	0.766580
419.000000	0.745604
418.000000	0.728076
417.000000	0.712252
416.000000	0.699385
415.000000	0.680694
414.000000	0.667122
413.000000	0.650586
412.000000	0.630361
411.000000	0.611226
410.000000	0.597731
409.000000	0.585781
408.000000	0.569506
407.000000	0.558209
406.000000	0.543424
405.000000	0.529529
404.000000	0.511300
403.000000	0.504597
402.000000	0.491219
401.000000	0.476834
400.000000	0.462503
399.000000	0.449828
398.000000	0.442150
397.000000	0.428216
396.000000	0.424690
395.000000	0.410623
394.000000	0.396699
393.000000	0.384268
392.000000	0.372226
391.000000	0.366354
390.000000	0.354191
389.000000	0.347809
388.000000	0.337742
387.000000	0.327799
386.000000	0.317189
385.000000	0.307050
384.000000	0.304588
383.000000	0.294601
382.000000	0.276632
381.000000	0.272343
380.000000	0.261622
379.000000	0.256749
378.000000	0.250269
377.000000	0.267433
376.000000	0.266250
375.000000	0.259401
374.000000	0.245456
373.000000	0.236219
372.000000	0.228232
371.000000	0.218526
370.000000	0.215603
369.000000	0.201172
368.000000	0.199478
367.000000	0.195362
366.000000	0.188220
365.000000	0.175098
364.000000	0.176128
363.000000	0.165526
362.000000	0.166402
361.000000	0.153858
360.000000	0.150507
359.000000	0.143508
358.000000	0.140473
357.000000	0.136068
356.000000	0.134682
355.000000	0.129856
354.000000	0.127149
353.000000	0.123762
352.000000	0.127959
351.000000	0.118843
350.000000	0.117583
349.000000	0.113506
348.000000	0.102677
347.000000	0.105897
346.000000	0.105467
345.000000	0.106217
344.000000	0.103043
343.000000	0.096185
342.000000	0.089621
341.000000	0.080313
340.000000	0.093229
339.000000	0.088122
338.000000	0.086322
337.000000	0.080718
336.000000	0.082442
335.000000	0.072828
334.000000	0.073886
333.000000	0.079796
332.000000	0.078258
331.000000	0.069077
330.000000	0.067819
329.000000	0.070762
328.000000	0.072025
327.000000	0.069558
326.000000	0.073373
325.000000	0.063812
324.000000	0.059309
323.000000	0.059324
322.000000	0.055411
321.000000	0.058384
320.000000	0.068862
319.000000	0.064144
318.000000	0.066900
317.000000	0.063659
316.000000	0.062740
315.000000	0.067697
314.000000	0.070460
313.000000	0.068081
312.000000	0.064004
311.000000	0.066185
310.000000	0.071973
309.000000	0.072682
308.000000	0.069016
307.000000	0.064309
306.000000	0.066129
305.000000	0.066444
304.000000	0.068788
303.000000	0.071743
302.000000	0.069891
301.000000	0.070115
300.000000	0.066882
299.000000	0.064169
298.000000	0.066549
297.000000	0.070317
296.000000	0.069515
295.000000	0.075122
294.000000	0.064677
293.000000	0.059562
292.000000	0.063678
291.000000	0.067339
290.000000	0.066656
289.000000	0.063636
288.000000	0.061738
287.000000	0.063497
286.000000	0.071329
285.000000	0.065377
284.000000	0.068200
283.000000	0.065855
282.000000	0.063654
281.000000	0.068069
280.000000	0.065625
279.000000	0.073535
278.000000	0.076356
277.000000	0.079276
276.000000	0.079386
275.000000	0.083504
274.000000	0.085596
273.000000	0.083344
272.000000	0.083229
271.000000	0.084341
270.000000	0.082936
269.000000	0.091178
268.000000	0.098327
267.000000	0.096517
266.000000	0.099439
265.000000	0.101200
264.000000	0.097337
263.000000	0.098715
262.000000	0.098186
261.000000	0.114926
260.000000	0.115591
259.000000	0.102937
258.000000	0.106091
257.000000	0.103766
256.000000	0.108551
255.000000	0.113268
254.000000	0.112017
253.000000	0.114843
252.000000	0.117656
251.000000	0.120038
250.000000	0.112182
249.000000	0.116031
248.000000	0.121140
247.000000	0.119476
246.000000	0.110493
245.000000	0.109525
244.000000	0.109987
243.000000	0.109661
242.000000	0.115816
241.000000	0.109979
240.000000	0.103334
239.000000	0.089338
238.000000	0.081892
237.000000	0.082079
236.000000	0.072620
235.000000	0.068737
234.000000	0.073421
233.000000	0.063422
232.000000	0.059172
231.000000	0.060394
230.000000	0.051405
229.000000	0.040848
228.000000	0.034157
227.000000	0.034621
226.000000	0.040711
225.000000	0.037447
224.000000	0.035527
223.000000	0.031486
222.000000	0.028392
221.000000	0.030248
220.000000	0.033252
219.000000	0.032239
218.000000	0.026287
217.000000	0.028368
216.000000	0.022542
215.000000	0.006448
214.000000	0.006579
213.000000	0.018680
212.000000	0.005374
211.000000	0.006032
210.000000	0.025586
209.000000	0.021596
208.000000	0.013052
207.000000	0.012166
206.000000	0.001913
205.000000	-0.009607
204.000000	-0.007067
203.000000	0.021402
202.000000	0.050355
201.000000	0.042385
200.000000	0.046301
