PE UV       SUBTECH     SPECTRUM    ASCII       PEDS        4.00        
   -1
TTms1556131.Sample.asc
18/03/15
09:19:33.00
18/03/15
09:19:33.00
Administrator

200.000000
1
Lambda 750
750N8071901
PerkinElmer UV WinLab 6.0.4.0738 / 1.61.00 Lambda 900

0
0
3350/servo 860.8/2
0
0
UV/VIS
1
1
1
CommonBeamDepol,150mm sphere / downward view
0
0
0
0
Program
Program
3350/servo 860.8/2
3350/0.2 860.8/0.2
3350/0.2 860.8/0.2
0
1
 
 
 
0
 
860.8
319.2
860.8
Front
100
on
 
 
0
0
0
 
0
 
 
 
0
 
 
0
0
0
0
0
 
 
 
 
0
0


0
0
#HDR
-1
-1
#GR
nm
%T
1.0
0.0
2350.000000
-1.000000
2151
8
10.938276
-0.018526
#DATA
2350.000000	5.520477
2349.000000	5.910571
2348.000000	5.383714
2347.000000	5.863273
2346.000000	5.772033
2345.000000	5.480015
2344.000000	5.468796
2343.000000	5.209162
2342.000000	5.097462
2341.000000	5.623234
2340.000000	5.686705
2339.000000	5.727556
2338.000000	5.982982
2337.000000	5.830943
2336.000000	6.112625
2335.000000	6.128563
2334.000000	5.939655
2333.000000	6.331322
2332.000000	6.116785
2331.000000	6.290145
2330.000000	6.283599
2329.000000	6.121141
2328.000000	6.216389
2327.000000	5.873513
2326.000000	6.217535
2325.000000	6.167682
2324.000000	5.954920
2323.000000	5.939514
2322.000000	5.969168
2321.000000	5.960403
2320.000000	5.978005
2319.000000	5.815863
2318.000000	6.026810
2317.000000	5.858846
2316.000000	5.812812
2315.000000	5.827323
2314.000000	5.784331
2313.000000	5.805856
2312.000000	5.590304
2311.000000	5.746254
2310.000000	5.763762
2309.000000	5.534334
2308.000000	5.460652
2307.000000	5.646922
2306.000000	5.798893
2305.000000	5.785818
2304.000000	5.549000
2303.000000	5.631103
2302.000000	5.556870
2301.000000	5.449701
2300.000000	5.371419
2299.000000	5.443990
2298.000000	5.345147
2297.000000	5.142602
2296.000000	5.362161
2295.000000	5.379548
2294.000000	5.350481
2293.000000	5.445223
2292.000000	5.534093
2291.000000	5.522016
2290.000000	5.459958
2289.000000	5.325784
2288.000000	5.497019
2287.000000	5.443604
2286.000000	5.436474
2285.000000	5.284766
2284.000000	5.329222
2283.000000	5.408999
2282.000000	5.164839
2281.000000	5.471614
2280.000000	5.548356
2279.000000	5.466420
2278.000000	5.493601
2277.000000	5.432316
2276.000000	5.375988
2275.000000	5.307084
2274.000000	5.250273
2273.000000	5.353430
2272.000000	5.397664
2271.000000	5.318439
2270.000000	5.308065
2269.000000	5.346399
2268.000000	5.358103
2267.000000	5.394427
2266.000000	5.406873
2265.000000	5.512048
2264.000000	5.625354
2263.000000	5.584108
2262.000000	5.555196
2261.000000	5.566344
2260.000000	5.586936
2259.000000	5.707332
2258.000000	5.857082
2257.000000	5.951550
2256.000000	5.918420
2255.000000	5.985132
2254.000000	6.021707
2253.000000	6.077122
2252.000000	6.158201
2251.000000	6.157335
2250.000000	6.073781
2249.000000	6.091341
2248.000000	6.165406
2247.000000	6.280326
2246.000000	6.432241
2245.000000	6.522398
2244.000000	6.506256
2243.000000	6.575362
2242.000000	6.611646
2241.000000	6.547514
2240.000000	6.587419
2239.000000	6.753745
2238.000000	6.756475
2237.000000	6.641744
2236.000000	6.695429
2235.000000	6.729617
2234.000000	6.806074
2233.000000	6.891576
2232.000000	6.795655
2231.000000	6.676318
2230.000000	6.708427
2229.000000	6.816787
2228.000000	6.935960
2227.000000	6.907260
2226.000000	6.835411
2225.000000	6.810258
2224.000000	6.791244
2223.000000	6.691458
2222.000000	6.717103
2221.000000	6.740342
2220.000000	6.742120
2219.000000	6.794886
2218.000000	6.811064
2217.000000	6.733787
2216.000000	6.748636
2215.000000	6.779891
2214.000000	6.765289
2213.000000	6.796960
2212.000000	6.649829
2211.000000	6.622670
2210.000000	6.598855
2209.000000	6.635818
2208.000000	6.583503
2207.000000	6.571592
2206.000000	6.542066
2205.000000	6.428734
2204.000000	6.435506
2203.000000	6.420560
2202.000000	6.492382
2201.000000	6.443052
2200.000000	6.533229
2199.000000	6.496416
2198.000000	6.497073
2197.000000	6.460424
2196.000000	6.297420
2195.000000	6.214791
2194.000000	6.203331
2193.000000	6.059366
2192.000000	6.192202
2191.000000	6.179615
2190.000000	6.184914
2189.000000	6.203931
2188.000000	6.058116
2187.000000	6.056040
2186.000000	6.022657
2185.000000	5.935889
2184.000000	5.956273
2183.000000	6.112549
2182.000000	6.118409
2181.000000	6.107253
2180.000000	6.075070
2179.000000	5.977828
2178.000000	5.905399
2177.000000	6.029233
2176.000000	6.134303
2175.000000	6.126962
2174.000000	6.013835
2173.000000	6.044880
2172.000000	6.081635
2171.000000	6.146945
2170.000000	6.202480
2169.000000	6.202777
2168.000000	6.202432
2167.000000	6.159948
2166.000000	5.975611
2165.000000	6.166798
2164.000000	6.337618
2163.000000	6.160154
2162.000000	6.213873
2161.000000	6.210470
2160.000000	6.434433
2159.000000	6.446242
2158.000000	6.428506
2157.000000	6.478356
2156.000000	6.419116
2155.000000	6.608195
2154.000000	6.612620
2153.000000	6.639766
2152.000000	6.681735
2151.000000	6.534459
2150.000000	6.508059
2149.000000	6.796161
2148.000000	6.684520
2147.000000	6.843390
2146.000000	6.765362
2145.000000	6.869980
2144.000000	6.860169
2143.000000	6.711093
2142.000000	6.757430
2141.000000	6.736634
2140.000000	6.846814
2139.000000	6.975056
2138.000000	7.034027
2137.000000	6.985955
2136.000000	6.885570
2135.000000	6.840564
2134.000000	7.186444
2133.000000	6.899041
2132.000000	7.107821
2131.000000	7.093254
2130.000000	7.167576
2129.000000	7.050850
2128.000000	7.199625
2127.000000	7.019997
2126.000000	7.030190
2125.000000	7.036430
2124.000000	7.272116
2123.000000	7.119042
2122.000000	7.158411
2121.000000	7.082923
2120.000000	7.053107
2119.000000	7.080696
2118.000000	7.145240
2117.000000	7.142958
2116.000000	7.263403
2115.000000	7.192354
2114.000000	7.271375
2113.000000	7.135223
2112.000000	7.125269
2111.000000	7.186615
2110.000000	7.301125
2109.000000	7.176706
2108.000000	7.222701
2107.000000	7.175839
2106.000000	7.100017
2105.000000	7.068710
2104.000000	7.165863
2103.000000	7.131419
2102.000000	7.225545
2101.000000	7.257864
2100.000000	7.272223
2099.000000	7.159431
2098.000000	7.209777
2097.000000	7.140190
2096.000000	7.106492
2095.000000	7.053246
2094.000000	7.169156
2093.000000	7.160105
2092.000000	7.192040
2091.000000	7.203574
2090.000000	7.176693
2089.000000	7.109407
2088.000000	7.023396
2087.000000	6.994452
2086.000000	7.088282
2085.000000	7.067386
2084.000000	7.088000
2083.000000	7.023755
2082.000000	6.912651
2081.000000	6.907882
2080.000000	6.946970
2079.000000	6.871559
2078.000000	6.832233
2077.000000	6.880945
2076.000000	6.878899
2075.000000	6.842575
2074.000000	6.785772
2073.000000	6.780502
2072.000000	6.684615
2071.000000	6.653187
2070.000000	6.647416
2069.000000	6.585017
2068.000000	6.569791
2067.000000	6.509847
2066.000000	6.451831
2065.000000	6.467266
2064.000000	6.478544
2063.000000	6.329441
2062.000000	6.278571
2061.000000	6.234977
2060.000000	6.179463
2059.000000	6.174774
2058.000000	6.147714
2057.000000	6.094744
2056.000000	6.051461
2055.000000	6.005962
2054.000000	5.964057
2053.000000	5.920575
2052.000000	5.875814
2051.000000	5.860884
2050.000000	5.881604
2049.000000	5.914499
2048.000000	5.842112
2047.000000	5.828415
2046.000000	5.791202
2045.000000	5.743695
2044.000000	5.741564
2043.000000	5.790541
2042.000000	5.795186
2041.000000	5.796241
2040.000000	5.785381
2039.000000	5.761447
2038.000000	5.738839
2037.000000	5.743952
2036.000000	5.733927
2035.000000	5.767851
2034.000000	5.812059
2033.000000	5.798500
2032.000000	5.804378
2031.000000	5.826211
2030.000000	5.885185
2029.000000	5.910565
2028.000000	5.925906
2027.000000	5.959189
2026.000000	5.970652
2025.000000	6.007579
2024.000000	6.010269
2023.000000	5.992325
2022.000000	6.002751
2021.000000	5.981949
2020.000000	5.984181
2019.000000	5.999528
2018.000000	6.021818
2017.000000	6.047226
2016.000000	6.037068
2015.000000	6.016571
2014.000000	5.968302
2013.000000	5.928676
2012.000000	5.951404
2011.000000	5.967530
2010.000000	5.926023
2009.000000	5.923504
2008.000000	5.906496
2007.000000	5.863105
2006.000000	5.798060
2005.000000	5.758337
2004.000000	5.727832
2003.000000	5.700947
2002.000000	5.647304
2001.000000	5.598450
2000.000000	5.594074
1999.000000	5.615597
1998.000000	5.580258
1997.000000	5.565065
1996.000000	5.542496
1995.000000	5.510168
1994.000000	5.455959
1993.000000	5.421493
1992.000000	5.403595
1991.000000	5.357020
1990.000000	5.310573
1989.000000	5.310227
1988.000000	5.303824
1987.000000	5.261258
1986.000000	5.233179
1985.000000	5.210548
1984.000000	5.169039
1983.000000	5.127805
1982.000000	5.115269
1981.000000	5.091180
1980.000000	5.073059
1979.000000	5.019528
1978.000000	4.992230
1977.000000	4.975872
1976.000000	4.942703
1975.000000	4.894334
1974.000000	4.848181
1973.000000	4.867486
1972.000000	4.879956
1971.000000	4.841353
1970.000000	4.830739
1969.000000	4.838970
1968.000000	4.768615
1967.000000	4.735963
1966.000000	4.698437
1965.000000	4.660766
1964.000000	4.615686
1963.000000	4.647617
1962.000000	4.615155
1961.000000	4.616520
1960.000000	4.610135
1959.000000	4.612533
1958.000000	4.558010
1957.000000	4.542805
1956.000000	4.556614
1955.000000	4.563294
1954.000000	4.581267
1953.000000	4.558350
1952.000000	4.476519
1951.000000	4.561306
1950.000000	4.495140
1949.000000	4.470624
1948.000000	4.473129
1947.000000	4.465164
1946.000000	4.477833
1945.000000	4.453657
1944.000000	4.503829
1943.000000	4.564763
1942.000000	4.583866
1941.000000	4.570613
1940.000000	4.576805
1939.000000	4.544581
1938.000000	4.617887
1937.000000	4.621561
1936.000000	4.634449
1935.000000	4.707617
1934.000000	4.724166
1933.000000	4.715513
1932.000000	4.728855
1931.000000	4.779821
1930.000000	4.760970
1929.000000	4.804690
1928.000000	4.919637
1927.000000	4.936046
1926.000000	5.039586
1925.000000	5.101431
1924.000000	5.100034
1923.000000	5.158425
1922.000000	5.267226
1921.000000	5.269446
1920.000000	5.381829
1919.000000	5.380681
1918.000000	5.493155
1917.000000	5.528370
1916.000000	5.591714
1915.000000	5.777520
1914.000000	5.868239
1913.000000	5.981796
1912.000000	6.058766
1911.000000	6.084718
1910.000000	6.205796
1909.000000	6.231570
1908.000000	6.387808
1907.000000	6.486166
1906.000000	6.587499
1905.000000	6.732500
1904.000000	6.851135
1903.000000	6.989716
1902.000000	7.142676
1901.000000	7.281594
1900.000000	7.388331
1899.000000	7.497150
1898.000000	7.616266
1897.000000	7.731817
1896.000000	7.828024
1895.000000	7.993244
1894.000000	8.083978
1893.000000	8.219360
1892.000000	8.336700
1891.000000	8.412759
1890.000000	8.575158
1889.000000	8.705315
1888.000000	8.774077
1887.000000	8.874998
1886.000000	9.003951
1885.000000	9.170774
1884.000000	9.229434
1883.000000	9.383601
1882.000000	9.496209
1881.000000	9.557327
1880.000000	9.657155
1879.000000	9.756531
1878.000000	9.792892
1877.000000	9.960179
1876.000000	10.067731
1875.000000	10.103555
1874.000000	10.138228
1873.000000	10.206777
1872.000000	10.291929
1871.000000	10.272892
1870.000000	10.322891
1869.000000	10.366452
1868.000000	10.382537
1867.000000	10.421621
1866.000000	10.405891
1865.000000	10.397978
1864.000000	10.434155
1863.000000	10.428398
1862.000000	10.415287
1861.000000	10.432931
1860.000000	10.481026
1859.000000	10.500119
1858.000000	10.516626
1857.000000	10.544106
1856.000000	10.527880
1855.000000	10.509093
1854.000000	10.549049
1853.000000	10.543007
1852.000000	10.568540
1851.000000	10.564249
1850.000000	10.591128
1849.000000	10.584648
1848.000000	10.558740
1847.000000	10.530492
1846.000000	10.544383
1845.000000	10.531536
1844.000000	10.526545
1843.000000	10.546488
1842.000000	10.525236
1841.000000	10.502569
1840.000000	10.477885
1839.000000	10.454183
1838.000000	10.465978
1837.000000	10.457984
1836.000000	10.424232
1835.000000	10.391039
1834.000000	10.364260
1833.000000	10.370089
1832.000000	10.367413
1831.000000	10.369207
1830.000000	10.330274
1829.000000	10.300348
1828.000000	10.299097
1827.000000	10.277718
1826.000000	10.240533
1825.000000	10.225604
1824.000000	10.209831
1823.000000	10.207526
1822.000000	10.189285
1821.000000	10.163095
1820.000000	10.130083
1819.000000	10.129495
1818.000000	10.141287
1817.000000	10.114903
1816.000000	10.096760
1815.000000	10.092742
1814.000000	10.078742
1813.000000	10.056884
1812.000000	10.051703
1811.000000	10.045308
1810.000000	10.033580
1809.000000	10.037066
1808.000000	10.036595
1807.000000	10.016245
1806.000000	10.004421
1805.000000	9.993288
1804.000000	9.963305
1803.000000	9.948044
1802.000000	9.940740
1801.000000	9.935776
1800.000000	9.951627
1799.000000	9.948375
1798.000000	9.938585
1797.000000	9.938752
1796.000000	9.928924
1795.000000	9.917385
1794.000000	9.931447
1793.000000	9.928137
1792.000000	9.914050
1791.000000	9.908603
1790.000000	9.923725
1789.000000	9.920071
1788.000000	9.914184
1787.000000	9.904335
1786.000000	9.910439
1785.000000	9.924437
1784.000000	9.924037
1783.000000	9.913389
1782.000000	9.907229
1781.000000	9.906923
1780.000000	9.893202
1779.000000	9.877990
1778.000000	9.865599
1777.000000	9.863406
1776.000000	9.846620
1775.000000	9.838569
1774.000000	9.825936
1773.000000	9.811654
1772.000000	9.790067
1771.000000	9.779050
1770.000000	9.744776
1769.000000	9.723450
1768.000000	9.712182
1767.000000	9.699376
1766.000000	9.684121
1765.000000	9.658417
1764.000000	9.670760
1763.000000	9.638184
1762.000000	9.615402
1761.000000	9.599168
1760.000000	9.581358
1759.000000	9.568740
1758.000000	9.559223
1757.000000	9.529456
1756.000000	9.504389
1755.000000	9.486221
1754.000000	9.499989
1753.000000	9.500273
1752.000000	9.482390
1751.000000	9.452896
1750.000000	9.459569
1749.000000	9.432311
1748.000000	9.409530
1747.000000	9.386733
1746.000000	9.377032
1745.000000	9.352935
1744.000000	9.338061
1743.000000	9.333604
1742.000000	9.289946
1741.000000	9.286293
1740.000000	9.267497
1739.000000	9.250255
1738.000000	9.244129
1737.000000	9.245445
1736.000000	9.215559
1735.000000	9.201946
1734.000000	9.227140
1733.000000	9.203507
1732.000000	9.218305
1731.000000	9.201200
1730.000000	9.205944
1729.000000	9.221678
1728.000000	9.230033
1727.000000	9.231888
1726.000000	9.243772
1725.000000	9.245102
1724.000000	9.284181
1723.000000	9.319240
1722.000000	9.322379
1721.000000	9.329223
1720.000000	9.352159
1719.000000	9.389766
1718.000000	9.399944
1717.000000	9.383730
1716.000000	9.386320
1715.000000	9.428147
1714.000000	9.457957
1713.000000	9.456251
1712.000000	9.474899
1711.000000	9.495718
1710.000000	9.517300
1709.000000	9.524012
1708.000000	9.523139
1707.000000	9.533553
1706.000000	9.533576
1705.000000	9.544290
1704.000000	9.564955
1703.000000	9.560714
1702.000000	9.564200
1701.000000	9.565829
1700.000000	9.570149
1699.000000	9.562637
1698.000000	9.598959
1697.000000	9.603249
1696.000000	9.591678
1695.000000	9.597217
1694.000000	9.598705
1693.000000	9.606767
1692.000000	9.609920
1691.000000	9.606246
1690.000000	9.627736
1689.000000	9.678175
1688.000000	9.681237
1687.000000	9.744482
1686.000000	9.749180
1685.000000	9.785231
1684.000000	9.811343
1683.000000	9.846388
1682.000000	9.890323
1681.000000	9.929722
1680.000000	9.967051
1679.000000	9.988018
1678.000000	10.034738
1677.000000	10.055613
1676.000000	10.094813
1675.000000	10.135341
1674.000000	10.181222
1673.000000	10.201297
1672.000000	10.233069
1671.000000	10.272394
1670.000000	10.298173
1669.000000	10.310138
1668.000000	10.330505
1667.000000	10.386137
1666.000000	10.357989
1665.000000	10.369871
1664.000000	10.363618
1663.000000	10.410478
1662.000000	10.422742
1661.000000	10.452408
1660.000000	10.468679
1659.000000	10.476293
1658.000000	10.496449
1657.000000	10.519009
1656.000000	10.513528
1655.000000	10.515280
1654.000000	10.518107
1653.000000	10.534215
1652.000000	10.555938
1651.000000	10.529255
1650.000000	10.507395
1649.000000	10.504576
1648.000000	10.493773
1647.000000	10.499835
1646.000000	10.492844
1645.000000	10.475190
1644.000000	10.457519
1643.000000	10.453170
1642.000000	10.447557
1641.000000	10.443042
1640.000000	10.426033
1639.000000	10.422220
1638.000000	10.432755
1637.000000	10.407137
1636.000000	10.379663
1635.000000	10.365324
1634.000000	10.361741
1633.000000	10.344513
1632.000000	10.329637
1631.000000	10.304841
1630.000000	10.306392
1629.000000	10.297141
1628.000000	10.273117
1627.000000	10.266352
1626.000000	10.255002
1625.000000	10.228970
1624.000000	10.222050
1623.000000	10.205196
1622.000000	10.201453
1621.000000	10.182449
1620.000000	10.159021
1619.000000	10.137382
1618.000000	10.119245
1617.000000	10.114885
1616.000000	10.095674
1615.000000	10.070995
1614.000000	10.049071
1613.000000	10.045062
1612.000000	10.044004
1611.000000	10.020244
1610.000000	10.000081
1609.000000	9.979877
1608.000000	9.966356
1607.000000	9.960496
1606.000000	9.933540
1605.000000	9.915161
1604.000000	9.904697
1603.000000	9.889401
1602.000000	9.870717
1601.000000	9.850788
1600.000000	9.832410
1599.000000	9.821354
1598.000000	9.807471
1597.000000	9.802495
1596.000000	9.777056
1595.000000	9.750629
1594.000000	9.749193
1593.000000	9.745612
1592.000000	9.729152
1591.000000	9.707447
1590.000000	9.691404
1589.000000	9.684597
1588.000000	9.665446
1587.000000	9.647776
1586.000000	9.637052
1585.000000	9.622293
1584.000000	9.604908
1583.000000	9.592584
1582.000000	9.592988
1581.000000	9.589102
1580.000000	9.577144
1579.000000	9.552491
1578.000000	9.543651
1577.000000	9.525768
1576.000000	9.514948
1575.000000	9.493633
1574.000000	9.478084
1573.000000	9.468132
1572.000000	9.452719
1571.000000	9.438075
1570.000000	9.431126
1569.000000	9.412077
1568.000000	9.393421
1567.000000	9.385623
1566.000000	9.372787
1565.000000	9.356473
1564.000000	9.349382
1563.000000	9.348191
1562.000000	9.346927
1561.000000	9.330263
1560.000000	9.310261
1559.000000	9.284775
1558.000000	9.285068
1557.000000	9.278379
1556.000000	9.258760
1555.000000	9.236340
1554.000000	9.238866
1553.000000	9.238731
1552.000000	9.232103
1551.000000	9.198532
1550.000000	9.182044
1549.000000	9.167813
1548.000000	9.146324
1547.000000	9.133033
1546.000000	9.113789
1545.000000	9.090136
1544.000000	9.055207
1543.000000	9.027351
1542.000000	9.017784
1541.000000	8.989858
1540.000000	8.969570
1539.000000	8.952386
1538.000000	8.913738
1537.000000	8.885937
1536.000000	8.870420
1535.000000	8.850566
1534.000000	8.830153
1533.000000	8.814549
1532.000000	8.779186
1531.000000	8.759536
1530.000000	8.766119
1529.000000	8.798131
1528.000000	8.810887
1527.000000	8.805152
1526.000000	8.767338
1525.000000	8.718670
1524.000000	8.702477
1523.000000	8.675521
1522.000000	8.643338
1521.000000	8.616401
1520.000000	8.616151
1519.000000	8.594214
1518.000000	8.584953
1517.000000	8.579408
1516.000000	8.565907
1515.000000	8.533688
1514.000000	8.518884
1513.000000	8.504208
1512.000000	8.518706
1511.000000	8.518885
1510.000000	8.499245
1509.000000	8.458976
1508.000000	8.431553
1507.000000	8.441415
1506.000000	8.427505
1505.000000	8.410598
1504.000000	8.400496
1503.000000	8.418541
1502.000000	8.438032
1501.000000	8.425511
1500.000000	8.412377
1499.000000	8.418332
1498.000000	8.402052
1497.000000	8.386318
1496.000000	8.377223
1495.000000	8.373425
1494.000000	8.376472
1493.000000	8.373210
1492.000000	8.373518
1491.000000	8.372631
1490.000000	8.383506
1489.000000	8.372823
1488.000000	8.388167
1487.000000	8.397651
1486.000000	8.399705
1485.000000	8.394201
1484.000000	8.407481
1483.000000	8.412276
1482.000000	8.338691
1481.000000	8.364363
1480.000000	8.381329
1479.000000	8.403258
1478.000000	8.399613
1477.000000	8.402031
1476.000000	8.417132
1475.000000	8.412122
1474.000000	8.422490
1473.000000	8.437869
1472.000000	8.429888
1471.000000	8.461128
1470.000000	8.477602
1469.000000	8.477200
1468.000000	8.462077
1467.000000	8.461663
1466.000000	8.464293
1465.000000	8.453864
1464.000000	8.464815
1463.000000	8.495540
1462.000000	8.488820
1461.000000	8.501146
1460.000000	8.540989
1459.000000	8.542527
1458.000000	8.525070
1457.000000	8.519119
1456.000000	8.526799
1455.000000	8.545683
1454.000000	8.588558
1453.000000	8.579488
1452.000000	8.568086
1451.000000	8.563645
1450.000000	8.583913
1449.000000	8.624373
1448.000000	8.645584
1447.000000	8.641217
1446.000000	8.652181
1445.000000	8.657690
1444.000000	8.657154
1443.000000	8.676254
1442.000000	8.719116
1441.000000	8.751893
1440.000000	8.749992
1439.000000	8.765564
1438.000000	8.782627
1437.000000	8.793229
1436.000000	8.792948
1435.000000	8.829497
1434.000000	8.866786
1433.000000	8.895557
1432.000000	8.922532
1431.000000	8.938953
1430.000000	8.955881
1429.000000	8.983562
1428.000000	9.012383
1427.000000	9.043147
1426.000000	9.077139
1425.000000	9.126074
1424.000000	9.177614
1423.000000	9.212996
1422.000000	9.265692
1421.000000	9.290967
1420.000000	9.309954
1419.000000	9.343498
1418.000000	9.382129
1417.000000	9.403032
1416.000000	9.460092
1415.000000	9.511175
1414.000000	9.554800
1413.000000	9.583564
1412.000000	9.626925
1411.000000	9.693533
1410.000000	9.746155
1409.000000	9.777416
1408.000000	9.811251
1407.000000	9.871079
1406.000000	9.923055
1405.000000	9.965635
1404.000000	10.002815
1403.000000	10.047391
1402.000000	10.084993
1401.000000	10.133907
1400.000000	10.173226
1399.000000	10.209579
1398.000000	10.243270
1397.000000	10.273471
1396.000000	10.304815
1395.000000	10.344400
1394.000000	10.379021
1393.000000	10.407021
1392.000000	10.436700
1391.000000	10.474214
1390.000000	10.491695
1389.000000	10.516474
1388.000000	10.541500
1387.000000	10.554448
1386.000000	10.580672
1385.000000	10.617487
1384.000000	10.647661
1383.000000	10.650634
1382.000000	10.647776
1381.000000	10.676920
1380.000000	10.726059
1379.000000	10.749016
1378.000000	10.737169
1377.000000	10.737532
1376.000000	10.733261
1375.000000	10.726683
1374.000000	10.743128
1373.000000	10.762761
1372.000000	10.769342
1371.000000	10.758868
1370.000000	10.762434
1369.000000	10.768311
1368.000000	10.768046
1367.000000	10.776143
1366.000000	10.784770
1365.000000	10.797035
1364.000000	10.805887
1363.000000	10.803370
1362.000000	10.803636
1361.000000	10.823816
1360.000000	10.854313
1359.000000	10.862424
1358.000000	10.839750
1357.000000	10.842991
1356.000000	10.867576
1355.000000	10.872991
1354.000000	10.858792
1353.000000	10.842006
1352.000000	10.844131
1351.000000	10.866158
1350.000000	10.864233
1349.000000	10.854516
1348.000000	10.860504
1347.000000	10.879923
1346.000000	10.876689
1345.000000	10.874352
1344.000000	10.885454
1343.000000	10.891109
1342.000000	10.886167
1341.000000	10.877291
1340.000000	10.896804
1339.000000	10.918476
1338.000000	10.921921
1337.000000	10.911846
1336.000000	10.901065
1335.000000	10.898868
1334.000000	10.891502
1333.000000	10.916256
1332.000000	10.933900
1331.000000	10.938276
1330.000000	10.925389
1329.000000	10.908628
1328.000000	10.916111
1327.000000	10.927069
1326.000000	10.923431
1325.000000	10.933605
1324.000000	10.927375
1323.000000	10.914333
1322.000000	10.896463
1321.000000	10.903590
1320.000000	10.928613
1319.000000	10.936744
1318.000000	10.915827
1317.000000	10.897129
1316.000000	10.896713
1315.000000	10.896732
1314.000000	10.894308
1313.000000	10.887166
1312.000000	10.877047
1311.000000	10.862927
1310.000000	10.883517
1309.000000	10.881566
1308.000000	10.845205
1307.000000	10.835292
1306.000000	10.857316
1305.000000	10.865967
1304.000000	10.860588
1303.000000	10.852560
1302.000000	10.825836
1301.000000	10.823900
1300.000000	10.812319
1299.000000	10.808049
1298.000000	10.821414
1297.000000	10.804200
1296.000000	10.814651
1295.000000	10.797251
1294.000000	10.802437
1293.000000	10.809579
1292.000000	10.805562
1291.000000	10.797345
1290.000000	10.800934
1289.000000	10.794882
1288.000000	10.801721
1287.000000	10.796734
1286.000000	10.791105
1285.000000	10.781091
1284.000000	10.767553
1283.000000	10.745834
1282.000000	10.728073
1281.000000	10.743541
1280.000000	10.727632
1279.000000	10.725011
1278.000000	10.732151
1277.000000	10.746865
1276.000000	10.731180
1275.000000	10.714668
1274.000000	10.727237
1273.000000	10.705910
1272.000000	10.702116
1271.000000	10.713086
1270.000000	10.693145
1269.000000	10.702350
1268.000000	10.679281
1267.000000	10.670581
1266.000000	10.712811
1265.000000	10.694448
1264.000000	10.706107
1263.000000	10.694095
1262.000000	10.664154
1261.000000	10.656109
1260.000000	10.673976
1259.000000	10.679275
1258.000000	10.669052
1257.000000	10.660130
1256.000000	10.637283
1255.000000	10.631577
1254.000000	10.636830
1253.000000	10.637323
1252.000000	10.617829
1251.000000	10.625925
1250.000000	10.647222
1249.000000	10.673740
1248.000000	10.644365
1247.000000	10.641134
1246.000000	10.616715
1245.000000	10.583832
1244.000000	10.572091
1243.000000	10.581926
1242.000000	10.583769
1241.000000	10.578809
1240.000000	10.589386
1239.000000	10.537288
1238.000000	10.544323
1237.000000	10.535438
1236.000000	10.504544
1235.000000	10.512880
1234.000000	10.528268
1233.000000	10.528650
1232.000000	10.483443
1231.000000	10.488374
1230.000000	10.486921
1229.000000	10.493254
1228.000000	10.496876
1227.000000	10.482102
1226.000000	10.430395
1225.000000	10.425745
1224.000000	10.430693
1223.000000	10.429331
1222.000000	10.434416
1221.000000	10.424961
1220.000000	10.415046
1219.000000	10.396036
1218.000000	10.399944
1217.000000	10.394834
1216.000000	10.381515
1215.000000	10.374822
1214.000000	10.386071
1213.000000	10.373587
1212.000000	10.360407
1211.000000	10.356661
1210.000000	10.364374
1209.000000	10.338180
1208.000000	10.312523
1207.000000	10.307774
1206.000000	10.298208
1205.000000	10.264555
1204.000000	10.264400
1203.000000	10.261705
1202.000000	10.253157
1201.000000	10.234672
1200.000000	10.246393
1199.000000	10.229892
1198.000000	10.211466
1197.000000	10.194975
1196.000000	10.170221
1195.000000	10.166728
1194.000000	10.183064
1193.000000	10.178249
1192.000000	10.162418
1191.000000	10.147298
1190.000000	10.113712
1189.000000	10.063001
1188.000000	10.063152
1187.000000	10.066883
1186.000000	10.056096
1185.000000	10.048323
1184.000000	10.048818
1183.000000	10.043847
1182.000000	10.053090
1181.000000	10.059754
1180.000000	10.073547
1179.000000	10.095119
1178.000000	10.105130
1177.000000	10.112544
1176.000000	10.108402
1175.000000	10.113403
1174.000000	10.131329
1173.000000	10.149431
1172.000000	10.154361
1171.000000	10.157879
1170.000000	10.165792
1169.000000	10.160237
1168.000000	10.173412
1167.000000	10.188709
1166.000000	10.189399
1165.000000	10.200079
1164.000000	10.216058
1163.000000	10.223413
1162.000000	10.223860
1161.000000	10.223672
1160.000000	10.239636
1159.000000	10.261065
1158.000000	10.245165
1157.000000	10.222012
1156.000000	10.233656
1155.000000	10.253064
1154.000000	10.263781
1153.000000	10.261058
1152.000000	10.278661
1151.000000	10.296484
1150.000000	10.304819
1149.000000	10.314310
1148.000000	10.323262
1147.000000	10.330841
1146.000000	10.343235
1145.000000	10.346030
1144.000000	10.347259
1143.000000	10.350840
1142.000000	10.354154
1141.000000	10.348694
1140.000000	10.329509
1139.000000	10.310831
1138.000000	10.305723
1137.000000	10.331817
1136.000000	10.345159
1135.000000	10.349723
1134.000000	10.374668
1133.000000	10.389428
1132.000000	10.388935
1131.000000	10.387862
1130.000000	10.386265
1129.000000	10.384325
1128.000000	10.396174
1127.000000	10.367663
1126.000000	10.347323
1125.000000	10.356166
1124.000000	10.357695
1123.000000	10.376346
1122.000000	10.377302
1121.000000	10.375261
1120.000000	10.377563
1119.000000	10.379069
1118.000000	10.360646
1117.000000	10.364885
1116.000000	10.360171
1115.000000	10.355566
1114.000000	10.346735
1113.000000	10.360541
1112.000000	10.348455
1111.000000	10.344790
1110.000000	10.347663
1109.000000	10.353266
1108.000000	10.355687
1107.000000	10.347989
1106.000000	10.348016
1105.000000	10.345577
1104.000000	10.341774
1103.000000	10.318032
1102.000000	10.298031
1101.000000	10.292000
1100.000000	10.281007
1099.000000	10.305070
1098.000000	10.305691
1097.000000	10.313378
1096.000000	10.317492
1095.000000	10.299820
1094.000000	10.263269
1093.000000	10.269989
1092.000000	10.275190
1091.000000	10.286087
1090.000000	10.281728
1089.000000	10.280916
1088.000000	10.281727
1087.000000	10.252453
1086.000000	10.247645
1085.000000	10.257881
1084.000000	10.260345
1083.000000	10.260867
1082.000000	10.258751
1081.000000	10.258043
1080.000000	10.229135
1079.000000	10.215747
1078.000000	10.219397
1077.000000	10.237107
1076.000000	10.228617
1075.000000	10.231616
1074.000000	10.234509
1073.000000	10.204318
1072.000000	10.186823
1071.000000	10.192594
1070.000000	10.175289
1069.000000	10.200808
1068.000000	10.216417
1067.000000	10.213946
1066.000000	10.174258
1065.000000	10.170707
1064.000000	10.173323
1063.000000	10.166663
1062.000000	10.179500
1061.000000	10.202650
1060.000000	10.193060
1059.000000	10.146579
1058.000000	10.143073
1057.000000	10.143168
1056.000000	10.156828
1055.000000	10.183727
1054.000000	10.176891
1053.000000	10.121247
1052.000000	10.121452
1051.000000	10.135930
1050.000000	10.129996
1049.000000	10.154114
1048.000000	10.088069
1047.000000	10.123241
1046.000000	10.127669
1045.000000	10.125474
1044.000000	10.122899
1043.000000	10.091417
1042.000000	10.080868
1041.000000	10.077041
1040.000000	10.115772
1039.000000	10.103996
1038.000000	10.078075
1037.000000	10.080661
1036.000000	10.098066
1035.000000	10.093383
1034.000000	10.078462
1033.000000	10.079930
1032.000000	10.080774
1031.000000	10.098438
1030.000000	10.054248
1029.000000	10.066202
1028.000000	10.064766
1027.000000	10.029589
1026.000000	10.045237
1025.000000	10.069726
1024.000000	10.063926
1023.000000	10.036127
1022.000000	10.035362
1021.000000	10.060410
1020.000000	10.053419
1019.000000	10.048823
1018.000000	10.041670
1017.000000	10.050389
1016.000000	10.019142
1015.000000	10.032694
1014.000000	10.047238
1013.000000	10.031186
1012.000000	10.029353
1011.000000	10.043252
1010.000000	10.040973
1009.000000	10.022610
1008.000000	10.023892
1007.000000	10.003441
1006.000000	10.008283
1005.000000	10.023038
1004.000000	9.999815
1003.000000	10.014162
1002.000000	10.014107
1001.000000	9.995604
1000.000000	10.004220
999.000000	10.025774
998.000000	10.003342
997.000000	10.006138
996.000000	9.982576
995.000000	9.986397
994.000000	10.004888
993.000000	9.987087
992.000000	9.980192
991.000000	9.990370
990.000000	9.997570
989.000000	9.991774
988.000000	9.983632
987.000000	9.980455
986.000000	10.004302
985.000000	10.027922
984.000000	10.040803
983.000000	10.046868
982.000000	10.041097
981.000000	10.046822
980.000000	10.049544
979.000000	10.045264
978.000000	10.057615
977.000000	10.081604
976.000000	10.072480
975.000000	10.059862
974.000000	10.050459
973.000000	10.048528
972.000000	10.057087
971.000000	10.060354
970.000000	10.059320
969.000000	10.068930
968.000000	10.064722
967.000000	10.049638
966.000000	10.051033
965.000000	10.058065
964.000000	10.059958
963.000000	10.058911
962.000000	10.052488
961.000000	10.052920
960.000000	10.041438
959.000000	10.036483
958.000000	10.027872
957.000000	10.027787
956.000000	10.025710
955.000000	10.024460
954.000000	10.013139
953.000000	10.008525
952.000000	10.021102
951.000000	10.027537
950.000000	10.030598
949.000000	10.015345
948.000000	10.010601
947.000000	10.006411
946.000000	10.006237
945.000000	10.000189
944.000000	9.976550
943.000000	9.978390
942.000000	9.981688
941.000000	9.979497
940.000000	9.984874
939.000000	9.993772
938.000000	9.992023
937.000000	9.967196
936.000000	9.944877
935.000000	9.941821
934.000000	9.936912
933.000000	9.942379
932.000000	9.942370
931.000000	9.944288
930.000000	9.939539
929.000000	9.918214
928.000000	9.892044
927.000000	9.900896
926.000000	9.913068
925.000000	9.898050
924.000000	9.910109
923.000000	9.915278
922.000000	9.889524
921.000000	9.865348
920.000000	9.864033
919.000000	9.879874
918.000000	9.888857
917.000000	9.890838
916.000000	9.867991
915.000000	9.878955
914.000000	9.868828
913.000000	9.871477
912.000000	9.887477
911.000000	9.868435
910.000000	9.860505
909.000000	9.863843
908.000000	9.873976
907.000000	9.820712
906.000000	9.811851
905.000000	9.830167
904.000000	9.822059
903.000000	9.816612
902.000000	9.851884
901.000000	9.848728
900.000000	9.841434
899.000000	9.823002
898.000000	9.802752
897.000000	9.817544
896.000000	9.828944
895.000000	9.768781
894.000000	9.803988
893.000000	9.800844
892.000000	9.811057
891.000000	9.822946
890.000000	9.822308
889.000000	9.775233
888.000000	9.753486
887.000000	9.746781
886.000000	9.799462
885.000000	9.788777
884.000000	9.761759
883.000000	9.761675
882.000000	9.777948
881.000000	9.760322
880.000000	9.822020
879.000000	9.822086
878.000000	9.859217
877.000000	9.769563
876.000000	9.727923
875.000000	9.775365
874.000000	9.733531
873.000000	9.691403
872.000000	9.705387
871.000000	9.653640
870.000000	9.691180
869.000000	9.674972
868.000000	9.703826
867.000000	9.652266
866.000000	9.674405
865.000000	9.580544
864.000000	9.582016
863.000000	9.607236
862.000000	9.611483
861.000000	9.586272
860.000000	9.638547
859.000000	9.932052
858.000000	9.955320
857.000000	9.955452
856.000000	9.984167
855.000000	9.968165
854.000000	9.877498
853.000000	9.804889
852.000000	9.874723
851.000000	9.893527
850.000000	9.911620
849.000000	9.885014
848.000000	9.919988
847.000000	9.909730
846.000000	9.804151
845.000000	9.824599
844.000000	9.785049
843.000000	9.856217
842.000000	9.811791
841.000000	9.793412
840.000000	9.837730
839.000000	9.716543
838.000000	9.748627
837.000000	9.710021
836.000000	9.780232
835.000000	9.699252
834.000000	9.699510
833.000000	9.696405
832.000000	9.677247
831.000000	9.667584
830.000000	9.686872
829.000000	9.662563
828.000000	9.650088
827.000000	9.635669
826.000000	9.610810
825.000000	9.623371
824.000000	9.611833
823.000000	9.542570
822.000000	9.596630
821.000000	9.571934
820.000000	9.567679
819.000000	9.548228
818.000000	9.515781
817.000000	9.568371
816.000000	9.535565
815.000000	9.504741
814.000000	9.498726
813.000000	9.488617
812.000000	9.484386
811.000000	9.471572
810.000000	9.441592
809.000000	9.526893
808.000000	9.503656
807.000000	9.506675
806.000000	9.457775
805.000000	9.437696
804.000000	9.423993
803.000000	9.415155
802.000000	9.419025
801.000000	9.375938
800.000000	9.382287
799.000000	9.392362
798.000000	9.395133
797.000000	9.377514
796.000000	9.364016
795.000000	9.327662
794.000000	9.332646
793.000000	9.344100
792.000000	9.306562
791.000000	9.308056
790.000000	9.267569
789.000000	9.286423
788.000000	9.269474
787.000000	9.268399
786.000000	9.235408
785.000000	9.249706
784.000000	9.222168
783.000000	9.200956
782.000000	9.192625
781.000000	9.212333
780.000000	9.187873
779.000000	9.151236
778.000000	9.156543
777.000000	9.130165
776.000000	9.143531
775.000000	9.091474
774.000000	9.089618
773.000000	9.102796
772.000000	9.083465
771.000000	9.061059
770.000000	9.049325
769.000000	9.061440
768.000000	9.020874
767.000000	8.994631
766.000000	9.011028
765.000000	9.008340
764.000000	8.974029
763.000000	8.957947
762.000000	8.953680
761.000000	8.937855
760.000000	8.928281
759.000000	8.934452
758.000000	8.910465
757.000000	8.878236
756.000000	8.877104
755.000000	8.859648
754.000000	8.841484
753.000000	8.835880
752.000000	8.842901
751.000000	8.815792
750.000000	8.793948
749.000000	8.770453
748.000000	8.753128
747.000000	8.747547
746.000000	8.735568
745.000000	8.715698
744.000000	8.700419
743.000000	8.689205
742.000000	8.685039
741.000000	8.675364
740.000000	8.655480
739.000000	8.630597
738.000000	8.629875
737.000000	8.615212
736.000000	8.588163
735.000000	8.563625
734.000000	8.558983
733.000000	8.553561
732.000000	8.539350
731.000000	8.516614
730.000000	8.491845
729.000000	8.475226
728.000000	8.459680
727.000000	8.452596
726.000000	8.434874
725.000000	8.421872
724.000000	8.407391
723.000000	8.395336
722.000000	8.371521
721.000000	8.344430
720.000000	8.332365
719.000000	8.320688
718.000000	8.295561
717.000000	8.277084
716.000000	8.276440
715.000000	8.265773
714.000000	8.233559
713.000000	8.210226
712.000000	8.203943
711.000000	8.190472
710.000000	8.167812
709.000000	8.164295
708.000000	8.145758
707.000000	8.116972
706.000000	8.105008
705.000000	8.077893
704.000000	8.070667
703.000000	8.068114
702.000000	8.041004
701.000000	8.020153
700.000000	8.005507
699.000000	7.984307
698.000000	7.957263
697.000000	7.937357
696.000000	7.922870
695.000000	7.904844
694.000000	7.884132
693.000000	7.866817
692.000000	7.849676
691.000000	7.820865
690.000000	7.794077
689.000000	7.754914
688.000000	7.725305
687.000000	7.713398
686.000000	7.698034
685.000000	7.677607
684.000000	7.652905
683.000000	7.629873
682.000000	7.600226
681.000000	7.577330
680.000000	7.562585
679.000000	7.549364
678.000000	7.518753
677.000000	7.490225
676.000000	7.466192
675.000000	7.452122
674.000000	7.435116
673.000000	7.422829
672.000000	7.404841
671.000000	7.384822
670.000000	7.356234
669.000000	7.322915
668.000000	7.305851
667.000000	7.295965
666.000000	7.267070
665.000000	7.244023
664.000000	7.231331
663.000000	7.204476
662.000000	7.170762
661.000000	7.162189
660.000000	7.142167
659.000000	7.113637
658.000000	7.085457
657.000000	7.064053
656.000000	7.043797
655.000000	7.015969
654.000000	6.990137
653.000000	6.975693
652.000000	6.953775
651.000000	6.925352
650.000000	6.903971
649.000000	6.887840
648.000000	6.855931
647.000000	6.841633
646.000000	6.810449
645.000000	6.782970
644.000000	6.765887
643.000000	6.737550
642.000000	6.714287
641.000000	6.686833
640.000000	6.662733
639.000000	6.640257
638.000000	6.617562
637.000000	6.590238
636.000000	6.570333
635.000000	6.546105
634.000000	6.513087
633.000000	6.493736
632.000000	6.478167
631.000000	6.464480
630.000000	6.429481
629.000000	6.412686
628.000000	6.381777
627.000000	6.347938
626.000000	6.317094
625.000000	6.296856
624.000000	6.274072
623.000000	6.246802
622.000000	6.228949
621.000000	6.196039
620.000000	6.173689
619.000000	6.148490
618.000000	6.121097
617.000000	6.083709
616.000000	6.060727
615.000000	6.028890
614.000000	6.009205
613.000000	5.982168
612.000000	5.959475
611.000000	5.934669
610.000000	5.905806
609.000000	5.882217
608.000000	5.850924
607.000000	5.833249
606.000000	5.805546
605.000000	5.777553
604.000000	5.746033
603.000000	5.717119
602.000000	5.684189
601.000000	5.651804
600.000000	5.626016
599.000000	5.602070
598.000000	5.570372
597.000000	5.541999
596.000000	5.517942
595.000000	5.493397
594.000000	5.463991
593.000000	5.418864
592.000000	5.392760
591.000000	5.376303
590.000000	5.348737
589.000000	5.315613
588.000000	5.286715
587.000000	5.262792
586.000000	5.219947
585.000000	5.211095
584.000000	5.176491
583.000000	5.147240
582.000000	5.115507
581.000000	5.081169
580.000000	5.052035
579.000000	5.028233
578.000000	4.992973
577.000000	4.963170
576.000000	4.923675
575.000000	4.896121
574.000000	4.872061
573.000000	4.840773
572.000000	4.799570
571.000000	4.777475
570.000000	4.737881
569.000000	4.718938
568.000000	4.678884
567.000000	4.651899
566.000000	4.622630
565.000000	4.593269
564.000000	4.559988
563.000000	4.532732
562.000000	4.493246
561.000000	4.501064
560.000000	4.468502
559.000000	4.432425
558.000000	4.396886
557.000000	4.365907
556.000000	4.341769
555.000000	4.322195
554.000000	4.277525
553.000000	4.246807
552.000000	4.217911
551.000000	4.180745
550.000000	4.150951
549.000000	4.116366
548.000000	4.077246
547.000000	4.053764
546.000000	4.016543
545.000000	3.986035
544.000000	3.949638
543.000000	3.922887
542.000000	3.885511
541.000000	3.850512
540.000000	3.817310
539.000000	3.784042
538.000000	3.760148
537.000000	3.721568
536.000000	3.684256
535.000000	3.662647
534.000000	3.628826
533.000000	3.590965
532.000000	3.557827
531.000000	3.526405
530.000000	3.490624
529.000000	3.458382
528.000000	3.424683
527.000000	3.392288
526.000000	3.360034
525.000000	3.325810
524.000000	3.293463
523.000000	3.257412
522.000000	3.222201
521.000000	3.197928
520.000000	3.162903
519.000000	3.128201
518.000000	3.097923
517.000000	3.065005
516.000000	3.034929
515.000000	3.009036
514.000000	2.975608
513.000000	2.937518
512.000000	2.909905
511.000000	2.880623
510.000000	2.847059
509.000000	2.822051
508.000000	2.789961
507.000000	2.759479
506.000000	2.731207
505.000000	2.698392
504.000000	2.669053
503.000000	2.647114
502.000000	2.610737
501.000000	2.575195
500.000000	2.544582
499.000000	2.517574
498.000000	2.492508
497.000000	2.455303
496.000000	2.426518
495.000000	2.398047
494.000000	2.370311
493.000000	2.347136
492.000000	2.324221
491.000000	2.292383
490.000000	2.266229
489.000000	2.239951
488.000000	2.211393
487.000000	2.188007
486.000000	2.160038
485.000000	2.134258
484.000000	2.113091
483.000000	2.095427
482.000000	2.071814
481.000000	2.038062
480.000000	2.010567
479.000000	1.982571
478.000000	1.951752
477.000000	1.922264
476.000000	1.895522
475.000000	1.869884
474.000000	1.847408
473.000000	1.823118
472.000000	1.792799
471.000000	1.766365
470.000000	1.741002
469.000000	1.714501
468.000000	1.693728
467.000000	1.671970
466.000000	1.644525
465.000000	1.613993
464.000000	1.589218
463.000000	1.566203
462.000000	1.544542
461.000000	1.523826
460.000000	1.497390
459.000000	1.469544
458.000000	1.443507
457.000000	1.418496
456.000000	1.401215
455.000000	1.374864
454.000000	1.347867
453.000000	1.328574
452.000000	1.301824
451.000000	1.279948
450.000000	1.261754
449.000000	1.238770
448.000000	1.219220
447.000000	1.198947
446.000000	1.174957
445.000000	1.156129
444.000000	1.139231
443.000000	1.114591
442.000000	1.090332
441.000000	1.067229
440.000000	1.047676
439.000000	1.029432
438.000000	1.008825
437.000000	0.985363
436.000000	0.960762
435.000000	0.944007
434.000000	0.928527
433.000000	0.908777
432.000000	0.885988
431.000000	0.871715
430.000000	0.850623
429.000000	0.827855
428.000000	0.809813
427.000000	0.794861
426.000000	0.778682
425.000000	0.756731
424.000000	0.735508
423.000000	0.721854
422.000000	0.711409
421.000000	0.695077
420.000000	0.678500
419.000000	0.661592
418.000000	0.644605
417.000000	0.625669
416.000000	0.611422
415.000000	0.598021
414.000000	0.586321
413.000000	0.567879
412.000000	0.553805
411.000000	0.536171
410.000000	0.523226
409.000000	0.512957
408.000000	0.501341
407.000000	0.485244
406.000000	0.472588
405.000000	0.455866
404.000000	0.445944
403.000000	0.433893
402.000000	0.425134
401.000000	0.415377
400.000000	0.400360
399.000000	0.388155
398.000000	0.378114
397.000000	0.371027
396.000000	0.358479
395.000000	0.350419
394.000000	0.341934
393.000000	0.331078
392.000000	0.322233
391.000000	0.314756
390.000000	0.305136
389.000000	0.293881
388.000000	0.289332
387.000000	0.279024
386.000000	0.270923
385.000000	0.264313
384.000000	0.260445
383.000000	0.244248
382.000000	0.241513
381.000000	0.230942
380.000000	0.225309
379.000000	0.221401
378.000000	0.212150
377.000000	0.231299
376.000000	0.231734
375.000000	0.223161
374.000000	0.216302
373.000000	0.206046
372.000000	0.194997
371.000000	0.182793
370.000000	0.180029
369.000000	0.175087
368.000000	0.169669
367.000000	0.159142
366.000000	0.158116
365.000000	0.151357
364.000000	0.149695
363.000000	0.144730
362.000000	0.142670
361.000000	0.137480
360.000000	0.133076
359.000000	0.124105
358.000000	0.116405
357.000000	0.121085
356.000000	0.122413
355.000000	0.115250
354.000000	0.111431
353.000000	0.104304
352.000000	0.102311
351.000000	0.102173
350.000000	0.107855
349.000000	0.099377
348.000000	0.098282
347.000000	0.096831
346.000000	0.089386
345.000000	0.088171
344.000000	0.089148
343.000000	0.085996
342.000000	0.083460
341.000000	0.083395
340.000000	0.083233
339.000000	0.076428
338.000000	0.071313
337.000000	0.076706
336.000000	0.076946
335.000000	0.062091
334.000000	0.070718
333.000000	0.069101
332.000000	0.063294
331.000000	0.068147
330.000000	0.065029
329.000000	0.061836
328.000000	0.071002
327.000000	0.058678
326.000000	0.061655
325.000000	0.058425
324.000000	0.054290
323.000000	0.051513
322.000000	0.051413
321.000000	0.060805
320.000000	0.063487
319.000000	0.062845
318.000000	0.067361
317.000000	0.066704
316.000000	0.069106
315.000000	0.077857
314.000000	0.072766
313.000000	0.066975
312.000000	0.075532
311.000000	0.071432
310.000000	0.068836
309.000000	0.065856
308.000000	0.075197
307.000000	0.069008
306.000000	0.064651
305.000000	0.067828
304.000000	0.070452
303.000000	0.063977
302.000000	0.076077
301.000000	0.070022
300.000000	0.075022
299.000000	0.063984
298.000000	0.064610
297.000000	0.069763
296.000000	0.074229
295.000000	0.066991
294.000000	0.065324
293.000000	0.064733
292.000000	0.064970
291.000000	0.072050
290.000000	0.071358
289.000000	0.070635
288.000000	0.071215
287.000000	0.069856
286.000000	0.070591
285.000000	0.069152
284.000000	0.068385
283.000000	0.068622
282.000000	0.075572
281.000000	0.074543
280.000000	0.079601
279.000000	0.080860
278.000000	0.083045
277.000000	0.079740
276.000000	0.082088
275.000000	0.079767
274.000000	0.087377
273.000000	0.083719
272.000000	0.091787
271.000000	0.094542
270.000000	0.096145
269.000000	0.100731
268.000000	0.096332
267.000000	0.097849
266.000000	0.103916
265.000000	0.109426
264.000000	0.106927
263.000000	0.104963
262.000000	0.104642
261.000000	0.112417
260.000000	0.118891
259.000000	0.112861
258.000000	0.112418
257.000000	0.114818
256.000000	0.114048
255.000000	0.126368
254.000000	0.129319
253.000000	0.127438
252.000000	0.125016
251.000000	0.119838
250.000000	0.121088
249.000000	0.124370
248.000000	0.127590
247.000000	0.118365
246.000000	0.115856
245.000000	0.111754
244.000000	0.113028
243.000000	0.112198
242.000000	0.109314
241.000000	0.108658
240.000000	0.106890
239.000000	0.101000
238.000000	0.090283
237.000000	0.083188
236.000000	0.087930
235.000000	0.086624
234.000000	0.078938
233.000000	0.072239
232.000000	0.064569
231.000000	0.063484
230.000000	0.058478
229.000000	0.047323
228.000000	0.048896
227.000000	0.040292
226.000000	0.039318
225.000000	0.045436
224.000000	0.039730
223.000000	0.030985
222.000000	0.027989
221.000000	0.028030
220.000000	0.027896
219.000000	0.028985
218.000000	0.028732
217.000000	0.026436
216.000000	0.026010
215.000000	0.029169
214.000000	0.030533
213.000000	0.028175
212.000000	0.022218
211.000000	0.019864
210.000000	0.013785
209.000000	-0.000524
208.000000	-0.018526
207.000000	-0.006877
206.000000	0.015518
205.000000	0.005337
204.000000	-0.013278
203.000000	-0.012413
202.000000	0.000429
201.000000	-0.000429
200.000000	0.005922
