PE UV       SUBTECH     SPECTRUM    ASCII       PEDS        4.00        
   -1
histo1_veau_slide2_2.Sample.asc
23/09/14
15:18:11.00
23/09/14
15:18:11.00
Administrator

250.000000
1
Lambda 750
750N8071901
PerkinElmer UV WinLab 6.0.4.0738 / 1.61.00 Lambda 900

0
0
3350/servo 860.8/2
0
0
UV/VIS
1
1
1
CommonBeamDepol,150mm sphere / downward view
0
0
0
0
Program
Program
3350/servo 860.8/2
3350/0.2 860.8/0.2
3350/0.2 860.8/0.2
0
1
 
 
 
0
 
860.8
319.2
860.8
Front
100
on
 
 
0
0
0
 
0
 
 
 
0
 
 
0
0
0
0
0
 
 
 
 
0
0


0
0
#HDR
-1
-1
#GR
nm
%R
1.0
0.0
2500.000000
-10.000000
226
8
36.428288
1.008419
#DATA
2500.000000	8.955587
2490.000000	9.865970
2480.000000	11.274818
2470.000000	11.963994
2460.000000	12.149868
2450.000000	12.628278
2440.000000	12.928444
2430.000000	13.938112
2420.000000	13.513240
2410.000000	14.668442
2400.000000	14.423215
2390.000000	14.126353
2380.000000	14.614619
2370.000000	14.003867
2360.000000	14.760882
2350.000000	14.549440
2340.000000	14.534095
2330.000000	14.848845
2320.000000	13.972558
2310.000000	13.245847
2300.000000	13.375247
2290.000000	13.880836
2280.000000	14.222781
2270.000000	15.098802
2260.000000	16.728907
2250.000000	17.457996
2240.000000	17.266781
2230.000000	17.097605
2220.000000	16.673042
2210.000000	16.262732
2200.000000	15.918857
2190.000000	15.676313
2180.000000	16.650578
2170.000000	17.129460
2160.000000	18.178267
2150.000000	19.228531
2140.000000	19.279286
2130.000000	19.713217
2120.000000	19.677979
2110.000000	19.779401
2100.000000	19.500336
2090.000000	18.613378
2080.000000	17.983938
2070.000000	16.882014
2060.000000	16.302730
2050.000000	16.730639
2040.000000	17.204772
2030.000000	17.049807
2020.000000	16.449628
2010.000000	15.544526
2000.000000	14.645883
1990.000000	13.879132
1980.000000	13.235884
1970.000000	12.798073
1960.000000	12.488526
1950.000000	12.915909
1940.000000	14.208461
1930.000000	16.376169
1920.000000	19.593041
1910.000000	23.458645
1900.000000	26.845073
1890.000000	29.534213
1880.000000	30.991972
1870.000000	31.405537
1860.000000	31.525195
1850.000000	31.388109
1840.000000	31.030525
1830.000000	30.856607
1820.000000	30.544199
1810.000000	30.261616
1800.000000	30.119982
1790.000000	29.942840
1780.000000	29.710538
1770.000000	29.468259
1760.000000	29.243049
1750.000000	28.940499
1740.000000	29.239439
1730.000000	29.799209
1720.000000	30.186783
1710.000000	30.313219
1700.000000	30.763673
1690.000000	31.725482
1680.000000	32.592755
1670.000000	32.915914
1660.000000	32.983903
1650.000000	32.760734
1640.000000	32.408142
1630.000000	31.966614
1620.000000	31.497823
1610.000000	31.047667
1600.000000	30.640588
1590.000000	30.259742
1580.000000	29.947970
1570.000000	29.706309
1560.000000	29.391009
1550.000000	28.772912
1540.000000	28.185089
1530.000000	27.815692
1520.000000	27.595210
1510.000000	27.461473
1500.000000	27.461958
1490.000000	27.543496
1480.000000	27.679440
1470.000000	27.899980
1460.000000	28.307886
1450.000000	28.890345
1440.000000	29.797065
1430.000000	31.017208
1420.000000	32.491978
1410.000000	33.765846
1400.000000	34.706221
1390.000000	35.181496
1380.000000	35.512294
1370.000000	35.789788
1360.000000	35.941799
1350.000000	36.158855
1340.000000	36.332821
1330.000000	36.404795
1320.000000	36.428288
1310.000000	36.332465
1300.000000	36.168943
1290.000000	36.001768
1280.000000	35.920469
1270.000000	35.839886
1260.000000	35.755698
1250.000000	35.635312
1240.000000	35.558129
1230.000000	35.466191
1220.000000	35.192004
1210.000000	34.900277
1200.000000	34.774591
1190.000000	34.824638
1180.000000	35.000052
1170.000000	35.287746
1160.000000	35.428570
1150.000000	35.552389
1140.000000	35.637195
1130.000000	35.590674
1120.000000	35.545638
1110.000000	35.487843
1100.000000	35.404406
1090.000000	35.334614
1080.000000	35.247370
1070.000000	35.165578
1060.000000	35.090500
1050.000000	34.987014
1040.000000	34.880944
1030.000000	34.791414
1020.000000	34.722793
1010.000000	34.695338
1000.000000	34.612295
990.000000	34.539487
980.000000	34.483040
970.000000	34.474118
960.000000	34.449115
950.000000	34.339244
940.000000	34.225892
930.000000	34.163834
920.000000	34.112999
910.000000	34.105020
900.000000	34.109512
890.000000	33.996884
880.000000	33.929205
870.000000	33.725618
860.000000	33.765646
850.000000	31.506104
840.000000	31.309838
830.000000	31.098759
820.000000	30.648844
810.000000	30.533711
800.000000	30.253151
790.000000	30.093792
780.000000	29.820395
770.000000	29.469014
760.000000	29.144409
750.000000	28.690682
740.000000	28.375757
730.000000	27.983953
720.000000	27.517596
710.000000	27.011496
700.000000	26.638067
690.000000	26.037180
680.000000	25.440053
670.000000	24.874790
660.000000	24.325467
650.000000	23.736614
640.000000	23.171210
630.000000	22.571478
620.000000	22.019081
610.000000	21.358159
600.000000	20.763397
590.000000	20.089669
580.000000	19.338296
570.000000	18.618972
560.000000	17.789600
550.000000	16.944482
540.000000	16.096685
530.000000	15.249440
520.000000	14.378870
510.000000	13.515290
500.000000	12.667321
490.000000	11.806614
480.000000	11.020944
470.000000	10.234313
460.000000	9.459503
450.000000	8.597107
440.000000	7.721607
430.000000	6.820523
420.000000	6.015756
410.000000	5.196299
400.000000	4.467393
390.000000	3.783367
380.000000	3.254860
370.000000	2.726208
360.000000	2.456371
350.000000	2.038138
340.000000	1.956017
330.000000	1.612280
320.000000	1.706626
310.000000	1.008419
300.000000	1.202591
290.000000	1.153529
280.000000	1.176683
270.000000	1.233036
260.000000	1.498723
250.000000	1.694269
